PE IR       SPECTRUM    SPECTRUM    ASCII       PEDS        1.60        
  -1
C-9A65~1.ASC
17/05/02
13:16:01.00
17/05/02
13:16:01.00
tln
$C-4040-8_t0028$<tbV0>[-2.5,7.0,8.0,0.0,22,1,0]
370.000000
64









2002,4.07    
MIRTGS : RIGHTBACK : INTERNAL 2
MIR : ON : INTERNAL 2
OPTKBR

0.200000
8
8.000000
FILLER
RATIO
SPECTRUM
UNLOCKED 256

DOUBLE
64
COMBINED
1
0
0


1.000000
RATIO


1
0
TRUE
51149
0
LEFT NOT FITTED RIGHT NOT FITTED 0
NONE
NONE
15600
12.000000
4.427000
51148
TRUE
1 0 8 72 0 0 0 0 

15798.010000






#HDR
-1
-1
#GR
CM-1
%T
0.00002384185791015625
0.0
7800.000000
-1.000000
7431
8
77.198243
36.951327
#DATA
7800.000000	76.747941 
7799.000000	77.105593 
7798.000000	77.198243 
7797.000000	77.007579 
7796.000000	76.558661 
7795.000000	75.917100 
7794.000000	75.180721 
7793.000000	74.459958 
7792.000000	73.855042 
7791.000000	73.434090 
7790.000000	73.222565 
7789.000000	73.194813 
7788.000000	73.284530 
7787.000000	73.394298 
7786.000000	73.416495 
7785.000000	73.253703 
7784.000000	72.836279 
7783.000000	72.139501 
7782.000000	71.180868 
7781.000000	70.028042 
7780.000000	68.770813 
7779.000000	67.527484 
7778.000000	66.416692 
7777.000000	65.554428 
7776.000000	65.036273 
7775.000000	64.922118 
7774.000000	65.225601 
7773.000000	65.905904 
7772.000000	66.872930 
7771.000000	67.992854 
7770.000000	69.104552 
7769.000000	70.050430 
7768.000000	70.699357 
7767.000000	70.973634 
7766.000000	70.858287 
7765.000000	70.397567 
7764.000000	69.679999 
7763.000000	68.818879 
7762.000000	67.930006 
7761.000000	67.105340 
7760.000000	66.410160 
7759.000000	65.884375 
7758.000000	65.555620 
7757.000000	65.453147 
7756.000000	65.609049 
7755.000000	66.058993 
7754.000000	66.819167 
7753.000000	67.870712 
7752.000000	69.140553 
7751.000000	70.494556 
7750.000000	71.758460 
7749.000000	72.739982 
7748.000000	73.281860 
7747.000000	73.297214 
7746.000000	72.798848 
7745.000000	71.898984 
7744.000000	70.789909 
7743.000000	69.700860 
7742.000000	68.849849 
7741.000000	68.398523 
7740.000000	68.417263 
7739.000000	68.877172 
7738.000000	69.668793 
7737.000000	70.635247 
7736.000000	71.609473 
7735.000000	72.450757 
7734.000000	73.066544 
7733.000000	73.420739 
7732.000000	73.519921 
7731.000000	73.400306 
7730.000000	73.102521 
7729.000000	72.662878 
7728.000000	72.109341 
7727.000000	71.463847 
7726.000000	70.763158 
7725.000000	70.049500 
7724.000000	69.389200 
7723.000000	68.841242 
7722.000000	68.454027 
7721.000000	68.238878 
7720.000000	68.161606 
7719.000000	68.152523 
7718.000000	68.122553 
7717.000000	67.987084 
7716.000000	67.688131 
7715.000000	67.209076 
7714.000000	66.576576 
7713.000000	65.859508 
7712.000000	65.150713 
7711.000000	64.548420 
7710.000000	64.130449 
7709.000000	63.950085 
7708.000000	64.017987 
7707.000000	64.294958 
7706.000000	64.697337 
7705.000000	65.107941 
7704.000000	65.404868 
7703.000000	65.488767 
7702.000000	65.308833 
7701.000000	64.864778 
7700.000000	64.215779 
7699.000000	63.461852 
7698.000000	62.725114 
7697.000000	62.117671 
7696.000000	61.722493 
7695.000000	61.576676 
7694.000000	61.670374 
7693.000000	61.953949 
7692.000000	62.359237 
7691.000000	62.813806 
7690.000000	63.271307 
7689.000000	63.715529 
7688.000000	64.170002 
7687.000000	64.679455 
7686.000000	65.301632 
7685.000000	66.080665 
7684.000000	67.032861 
7683.000000	68.130278 
7682.000000	69.309592 
7681.000000	70.474457 
7680.000000	71.508073 
7679.000000	72.290658 
7678.000000	72.734236 
7677.000000	72.789716 
7676.000000	72.459959 
7675.000000	71.789717 
7674.000000	70.866012 
7673.000000	69.788861 
7672.000000	68.662142 
7671.000000	67.568659 
7670.000000	66.565561 
7669.000000	65.683531 
7668.000000	64.936542 
7667.000000	64.333105 
7666.000000	63.884782 
7665.000000	63.611960 
7664.000000	63.536071 
7663.000000	63.675284 
7662.000000	64.025235 
7661.000000	64.561271 
7660.000000	65.230989 
7659.000000	65.965700 
7658.000000	66.688489 
7657.000000	67.346811 
7656.000000	67.922520 
7655.000000	68.436908 
7654.000000	68.938732 
7653.000000	69.494700 
7652.000000	70.156311 
7651.000000	70.937991 
7650.000000	71.796798 
7649.000000	72.644734 
7648.000000	73.355889 
7647.000000	73.804020 
7646.000000	73.887801 
7645.000000	73.564934 
7644.000000	72.861933 
7643.000000	71.881771 
7642.000000	70.773363 
7641.000000	69.696211 
7640.000000	68.791174 
7639.000000	68.157720 
7638.000000	67.833709 
7637.000000	67.798161 
7636.000000	67.983508 
7635.000000	68.302249 
7634.000000	68.664073 
7633.000000	68.997335 
7632.000000	69.251298 
7631.000000	69.396615 
7630.000000	69.422698 
7629.000000	69.329190 
7628.000000	69.118285 
7627.000000	68.790221 
7626.000000	68.347239 
7625.000000	67.797207 
7624.000000	67.156505 
7623.000000	66.458606 
7622.000000	65.752887 
7621.000000	65.109276 
7620.000000	64.598751 
7619.000000	64.297413 
7618.000000	64.269709 
7617.000000	64.560532 
7616.000000	65.181541 
7615.000000	66.102886 
7614.000000	67.253804 
7613.000000	68.521761 
7612.000000	69.769024 
7611.000000	70.846581 
7610.000000	71.617817 
7609.000000	71.982789 
7608.000000	71.897792 
7607.000000	71.381711 
7606.000000	70.512127 
7605.000000	69.417333 
7604.000000	68.254017 
7603.000000	67.183113 
7602.000000	66.342306 
7601.000000	65.826821 
7600.000000	65.674567 
7599.000000	65.866327 
7598.000000	66.332483 
7597.000000	66.966032 
7596.000000	67.648196 
7595.000000	68.265652 
7594.000000	68.737888 
7593.000000	69.016385 
7592.000000	69.101524 
7591.000000	69.029164 
7590.000000	68.863177 
7589.000000	68.678092 
7588.000000	68.535518 
7587.000000	68.472838 
7586.000000	68.490242 
7585.000000	68.560791 
7584.000000	68.634128 
7583.000000	68.658280 
7582.000000	68.592572 
7581.000000	68.421721 
7580.000000	68.162608 
7579.000000	67.860507 
7578.000000	67.575430 
7577.000000	67.364001 
7576.000000	67.263698 
7575.000000	67.279863 
7574.000000	67.385673 
7573.000000	67.526221 
7572.000000	67.632627 
7571.000000	67.637228 
7570.000000	67.489910 
7569.000000	67.169404 
7568.000000	66.685557 
7567.000000	66.080451 
7566.000000	65.408229 
7565.000000	64.736652 
7564.000000	64.133238 
7563.000000	63.659739 
7562.000000	63.364028 
7561.000000	63.273644 
7560.000000	63.389682 
7559.000000	63.690376 
7558.000000	64.133262 
7557.000000	64.664745 
7556.000000	65.223193 
7555.000000	65.756225 
7554.000000	66.222071 
7553.000000	66.603279 
7552.000000	66.903114 
7551.000000	67.142081 
7550.000000	67.345619 
7549.000000	67.533063 
7548.000000	67.704772 
7547.000000	67.837834 
7546.000000	67.884302 
7545.000000	67.781186 
7544.000000	67.463040 
7543.000000	66.882753 
7542.000000	66.029071 
7541.000000	64.927172 
7540.000000	63.656210 
7539.000000	62.328624 
7538.000000	61.096525 
7537.000000	60.121226 
7536.000000	59.554815 
7535.000000	59.513950 
7534.000000	60.047054 
7533.000000	61.116695 
7532.000000	62.597966 
7531.000000	64.293360 
7530.000000	65.970683 
7529.000000	67.403864 
7528.000000	68.415522 
7527.000000	68.905091 
7526.000000	68.861532 
7525.000000	68.354678 
7524.000000	67.510557 
7523.000000	66.477966 
7522.000000	65.401482 
7521.000000	64.396190 
7520.000000	63.538956 
7519.000000	62.865781 
7518.000000	62.384176 
7517.000000	62.083649 
7516.000000	61.946129 
7515.000000	61.956620 
7514.000000	62.096619 
7513.000000	62.355113 
7512.000000	62.707757 
7511.000000	63.135313 
7510.000000	63.614583 
7509.000000	64.126300 
7508.000000	64.658617 
7507.000000	65.194201 
7506.000000	65.705442 
7505.000000	66.152000 
7504.000000	66.484665 
7503.000000	66.655182 
7502.000000	66.630458 
7501.000000	66.402721 
7500.000000	65.999460 
7499.000000	65.475296 
7498.000000	64.905905 
7497.000000	64.365673 
7496.000000	63.913202 
7495.000000	63.582110 
7494.000000	63.376617 
7493.000000	63.277959 
7492.000000	63.251376 
7491.000000	63.250756 
7490.000000	63.231611 
7489.000000	63.159942 
7488.000000	63.020801 
7487.000000	62.811350 
7486.000000	62.548279 
7485.000000	62.256479 
7484.000000	61.971926 
7483.000000	61.732578 
7482.000000	61.573290 
7481.000000	61.523127 
7480.000000	61.593127 
7479.000000	61.771202 
7478.000000	62.025260 
7477.000000	62.306332 
7476.000000	62.565326 
7475.000000	62.760996 
7474.000000	62.876486 
7473.000000	62.919902 
7472.000000	62.926864 
7471.000000	62.948250 
7470.000000	63.037753 
7469.000000	63.235473 
7468.000000	63.559556 
7467.000000	63.999462 
7466.000000	64.521145 
7465.000000	65.072154 
7464.000000	65.594482 
7463.000000	66.033482 
7462.000000	66.344451 
7461.000000	66.501998 
7460.000000	66.499376 
7459.000000	66.357374 
7458.000000	66.108965 
7457.000000	65.812468 
7456.000000	65.543889 
7455.000000	65.390133 
7454.000000	65.438103 
7453.000000	65.751981 
7452.000000	66.362023 
7451.000000	67.245674 
7450.000000	68.330454 
7449.000000	69.498729 
7448.000000	70.607852 
7447.000000	71.521759 
7446.000000	72.139787 
7445.000000	72.414946 
7444.000000	72.360205 
7443.000000	72.043204 
7442.000000	71.565890 
7441.000000	71.032333 
7440.000000	70.520472 
7439.000000	70.065522 
7438.000000	69.652342 
7437.000000	69.231748 
7436.000000	68.736457 
7435.000000	68.109035 
7434.000000	67.319965 
7433.000000	66.382741 
7432.000000	65.353322 
7431.000000	64.305210 
7430.000000	63.325858 
7429.000000	62.490057 
7428.000000	61.857080 
7427.000000	61.447548 
7426.000000	61.262845 
7425.000000	61.281299 
7424.000000	61.481618 
7423.000000	61.836075 
7422.000000	62.335181 
7421.000000	62.976789 
7420.000000	63.767814 
7419.000000	64.703369 
7418.000000	65.765118 
7417.000000	66.909623 
7416.000000	68.068099 
7415.000000	69.150733 
7414.000000	70.059180 
7413.000000	70.701193 
7412.000000	71.011328 
7411.000000	70.960569 
7410.000000	70.558524 
7409.000000	69.848990 
7408.000000	68.912386 
7407.000000	67.844390 
7406.000000	66.744470 
7405.000000	65.695762 
7404.000000	64.766097 
7403.000000	63.992834 
7402.000000	63.390493 
7401.000000	62.948703 
7400.000000	62.641644 
7399.000000	62.436079 
7398.000000	62.293982 
7397.000000	62.187147 
7396.000000	62.088823 
7395.000000	61.992216 
7394.000000	61.898779 
7393.000000	61.827778 
7392.000000	61.801505 
7391.000000	61.849427 
7390.000000	61.995959 
7389.000000	62.259387 
7388.000000	62.643885 
7387.000000	63.143467 
7386.000000	63.739442 
7385.000000	64.403843 
7384.000000	65.098476 
7383.000000	65.778303 
7382.000000	66.391682 
7381.000000	66.886806 
7380.000000	67.213892 
7379.000000	67.338752 
7378.000000	67.240166 
7377.000000	66.924095 
7376.000000	66.410779 
7375.000000	65.738320 
7374.000000	64.949703 
7373.000000	64.092898 
7372.000000	63.214015 
7371.000000	62.356615 
7370.000000	61.563611 
7369.000000	60.876631 
7368.000000	60.338091 
7367.000000	59.983134 
7366.000000	59.843277 
7365.000000	59.934377 
7364.000000	60.260581 
7363.000000	60.804939 
7362.000000	61.535167 
7361.000000	62.401318 
7360.000000	63.345670 
7359.000000	64.305853 
7358.000000	65.223908 
7357.000000	66.047787 
7356.000000	66.738080 
7355.000000	67.262482 
7354.000000	67.602777 
7353.000000	67.741727 
7352.000000	67.671442 
7351.000000	67.379832 
7350.000000	66.865849 
7349.000000	66.130852 
7348.000000	65.192341 
7347.000000	64.083647 
7346.000000	62.860345 
7345.000000	61.600494 
7344.000000	60.396409 
7343.000000	59.351086 
7342.000000	58.560395 
7341.000000	58.102202 
7340.000000	58.016633 
7339.000000	58.302688 
7338.000000	58.911538 
7337.000000	59.756898 
7336.000000	60.724782 
7335.000000	61.695933 
7334.000000	62.562251 
7333.000000	63.250112 
7332.000000	63.728284 
7331.000000	64.009165 
7330.000000	64.137911 
7329.000000	64.181184 
7328.000000	64.204168 
7327.000000	64.255857 
7326.000000	64.353537 
7325.000000	64.490890 
7324.000000	64.635014 
7323.000000	64.747643 
7322.000000	64.790558 
7321.000000	64.741039 
7320.000000	64.596319 
7319.000000	64.378595 
7318.000000	64.125728 
7317.000000	63.876914 
7316.000000	63.667154 
7315.000000	63.524317 
7314.000000	63.455319 
7313.000000	63.443613 
7312.000000	63.459491 
7311.000000	63.471174 
7310.000000	63.452792 
7309.000000	63.392353 
7308.000000	63.295054 
7307.000000	63.180255 
7306.000000	63.077831 
7305.000000	63.018155 
7304.000000	63.019824 
7303.000000	63.082981 
7302.000000	63.191604 
7301.000000	63.316750 
7300.000000	63.420557 
7299.000000	63.470101 
7298.000000	63.445997 
7297.000000	63.353896 
7296.000000	63.216233 
7295.000000	63.080239 
7294.000000	62.999653 
7293.000000	63.036298 
7292.000000	63.238811 
7291.000000	63.642501 
7290.000000	64.263081 
7289.000000	65.086960 
7288.000000	66.076254 
7287.000000	67.159032 
7286.000000	68.242001 
7285.000000	69.214105 
7284.000000	69.965314 
7283.000000	70.405077 
7282.000000	70.480871 
7281.000000	70.192956 
7280.000000	69.596886 
7279.000000	68.798017 
7278.000000	67.930316 
7277.000000	67.131400 
7276.000000	66.512346 
7275.000000	66.137504 
7274.000000	66.012072 
7273.000000	66.086721 
7272.000000	66.274881 
7271.000000	66.480374 
7270.000000	66.623163 
7269.000000	66.655921 
7268.000000	66.574501 
7267.000000	66.407489 
7266.000000	66.206431 
7265.000000	66.019439 
7264.000000	65.880370 
7263.000000	65.795493 
7262.000000	65.744972 
7261.000000	65.696811 
7260.000000	65.610980 
7259.000000	65.457224 
7258.000000	65.219569 
7257.000000	64.903688 
7256.000000	64.531683 
7255.000000	64.136433 
7254.000000	63.749980 
7253.000000	63.394236 
7252.000000	63.081502 
7251.000000	62.812876 
7250.000000	62.581539 
7249.000000	62.376451 
7248.000000	62.182807 
7247.000000	61.988472 
7246.000000	61.784434 
7245.000000	61.571598 
7244.000000	61.354088 
7243.000000	61.148047 
7242.000000	60.973453 
7241.000000	60.860204 
7240.000000	60.835170 
7239.000000	60.927343 
7238.000000	61.152195 
7237.000000	61.520028 
7236.000000	62.028026 
7235.000000	62.664175 
7234.000000	63.405752 
7233.000000	64.218664 
7232.000000	65.058255 
7231.000000	65.871381 
7230.000000	66.602587 
7229.000000	67.198204 
7228.000000	67.614579 
7227.000000	67.826890 
7226.000000	67.835402 
7225.000000	67.668199 
7224.000000	67.376995 
7223.000000	67.033219 
7222.000000	66.711997 
7221.000000	66.476821 
7220.000000	66.364264 
7219.000000	66.381072 
7218.000000	66.501855 
7217.000000	66.678261 
7216.000000	66.852807 
7215.000000	66.973876 
7214.000000	67.010855 
7213.000000	66.958785 
7212.000000	66.840863 
7211.000000	66.695833 
7210.000000	66.570329 
7209.000000	66.504526 
7208.000000	66.521143 
7207.000000	66.618871 
7206.000000	66.774344 
7205.000000	66.953611 
7204.000000	67.115354 
7203.000000	67.222189 
7202.000000	67.250275 
7201.000000	67.195940 
7200.000000	67.070460 
7199.000000	66.895127 
7198.000000	66.699600 
7197.000000	66.514468 
7196.000000	66.365766 
7195.000000	66.269731 
7194.000000	66.232013 
7193.000000	66.246390 
7192.000000	66.299700 
7191.000000	66.373372 
7190.000000	66.445016 
7189.000000	66.494083 
7188.000000	66.506457 
7187.000000	66.475868 
7186.000000	66.403889 
7185.000000	66.296958 
7184.000000	66.166090 
7183.000000	66.018271 
7182.000000	65.857887 
7181.000000	65.679097 
7180.000000	65.470719 
7179.000000	65.215849 
7178.000000	64.898681 
7177.000000	64.511847 
7176.000000	64.062166 
7175.000000	63.573265 
7174.000000	63.082695 
7173.000000	62.637662 
7172.000000	62.285280 
7171.000000	62.065386 
7170.000000	62.002754 
7169.000000	62.100958 
7168.000000	62.343502 
7167.000000	62.698411 
7166.000000	63.126921 
7165.000000	63.590073 
7164.000000	64.056372 
7163.000000	64.502954 
7162.000000	64.915966 
7161.000000	65.287876 
7160.000000	65.611600 
7159.000000	65.876603 
7158.000000	66.067886 
7157.000000	66.169142 
7156.000000	66.167879 
7155.000000	66.064167 
7154.000000	65.873169 
7153.000000	65.628337 
7152.000000	65.375518 
7151.000000	65.167498 
7150.000000	65.050101 
7149.000000	65.053987 
7148.000000	65.183401 
7147.000000	65.415263 
7146.000000	65.703368 
7145.000000	65.990161 
7144.000000	66.216039 
7143.000000	66.333913 
7142.000000	66.319537 
7141.000000	66.177654 
7140.000000	65.938997 
7139.000000	65.654277 
7138.000000	65.382075 
7137.000000	65.176248 
7136.000000	65.078783 
7135.000000	65.107059 
7134.000000	65.257072 
7133.000000	65.496730 
7132.000000	65.778875 
7131.000000	66.042828 
7130.000000	66.228222 
7129.000000	66.283988 
7128.000000	66.178083 
7127.000000	65.904355 
7126.000000	65.480804 
7125.000000	64.950489 
7124.000000	64.370369 
7123.000000	63.806796 
7122.000000	63.323020 
7121.000000	62.972640 
7120.000000	62.791705 
7119.000000	62.794089 
7118.000000	62.970542 
7117.000000	63.285708 
7116.000000	63.684725 
7115.000000	64.097189 
7114.000000	64.452004 
7113.000000	64.691090 
7112.000000	64.782929 
7111.000000	64.725303 
7110.000000	64.547538 
7109.000000	64.302587 
7108.000000	64.054584 
7107.000000	63.864874 
7106.000000	63.776969 
7105.000000	63.809490 
7104.000000	63.952040 
7103.000000	64.174962 
7102.000000	64.434409 
7101.000000	64.684629 
7100.000000	64.890098 
7099.000000	65.030813 
7098.000000	65.109133 
7097.000000	65.145087 
7096.000000	65.169858 
7095.000000	65.214228 
7094.000000	65.298461 
7093.000000	65.425801 
7092.000000	65.579748 
7091.000000	65.728807 
7090.000000	65.833067 
7089.000000	65.855121 
7088.000000	65.769290 
7087.000000	65.568804 
7086.000000	65.265965 
7085.000000	64.890956 
7084.000000	64.483237 
7083.000000	64.086270 
7082.000000	63.739252 
7081.000000	63.473105 
7080.000000	63.307380 
7079.000000	63.249659 
7078.000000	63.296294 
7077.000000	63.434600 
7076.000000	63.646841 
7075.000000	63.909697 
7074.000000	64.194607 
7073.000000	64.470195 
7072.000000	64.703440 
7071.000000	64.863705 
7070.000000	64.927387 
7069.000000	64.878749 
7068.000000	64.713740 
7067.000000	64.437818 
7066.000000	64.066886 
7065.000000	63.624382 
7064.000000	63.140273 
7063.000000	62.646269 
7062.000000	62.173771 
7061.000000	61.754512 
7060.000000	61.418676 
7059.000000	61.188292 
7058.000000	61.078405 
7057.000000	61.091756 
7056.000000	61.224079 
7055.000000	61.462926 
7054.000000	61.793565 
7053.000000	62.194490 
7052.000000	62.643814 
7051.000000	63.118910 
7050.000000	63.596606 
7049.000000	64.052629 
7048.000000	64.460277 
7047.000000	64.792466 
7046.000000	65.023231 
7045.000000	65.132427 
7044.000000	65.110635 
7043.000000	64.964270 
7042.000000	64.717268 
7041.000000	64.409732 
7040.000000	64.095044 
7039.000000	63.831830 
7038.000000	63.677954 
7037.000000	63.680624 
7036.000000	63.872838 
7035.000000	64.265203 
7034.000000	64.847159 
7033.000000	65.581488 
7032.000000	66.402530 
7031.000000	67.219829 
7030.000000	67.930984 
7029.000000	68.435716 
7028.000000	68.651080 
7027.000000	68.529367 
7026.000000	68.072319 
7025.000000	67.330837 
7024.000000	66.399407 
7023.000000	65.395998 
7022.000000	64.444351 
7021.000000	63.647198 
7020.000000	63.076710 
7019.000000	62.756752 
7018.000000	62.667083 
7017.000000	62.752127 
7016.000000	62.940430 
7015.000000	63.161110 
7014.000000	63.355636 
7013.000000	63.494753 
7012.000000	63.576674 
7011.000000	63.623452 
7010.000000	63.665533 
7009.000000	63.736248 
7008.000000	63.859081 
7007.000000	64.043211 
7006.000000	64.281749 
7005.000000	64.557600 
7004.000000	64.848470 
7003.000000	65.135598 
7002.000000	65.406203 
7001.000000	65.656828 
7000.000000	65.888667 
6999.000000	66.105055 
6998.000000	66.304063 
6997.000000	66.477560 
6996.000000	66.607785 
6995.000000	66.676163 
6994.000000	66.662192 
6993.000000	66.552138 
6992.000000	66.342282 
6991.000000	66.048216 
6990.000000	65.695977 
6989.000000	65.319776 
6988.000000	64.952874 
6987.000000	64.624452 
6986.000000	64.347743 
6985.000000	64.119839 
6984.000000	63.922476 
6983.000000	63.729548 
6982.000000	63.518309 
6981.000000	63.279414 
6980.000000	63.019013 
6979.000000	62.760949 
6978.000000	62.541270 
6977.000000	62.402224 
6976.000000	62.375664 
6975.000000	62.480378 
6974.000000	62.717437 
6973.000000	63.071727 
6972.000000	63.512563 
6971.000000	64.001679 
6970.000000	64.502143 
6969.000000	64.980149 
6968.000000	65.408134 
6967.000000	65.763735 
6966.000000	66.028785 
6965.000000	66.190052 
6964.000000	66.240811 
6963.000000	66.181921 
6962.000000	66.024184 
6961.000000	65.788793 
6960.000000	65.510869 
6959.000000	65.226888 
6958.000000	64.970827 
6957.000000	64.766597 
6956.000000	64.626026 
6955.000000	64.542722 
6954.000000	64.495348 
6953.000000	64.456677 
6952.000000	64.400529 
6951.000000	64.306926 
6950.000000	64.165925 
6949.000000	63.977599 
6948.000000	63.750505 
6947.000000	63.495683 
6946.000000	63.226199 
6945.000000	62.949037 
6944.000000	62.672710 
6943.000000	62.407183 
6942.000000	62.169933 
6941.000000	61.981630 
6940.000000	61.869001 
6939.000000	61.859297 
6938.000000	61.973166 
6937.000000	62.212300 
6936.000000	62.562465 
6935.000000	62.990784 
6934.000000	63.454961 
6933.000000	63.907718 
6932.000000	64.311933 
6931.000000	64.645910 
6930.000000	64.909768 
6929.000000	65.121650 
6928.000000	65.310573 
6927.000000	65.504145 
6926.000000	65.720486 
6925.000000	65.958952 
6924.000000	66.199088 
6923.000000	66.402244 
6922.000000	66.526579 
6921.000000	66.533899 
6920.000000	66.402745 
6919.000000	66.131854 
6918.000000	65.745258 
6917.000000	65.283608 
6916.000000	64.794778 
6915.000000	64.324021 
6914.000000	63.907694 
6913.000000	63.566851 
6912.000000	63.305592 
6911.000000	63.116788 
6910.000000	62.988328 
6909.000000	62.909770 
6908.000000	62.875604 
6907.000000	62.886786 
6906.000000	62.945652 
6905.000000	63.054013 
6904.000000	63.206720 
6903.000000	63.388991 
6902.000000	63.574981 
6901.000000	63.735771 
6900.000000	63.844823 
6899.000000	63.882827 
6898.000000	63.842749 
6897.000000	63.732242 
6896.000000	63.572883 
6895.000000	63.392925 
6894.000000	63.224291 
6893.000000	63.097143 
6892.000000	63.036394 
6891.000000	63.057088 
6890.000000	63.164782 
6889.000000	63.357615 
6888.000000	63.625574 
6887.000000	63.952803 
6886.000000	64.317679 
6885.000000	64.692068 
6884.000000	65.046977 
6883.000000	65.355920 
6882.000000	65.598368 
6881.000000	65.761160 
6880.000000	65.842080 
6879.000000	65.851116 
6878.000000	65.804433 
6877.000000	65.721702 
6876.000000	65.620160 
6875.000000	65.512275 
6874.000000	65.404987 
6873.000000	65.300464 
6872.000000	65.198636 
6871.000000	65.097761 
6870.000000	64.997458 
6869.000000	64.896488 
6868.000000	64.791345 
6867.000000	64.675354 
6866.000000	64.537262 
6865.000000	64.366555 
6864.000000	64.153313 
6863.000000	63.898372 
6862.000000	63.612461 
6861.000000	63.322114 
6860.000000	63.065528 
6859.000000	62.885904 
6858.000000	62.820267 
6857.000000	62.890076 
6856.000000	63.092947 
6855.000000	63.401842 
6854.000000	63.769602 
6853.000000	64.137434 
6852.000000	64.446616 
6851.000000	64.651417 
6850.000000	64.727592 
6849.000000	64.675092 
6848.000000	64.515447 
6847.000000	64.283680 
6846.000000	64.018321 
6845.000000	63.753485 
6844.000000	63.512635 
6843.000000	63.305807 
6842.000000	63.132286 
6841.000000	62.987589 
6840.000000	62.869381 
6839.000000	62.778186 
6838.000000	62.723469 
6837.000000	62.718129 
6836.000000	62.780308 
6835.000000	62.924098 
6834.000000	63.157725 
6833.000000	63.477730 
6832.000000	63.867068 
6831.000000	64.294886 
6830.000000	64.721083 
6829.000000	65.102291 
6828.000000	65.401077 
6827.000000	65.593051 
6826.000000	65.671873 
6825.000000	65.650153 
6824.000000	65.556097 
6823.000000	65.427446 
6822.000000	65.301561 
6821.000000	65.207934 
6820.000000	65.164136 
6819.000000	65.175032 
6818.000000	65.234255 
6817.000000	65.329241 
6816.000000	65.447926 
6815.000000	65.582513 
6814.000000	65.731620 
6813.000000	65.898060 
6812.000000	66.082811 
6811.000000	66.282272 
6810.000000	66.484522 
6809.000000	66.671085 
6808.000000	66.821646 
6807.000000	66.917157 
6806.000000	66.949105 
6805.000000	66.916131 
6804.000000	66.828060 
6803.000000	66.698312 
6802.000000	66.542148 
6801.000000	66.371202 
6800.000000	66.194343 
6799.000000	66.014075 
6798.000000	65.829372 
6797.000000	65.637874 
6796.000000	65.440487 
6795.000000	65.240669 
6794.000000	65.045309 
6793.000000	64.863920 
6792.000000	64.707016 
6791.000000	64.582800 
6790.000000	64.495706 
6789.000000	64.445471 
6788.000000	64.427709 
6787.000000	64.434242 
6786.000000	64.455580 
6785.000000	64.481997 
6784.000000	64.506745 
6783.000000	64.523696 
6782.000000	64.531517 
6781.000000	64.533948 
6780.000000	64.537835 
6779.000000	64.552068 
6778.000000	64.582061 
6777.000000	64.627504 
6776.000000	64.680433 
6775.000000	64.726662 
6774.000000	64.749407 
6773.000000	64.733552 
6772.000000	64.671659 
6771.000000	64.567828 
6770.000000	64.435243 
6769.000000	64.292883 
6768.000000	64.161944 
6767.000000	64.060759 
6766.000000	63.999629 
6765.000000	63.978695 
6764.000000	63.989567 
6763.000000	64.017724 
6762.000000	64.047241 
6761.000000	64.064216 
6760.000000	64.058947 
6759.000000	64.027714 
6758.000000	63.970708 
6757.000000	63.893413 
6756.000000	63.801002 
6755.000000	63.702559 
6754.000000	63.609623 
6753.000000	63.536787 
6752.000000	63.500070 
6751.000000	63.514113 
6750.000000	63.588070 
6749.000000	63.724160 
6748.000000	63.913989 
6747.000000	64.142918 
6746.000000	64.390873 
6745.000000	64.639115 
6744.000000	64.873480 
6743.000000	65.085601 
6742.000000	65.272402 
6741.000000	65.433764 
6740.000000	65.569686 
6739.000000	65.675425 
6738.000000	65.740489 
6737.000000	65.750861 
6736.000000	65.691924 
6735.000000	65.553760 
6734.000000	65.334057 
6733.000000	65.043711 
6732.000000	64.703941 
6731.000000	64.342713 
6730.000000	63.989830 
6729.000000	63.670444 
6728.000000	63.403439 
6727.000000	63.198828 
6726.000000	63.060116 
6725.000000	62.985610 
6724.000000	62.971425 
6723.000000	63.009834 
6722.000000	63.094282 
6721.000000	63.215184 
6720.000000	63.365674 
6719.000000	63.537812 
6718.000000	63.725590 
6717.000000	63.921284 
6716.000000	64.118003 
6715.000000	64.309000 
6714.000000	64.485740 
6713.000000	64.637660 
6712.000000	64.754676 
6711.000000	64.828705 
6710.000000	64.855742 
6709.000000	64.837169 
6708.000000	64.780998 
6707.000000	64.700555 
6706.000000	64.613080 
6705.000000	64.535903 
6704.000000	64.482402 
6703.000000	64.460730 
6702.000000	64.471316 
6701.000000	64.511299 
6700.000000	64.575529 
6699.000000	64.661431 
6698.000000	64.771461 
6697.000000	64.910364 
6696.000000	65.083360 
6695.000000	65.288925 
6694.000000	65.517759 
6693.000000	65.747046 
6692.000000	65.943861 
6691.000000	66.069817 
6690.000000	66.090726 
6689.000000	65.985465 
6688.000000	65.753364 
6687.000000	65.418481 
6686.000000	65.026926 
6685.000000	64.638257 
6684.000000	64.312791 
6683.000000	64.098978 
6682.000000	64.022016 
6681.000000	64.079189 
6680.000000	64.240717 
6679.000000	64.456629 
6678.000000	64.669513 
6677.000000	64.828753 
6676.000000	64.901828 
6675.000000	64.876985 
6674.000000	64.766073 
6673.000000	64.596319 
6672.000000	64.403724 
6671.000000	64.220905 
6670.000000	64.072132 
6669.000000	63.968014 
6668.000000	63.907909 
6667.000000	63.884806 
6666.000000	63.890099 
6665.000000	63.917994 
6664.000000	63.969969 
6663.000000	64.053082 
6662.000000	64.179611 
6661.000000	64.360284 
6660.000000	64.601254 
6659.000000	64.898276 
6658.000000	65.236973 
6657.000000	65.592050 
6656.000000	65.932369 
6655.000000	66.224074 
6654.000000	66.433954 
6653.000000	66.534066 
6652.000000	66.508269 
6651.000000	66.353964 
6650.000000	66.081857 
6649.000000	65.716338 
6648.000000	65.292000 
6647.000000	64.851784 
6646.000000	64.442515 
6645.000000	64.109754 
6644.000000	63.889551 
6643.000000	63.807320 
6642.000000	63.874292 
6641.000000	64.087128 
6640.000000	64.426541 
6639.000000	64.861989 
6638.000000	65.354371 
6637.000000	65.860581 
6636.000000	66.336297 
6635.000000	66.742563 
6634.000000	67.049050 
6633.000000	67.238211 
6632.000000	67.306280 
6631.000000	67.266964 
6630.000000	67.148423 
6629.000000	66.990733 
6628.000000	66.836738 
6627.000000	66.727375 
6626.000000	66.689658 
6625.000000	66.732668 
6624.000000	66.841673 
6623.000000	66.983604 
6622.000000	67.112469 
6621.000000	67.180180 
6620.000000	67.148876 
6619.000000	67.000770 
6618.000000	66.742372 
6617.000000	66.405224 
6616.000000	66.034317 
6615.000000	65.675783 
6614.000000	65.365600 
6613.000000	65.122461 
6612.000000	64.944529 
6611.000000	64.813280 
6610.000000	64.702749 
6609.000000	64.589643 
6608.000000	64.461994 
6607.000000	64.323616 
6606.000000	64.189696 
6605.000000	64.079523 
6604.000000	64.011240 
6603.000000	63.993597 
6602.000000	64.020133 
6601.000000	64.069175 
6600.000000	64.109921 
6599.000000	64.110803 
6598.000000	64.048600 
6597.000000	63.916158 
6596.000000	63.722801 
6595.000000	63.495421 
6594.000000	63.269853 
6593.000000	63.086175 
6592.000000	62.976837 
6591.000000	62.963223 
6590.000000	63.050794 
6589.000000	63.230109 
6588.000000	63.479638 
6587.000000	63.770270 
6586.000000	64.072585 
6585.000000	64.359021 
6584.000000	64.606761 
6583.000000	64.799189 
6582.000000	64.926528 
6581.000000	64.983034 
6580.000000	64.965653 
6579.000000	64.875721 
6578.000000	64.719700 
6577.000000	64.510607 
6576.000000	64.268088 
6575.000000	64.019036 
6574.000000	63.794112 
6573.000000	63.622689 
6572.000000	63.527727 
6571.000000	63.521289 
6570.000000	63.601970 
6569.000000	63.753914 
6568.000000	63.951516 
6567.000000	64.162421 
6566.000000	64.357280 
6565.000000	64.514803 
6564.000000	64.627075 
6563.000000	64.697885 
6562.000000	64.741086 
6561.000000	64.773797 
6560.000000	64.811158 
6559.000000	64.862012 
6558.000000	64.925360 
6557.000000	64.992308 
6556.000000	65.047645 
6555.000000	65.076899 
6554.000000	65.068888 
6553.000000	65.020656 
6552.000000	64.937329 
6551.000000	64.831590 
6550.000000	64.720225 
6549.000000	64.620089 
6548.000000	64.546036 
6547.000000	64.507746 
6546.000000	64.508748 
6545.000000	64.544963 
6544.000000	64.607906 
6543.000000	64.683794 
6542.000000	64.755415 
6541.000000	64.804720 
6540.000000	64.813899 
6539.000000	64.771270 
6538.000000	64.672994 
6537.000000	64.526653 
6536.000000	64.348745 
6535.000000	64.164257 
6534.000000	64.002537 
6533.000000	63.890695 
6532.000000	63.846468 
6531.000000	63.876485 
6530.000000	63.974857 
6529.000000	64.126443 
6528.000000	64.309477 
6527.000000	64.504218 
6526.000000	64.696383 
6525.000000	64.881515 
6524.000000	65.063309 
6523.000000	65.250229 
6522.000000	65.449380 
6521.000000	65.662527 
6520.000000	65.882062 
6519.000000	66.090989 
6518.000000	66.265010 
6517.000000	66.380882 
6516.000000	66.420102 
6515.000000	66.375637 
6514.000000	66.251897 
6513.000000	66.065835 
6512.000000	65.841054 
6511.000000	65.605211 
6510.000000	65.381693 
6509.000000	65.187215 
6508.000000	65.027856 
6507.000000	64.901828 
6506.000000	64.800524 
6505.000000	64.712548 
6504.000000	64.629483 
6503.000000	64.548015 
6502.000000	64.472985 
6501.000000	64.413404 
6500.000000	64.383077 
6499.000000	64.394378 
6498.000000	64.457607 
6497.000000	64.576292 
6496.000000	64.748525 
6495.000000	64.965343 
6494.000000	65.212607 
6493.000000	65.471363 
6492.000000	65.719223 
6491.000000	65.932178 
6490.000000	66.087055 
6489.000000	66.164636 
6488.000000	66.153740 
6487.000000	66.052722 
6486.000000	65.872812 
6485.000000	65.633964 
6484.000000	65.365409 
6483.000000	65.095663 
6482.000000	64.850902 
6481.000000	64.645767 
6480.000000	64.483571 
6479.000000	64.355778 
6478.000000	64.246129 
6477.000000	64.138627 
6476.000000	64.022254 
6475.000000	63.898611 
6474.000000	63.780283 
6473.000000	63.691210 
6472.000000	63.658475 
6471.000000	63.705849 
6470.000000	63.844513 
6469.000000	64.071536 
6468.000000	64.368152 
6467.000000	64.704275 
6466.000000	65.044140 
6465.000000	65.353989 
6464.000000	65.607619 
6463.000000	65.791106 
6462.000000	65.901780 
6461.000000	65.946412 
6460.000000	65.935158 
6459.000000	65.879654 
6458.000000	65.786767 
6457.000000	65.660715 
6456.000000	65.500664 
6455.000000	65.308070 
6454.000000	65.084791 
6453.000000	64.838075 
6452.000000	64.579200 
6451.000000	64.324784 
6450.000000	64.092636 
6449.000000	63.898420 
6448.000000	63.752746 
6447.000000	63.658595 
6446.000000	63.611173 
6445.000000	63.598799 
6444.000000	63.606166 
6443.000000	63.617634 
6442.000000	63.622570 
6441.000000	63.618230 
6440.000000	63.611078 
6439.000000	63.615655 
6438.000000	63.650870 
6437.000000	63.734722 
6436.000000	63.878750 
6435.000000	64.083099 
6434.000000	64.336109 
6433.000000	64.613938 
6432.000000	64.885020 
6431.000000	65.115833 
6430.000000	65.278959 
6429.000000	65.357875 
6428.000000	65.351819 
6427.000000	65.273189 
6426.000000	65.145158 
6425.000000	64.993858 
6424.000000	64.845252 
6423.000000	64.715647 
6422.000000	64.610147 
6421.000000	64.523005 
6420.000000	64.443230 
6419.000000	64.358925 
6418.000000	64.263510 
6417.000000	64.160156 
6416.000000	64.062452 
6415.000000	63.991832 
6414.000000	63.971352 
6413.000000	64.019036 
6412.000000	64.141845 
6411.000000	64.333057 
6410.000000	64.572525 
6409.000000	64.830231 
6408.000000	65.072751 
6407.000000	65.270614 
6406.000000	65.404367 
6405.000000	65.467572 
6404.000000	65.467262 
6403.000000	65.420579 
6402.000000	65.350079 
6401.000000	65.278196 
6400.000000	65.222263 
6399.000000	65.194201 
6398.000000	65.196347 
6397.000000	65.224885 
6396.000000	65.269708 
6395.000000	65.320372 
6394.000000	65.366077 
6393.000000	65.398859 
6392.000000	65.413999 
6391.000000	65.409588 
6390.000000	65.387248 
6389.000000	65.351128 
6388.000000	65.307021 
6387.000000	65.260744 
6386.000000	65.217733 
6385.000000	65.181875 
6384.000000	65.153622 
6383.000000	65.131378 
6382.000000	65.111994 
6381.000000	65.093994 
6380.000000	65.079689 
6379.000000	65.075635 
6378.000000	65.091633 
6377.000000	65.136575 
6376.000000	65.217614 
6375.000000	65.332770 
6374.000000	65.469241 
6373.000000	65.603947 
6372.000000	65.708017 
6371.000000	65.753221 
6370.000000	65.718960 
6369.000000	65.599131 
6368.000000	65.405035 
6367.000000	65.163564 
6366.000000	64.911985 
6365.000000	64.688777 
6364.000000	64.525127 
6363.000000	64.438033 
6362.000000	64.427399 
6361.000000	64.480853 
6360.000000	64.578795 
6359.000000	64.701962 
6358.000000	64.836025 
6357.000000	64.972782 
6356.000000	65.108799 
6355.000000	65.241575 
6354.000000	65.366196 
6353.000000	65.471816 
6352.000000	65.542411 
6351.000000	65.560841 
6350.000000	65.512657 
6349.000000	65.392255 
6348.000000	65.205001 
6347.000000	64.969921 
6346.000000	64.714479 
6345.000000	64.470458 
6344.000000	64.265799 
6343.000000	64.119911 
6342.000000	64.038443 
6341.000000	64.014267 
6340.000000	64.028525 
6339.000000	64.056849 
6338.000000	64.074301 
6337.000000	64.061284 
6336.000000	64.008140 
6335.000000	63.916349 
6334.000000	63.799405 
6333.000000	63.679099 
6332.000000	63.582444 
6331.000000	63.534712 
6330.000000	63.554167 
6329.000000	63.647103 
6328.000000	63.806009 
6327.000000	64.010715 
6326.000000	64.232563 
6325.000000	64.440751 
6324.000000	64.608263 
6323.000000	64.718341 
6322.000000	64.766287 
6321.000000	64.760637 
6320.000000	64.720344 
6319.000000	64.668536 
6318.000000	64.626431 
6317.000000	64.607572 
6316.000000	64.616584 
6315.000000	64.647269 
6314.000000	64.686632 
6313.000000	64.718937 
6312.000000	64.732551 
6311.000000	64.721822 
6310.000000	64.688992 
6309.000000	64.643168 
6308.000000	64.597177 
6307.000000	64.563584 
6306.000000	64.550781 
6305.000000	64.560461 
6304.000000	64.587545 
6303.000000	64.622473 
6302.000000	64.654946 
6301.000000	64.676976 
6300.000000	64.686775 
6299.000000	64.689302 
6298.000000	64.696550 
6297.000000	64.722442 
6296.000000	64.780592 
6295.000000	64.881014 
6294.000000	65.025687 
6293.000000	65.207529 
6292.000000	65.409708 
6291.000000	65.610074 
6290.000000	65.783476 
6289.000000	65.907454 
6288.000000	65.966820 
6287.000000	65.957117 
6286.000000	65.885448 
6285.000000	65.769171 
6284.000000	65.631198 
6283.000000	65.494990 
6282.000000	65.379881 
6281.000000	65.297961 
6280.000000	65.251970 
6279.000000	65.236473 
6278.000000	65.240764 
6277.000000	65.252041 
6276.000000	65.258646 
6275.000000	65.252232 
6274.000000	65.228223 
6273.000000	65.185785 
6272.000000	65.125751 
6271.000000	65.050745 
6270.000000	64.962148 
6269.000000	64.862585 
6268.000000	64.757132 
6267.000000	64.652824 
6266.000000	64.559078 
6265.000000	64.484572 
6264.000000	64.435553 
6263.000000	64.413928 
6262.000000	64.414906 
6261.000000	64.430594 
6260.000000	64.451122 
6259.000000	64.469218 
6258.000000	64.481830 
6257.000000	64.491844 
6256.000000	64.506316 
6255.000000	64.534640 
6254.000000	64.584517 
6253.000000	64.659500 
6252.000000	64.756822 
6251.000000	64.867758 
6250.000000	64.978909 
6249.000000	65.075945 
6248.000000	65.145683 
6247.000000	65.179967 
6246.000000	65.175318 
6245.000000	65.132284 
6244.000000	65.054607 
6243.000000	64.948153 
6242.000000	64.820456 
6241.000000	64.679980 
6240.000000	64.536404 
6239.000000	64.401650 
6238.000000	64.287590 
6237.000000	64.204096 
6236.000000	64.158821 
6235.000000	64.153838 
6234.000000	64.189529 
6233.000000	64.264011 
6232.000000	64.374613 
6231.000000	64.517426 
6230.000000	64.685869 
6229.000000	64.869785 
6228.000000	65.053391 
6227.000000	65.216445 
6226.000000	65.335750 
6225.000000	65.389609 
6224.000000	65.362524 
6223.000000	65.250325 
6222.000000	65.063452 
6221.000000	64.827132 
6220.000000	64.577412 
6219.000000	64.354896 
6218.000000	64.197754 
6217.000000	64.133310 
6216.000000	64.173030 
6215.000000	64.309501 
6214.000000	64.520716 
6213.000000	64.771890 
6212.000000	65.025043 
6211.000000	65.242624 
6210.000000	65.392804 
6209.000000	65.454721 
6208.000000	65.419149 
6207.000000	65.291523 
6206.000000	65.087771 
6205.000000	64.835548 
6204.000000	64.569425 
6203.000000	64.325475 
6202.000000	64.135766 
6201.000000	64.022731 
6200.000000	63.996315 
6199.000000	64.050245 
6198.000000	64.164185 
6197.000000	64.306950 
6196.000000	64.443588 
6195.000000	64.542031 
6194.000000	64.580059 
6193.000000	64.548802 
6192.000000	64.453983 
6191.000000	64.312076 
6190.000000	64.146542 
6189.000000	63.981151 
6188.000000	63.836073 
6187.000000	63.723516 
6186.000000	63.648557 
6185.000000	63.610887 
6184.000000	63.607621 
6183.000000	63.635635 
6182.000000	63.693571 
6181.000000	63.779878 
6180.000000	63.895058 
6179.000000	64.038753 
6178.000000	64.208841 
6177.000000	64.398097 
6176.000000	64.596986 
6175.000000	64.793801 
6174.000000	64.978170 
6173.000000	65.142512 
6172.000000	65.283870 
6171.000000	65.403437 
6170.000000	65.506696 
6169.000000	65.600681 
6168.000000	65.690302 
6167.000000	65.776467 
6166.000000	65.856814 
6165.000000	65.925621 
6164.000000	65.977311 
6163.000000	66.007328 
6162.000000	66.016125 
6161.000000	66.007041 
6160.000000	65.987634 
6159.000000	65.964722 
6158.000000	65.943789 
6157.000000	65.925073 
6156.000000	65.904402 
6155.000000	65.873026 
6154.000000	65.821743 
6153.000000	65.743112 
6152.000000	65.635848 
6151.000000	65.504717 
6150.000000	65.360450 
6149.000000	65.217161 
6148.000000	65.089225 
6147.000000	64.987492 
6146.000000	64.916872 
6145.000000	64.877963 
6144.000000	64.868283 
6143.000000	64.884114 
6142.000000	64.922547 
6141.000000	64.983344 
6140.000000	65.067887 
6139.000000	65.176796 
6138.000000	65.307450 
6137.000000	65.452551 
6136.000000	65.598797 
6135.000000	65.729045 
6134.000000	65.824151 
6133.000000	65.867686 
6132.000000	65.848326 
6131.000000	65.764546 
6130.000000	65.623593 
6129.000000	65.441036 
6128.000000	65.237283 
6127.000000	65.034413 
6126.000000	64.851951 
6125.000000	64.704132 
6124.000000	64.598488 
6123.000000	64.536690 
6122.000000	64.514923 
6121.000000	64.525985 
6120.000000	64.561438 
6119.000000	64.613294 
6118.000000	64.674949 
6117.000000	64.741587 
6116.000000	64.809417 
6115.000000	64.875555 
6114.000000	64.938282 
6113.000000	64.996886 
6112.000000	65.050625 
6111.000000	65.099287 
6110.000000	65.144062 
6109.000000	65.187001 
6108.000000	65.230488 
6107.000000	65.276503 
6106.000000	65.326929 
6105.000000	65.381550 
6104.000000	65.438628 
6103.000000	65.493798 
6102.000000	65.540909 
6101.000000	65.573358 
6100.000000	65.585899 
6099.000000	65.576505 
6098.000000	65.546798 
6097.000000	65.503334 
6096.000000	65.457201 
6095.000000	65.420079 
6094.000000	65.401363 
6093.000000	65.404796 
6092.000000	65.427541 
6091.000000	65.457844 
6090.000000	65.477609 
6089.000000	65.466022 
6088.000000	65.405011 
6087.000000	65.284109 
6086.000000	65.104460 
6085.000000	64.878964 
6084.000000	64.630556 
6083.000000	64.387226 
6082.000000	64.176845 
6081.000000	64.019703 
6080.000000	63.926815 
6079.000000	63.898420 
6078.000000	63.926768 
6077.000000	63.997387 
6076.000000	64.095830 
6075.000000	64.209675 
6074.000000	64.331984 
6073.000000	64.459347 
6072.000000	64.591813 
6071.000000	64.728379 
6070.000000	64.866280 
6069.000000	64.998698 
6068.000000	65.115904 
6067.000000	65.207076 
6066.000000	65.262866 
6065.000000	65.278577 
6064.000000	65.255141 
6063.000000	65.199661 
6062.000000	65.124249 
6061.000000	65.043497 
6060.000000	64.972019 
6059.000000	64.920830 
6058.000000	64.896893 
6057.000000	64.900207 
6056.000000	64.924287 
6055.000000	64.956521 
6054.000000	64.981985 
6053.000000	64.986801 
6052.000000	64.959287 
6051.000000	64.895915 
6050.000000	64.801001 
6049.000000	64.688587 
6048.000000	64.577913 
6047.000000	64.491081 
6046.000000	64.447855 
6045.000000	64.460420 
6044.000000	64.531326 
6043.000000	64.650273 
6042.000000	64.796614 
6041.000000	64.942646 
6040.000000	65.060162 
6039.000000	65.125536 
6038.000000	65.125107 
6037.000000	65.057682 
6036.000000	64.934563 
6035.000000	64.776706 
6034.000000	64.610099 
6033.000000	64.460849 
6032.000000	64.350342 
6031.000000	64.292240 
6030.000000	64.291024 
6029.000000	64.343166 
6028.000000	64.438843 
6027.000000	64.565420 
6026.000000	64.709544 
6025.000000	64.859008 
6024.000000	65.003848 
6023.000000	65.135240 
6022.000000	65.246200 
6021.000000	65.330648 
6020.000000	65.383696 
6019.000000	65.401983 
6018.000000	65.384817 
6017.000000	65.335202 
6016.000000	65.260386 
6015.000000	65.172314 
6014.000000	65.085530 
6013.000000	65.015268 
6012.000000	64.974808 
6011.000000	64.973092 
6010.000000	65.012288 
6009.000000	65.087413 
6008.000000	65.186190 
6007.000000	65.291833 
6006.000000	65.386629 
6005.000000	65.455889 
6004.000000	65.490055 
6003.000000	65.486764 
6002.000000	65.450000 
6001.000000	65.389013 
6000.000000	65.316534 
5999.000000	65.244841 
5998.000000	65.184378 
5997.000000	65.140485 
5996.000000	65.113687 
5995.000000	65.099287 
5994.000000	65.090847 
5993.000000	65.081000 
5992.000000	65.062689 
5991.000000	65.033578 
5990.000000	64.996099 
5989.000000	64.958190 
5988.000000	64.930081 
5987.000000	64.923238 
5986.000000	64.946937 
5985.000000	65.004920 
5984.000000	65.093469 
5983.000000	65.200281 
5982.000000	65.306448 
5981.000000	65.390563 
5980.000000	65.434074 
5979.000000	65.426397 
5978.000000	65.367865 
5977.000000	65.271282 
5976.000000	65.157914 
5975.000000	65.052866 
5974.000000	64.977145 
5973.000000	64.943099 
5972.000000	64.949536 
5971.000000	64.983320 
5970.000000	65.022206 
5969.000000	65.042519 
5968.000000	65.024781 
5967.000000	64.958715 
5966.000000	64.846110 
5965.000000	64.700317 
5964.000000	64.541792 
5963.000000	64.391064 
5962.000000	64.265131 
5961.000000	64.172625 
5960.000000	64.114594 
5959.000000	64.085674 
5958.000000	64.077949 
5957.000000	64.084601 
5956.000000	64.102315 
5955.000000	64.132213 
5954.000000	64.177155 
5953.000000	64.239931 
5952.000000	64.320731 
5951.000000	64.416027 
5950.000000	64.517760 
5949.000000	64.615297 
5948.000000	64.698100 
5947.000000	64.758563 
5946.000000	64.794039 
5945.000000	64.807629 
5944.000000	64.806652 
5943.000000	64.801812 
5942.000000	64.804124 
5941.000000	64.823746 
5940.000000	64.866924 
5939.000000	64.936232 
5938.000000	65.031051 
5937.000000	65.146541 
5936.000000	65.275716 
5935.000000	65.408301 
5934.000000	65.533351 
5933.000000	65.638279 
5932.000000	65.711021 
5931.000000	65.741539 
5930.000000	65.724015 
5929.000000	65.657663 
5928.000000	65.547299 
5927.000000	65.403580 
5926.000000	65.241599 
5925.000000	65.078878 
5924.000000	64.932489 
5923.000000	64.815950 
5922.000000	64.737486 
5921.000000	64.699268 
5920.000000	64.698266 
5919.000000	64.726710 
5918.000000	64.775371 
5917.000000	64.835333 
5916.000000	64.899873 
5915.000000	64.964127 
5914.000000	65.025782 
5913.000000	65.083456 
5912.000000	65.136337 
5911.000000	65.182256 
5910.000000	65.218400 
5909.000000	65.241599 
5908.000000	65.249419 
5907.000000	65.241193 
5906.000000	65.218734 
5905.000000	65.186929 
5904.000000	65.152096 
5903.000000	65.120792 
5902.000000	65.097856 
5901.000000	65.085291 
5900.000000	65.081405 
5899.000000	65.081357 
5898.000000	65.078687 
5897.000000	65.067410 
5896.000000	65.043759 
5895.000000	65.008115 
5894.000000	64.964079 
5893.000000	64.918637 
5892.000000	64.880228 
5891.000000	64.856958 
5890.000000	64.854216 
5889.000000	64.873337 
5888.000000	64.911913 
5887.000000	64.963388 
5886.000000	65.018987 
5885.000000	65.068626 
5884.000000	65.103292 
5883.000000	65.116143 
5882.000000	65.103745 
5881.000000	65.066647 
5880.000000	65.008807 
5879.000000	64.937424 
5878.000000	64.861464 
5877.000000	64.790272 
5876.000000	64.732098 
5875.000000	64.692187 
5874.000000	64.672160 
5873.000000	64.669609 
5872.000000	64.679336 
5871.000000	64.694309 
5870.000000	64.707899 
5869.000000	64.714908 
5868.000000	64.713430 
5867.000000	64.704251 
5866.000000	64.690995 
5865.000000	64.678335 
5864.000000	64.671182 
5863.000000	64.672517 
5862.000000	64.683628 
5861.000000	64.703416 
5860.000000	64.729714 
5859.000000	64.760327 
5858.000000	64.793395 
5857.000000	64.828348 
5856.000000	64.865136 
5855.000000	64.903688 
5854.000000	64.943647 
5853.000000	64.983391 
5852.000000	65.021562 
5851.000000	65.057110 
5850.000000	65.089869 
5849.000000	65.120673 
5848.000000	65.150284 
5847.000000	65.178751 
5846.000000	65.204715 
5845.000000	65.225744 
5844.000000	65.238380 
5843.000000	65.239596 
5842.000000	65.228867 
5841.000000	65.208745 
5840.000000	65.185165 
5839.000000	65.165638 
5838.000000	65.157938 
5837.000000	65.166687 
5836.000000	65.191817 
5835.000000	65.227675 
5834.000000	65.263652 
5833.000000	65.287876 
5832.000000	65.291142 
5831.000000	65.269565 
5830.000000	65.226531 
5829.000000	65.171074 
5828.000000	65.116047 
5827.000000	65.073323 
5826.000000	65.050387 
5825.000000	65.048599 
5824.000000	65.063095 
5823.000000	65.084648 
5822.000000	65.102815 
5821.000000	65.110087 
5820.000000	65.104818 
5819.000000	65.090584 
5818.000000	65.075445 
5817.000000	65.069603 
5816.000000	65.082120 
5815.000000	65.117621 
5814.000000	65.174674 
5813.000000	65.246725 
5812.000000	65.322494 
5811.000000	65.389704 
5810.000000	65.436053 
5809.000000	65.452361 
5808.000000	65.433406 
5807.000000	65.377950 
5806.000000	65.289783 
5805.000000	65.176200 
5804.000000	65.048360 
5803.000000	64.919853 
5802.000000	64.804601 
5801.000000	64.715528 
5800.000000	64.660692 
5799.000000	64.643311 
5798.000000	64.657950 
5797.000000	64.691805 
5796.000000	64.726257 
5795.000000	64.741182 
5794.000000	64.719009 
5793.000000	64.648985 
5792.000000	64.530897 
5791.000000	64.375185 
5790.000000	64.200973 
5789.000000	64.031338 
5788.000000	63.887882 
5787.000000	63.785624 
5786.000000	63.729071 
5785.000000	63.712334 
5784.000000	63.721489 
5783.000000	63.739609 
5782.000000	63.750600 
5781.000000	63.745284 
5780.000000	63.722419 
5779.000000	63.689899 
5778.000000	63.659906 
5777.000000	63.647270 
5776.000000	63.662767 
5775.000000	63.712191 
5774.000000	63.793635 
5773.000000	63.900017 
5772.000000	64.021062 
5771.000000	64.146137 
5770.000000	64.266800 
5769.000000	64.378070 
5768.000000	64.478683 
5767.000000	64.569187 
5766.000000	64.650535 
5765.000000	64.722537 
5764.000000	64.783549 
5763.000000	64.831614 
5762.000000	64.865756 
5761.000000	64.887619 
5760.000000	64.901924 
5759.000000	64.916348 
5758.000000	64.940309 
5757.000000	64.983057 
5756.000000	65.051150 
5755.000000	65.146493 
5754.000000	65.265488 
5753.000000	65.400695 
5752.000000	65.540981 
5751.000000	65.674448 
5750.000000	65.789628 
5749.000000	65.878152 
5748.000000	65.935182 
5747.000000	65.960383 
5746.000000	65.956664 
5745.000000	65.929532 
5744.000000	65.885734 
5743.000000	65.832805 
5742.000000	65.776586 
5741.000000	65.721035 
5740.000000	65.667772 
5739.000000	65.616750 
5738.000000	65.565180 
5737.000000	65.508985 
5736.000000	65.444087 
5735.000000	65.368080 
5734.000000	65.280437 
5733.000000	65.184354 
5732.000000	65.086030 
5731.000000	64.995098 
5730.000000	64.922189 
5729.000000	64.877772 
5728.000000	64.868927 
5727.000000	64.898443 
5726.000000	64.963841 
5725.000000	65.057778 
5724.000000	65.169215 
5723.000000	65.284681 
5722.000000	65.391206 
5721.000000	65.476202 
5720.000000	65.529584 
5719.000000	65.543508 
5718.000000	65.512847 
5717.000000	65.436506 
5716.000000	65.318179 
5715.000000	65.165853 
5714.000000	64.991569 
5713.000000	64.809417 
5712.000000	64.634156 
5711.000000	64.479303 
5710.000000	64.355897 
5709.000000	64.271545 
5708.000000	64.230751 
5707.000000	64.234304 
5706.000000	64.281058 
5705.000000	64.367294 
5704.000000	64.488697 
5703.000000	64.638280 
5702.000000	64.809179 
5701.000000	64.993286 
5700.000000	65.182828 
5699.000000	65.369296 
5698.000000	65.544652 
5697.000000	65.702223 
5696.000000	65.835475 
5695.000000	65.939569 
5694.000000	66.009306 
5693.000000	66.040992 
5692.000000	66.031765 
5691.000000	65.981602 
5690.000000	65.893864 
5689.000000	65.776491 
5688.000000	65.642094 
5687.000000	65.507102 
5686.000000	65.387392 
5685.000000	65.295529 
5684.000000	65.238380 
5683.000000	65.216159 
5682.000000	65.221905 
5681.000000	65.243601 
5680.000000	65.268135 
5679.000000	65.283703 
5678.000000	65.282011 
5677.000000	65.259289 
5676.000000	65.215921 
5675.000000	65.154957 
5674.000000	65.079808 
5673.000000	64.993071 
5672.000000	64.894795 
5671.000000	64.784359 
5670.000000	64.662218 
5669.000000	64.531588 
5668.000000	64.398312 
5667.000000	64.272665 
5666.000000	64.167189 
5665.000000	64.095926 
5664.000000	64.069485 
5663.000000	64.096093 
5662.000000	64.178276 
5661.000000	64.313387 
5660.000000	64.492535 
5659.000000	64.701485 
5658.000000	64.922094 
5657.000000	65.134119 
5656.000000	65.318179 
5655.000000	65.458846 
5654.000000	65.547370 
5653.000000	65.583324 
5652.000000	65.573835 
5651.000000	65.532875 
5650.000000	65.476512 
5649.000000	65.421533 
5648.000000	65.379238 
5647.000000	65.354490 
5646.000000	65.344071 
5645.000000	65.340185 
5644.000000	65.332508 
5643.000000	65.311741 
5642.000000	65.273475 
5641.000000	65.220808 
5640.000000	65.162992 
5639.000000	65.112328 
5638.000000	65.081644 
5637.000000	65.079879 
5636.000000	65.109729 
5635.000000	65.166449 
5634.000000	65.238881 
5633.000000	65.312314 
5632.000000	65.370297 
5631.000000	65.398216 
5630.000000	65.384984 
5629.000000	65.325331 
5628.000000	65.220117 
5627.000000	65.076613 
5626.000000	64.906001 
5625.000000	64.723038 
5624.000000	64.544224 
5623.000000	64.386868 
5622.000000	64.266419 
5621.000000	64.195823 
5620.000000	64.183616 
5619.000000	64.233350 
5618.000000	64.341568 
5617.000000	64.499282 
5616.000000	64.692163 
5615.000000	64.902973 
5614.000000	65.112328 
5613.000000	65.302610 
5612.000000	65.458750 
5611.000000	65.571641 
5610.000000	65.638136 
5609.000000	65.662026 
5608.000000	65.652847 
5607.000000	65.623521 
5606.000000	65.587854 
5605.000000	65.556406 
5604.000000	65.535068 
5603.000000	65.524101 
5602.000000	65.519714 
5601.000000	65.516567 
5600.000000	65.510630 
5599.000000	65.501761 
5598.000000	65.493822 
5597.000000	65.494346 
5596.000000	65.510606 
5595.000000	65.546965 
5594.000000	65.601301 
5593.000000	65.663051 
5592.000000	65.716004 
5591.000000	65.741467 
5590.000000	65.724897 
5589.000000	65.660190 
5588.000000	65.552663 
5587.000000	65.419507 
5586.000000	65.284132 
5585.000000	65.170693 
5584.000000	65.096259 
5583.000000	65.066051 
5582.000000	65.073418 
5581.000000	65.102505 
5580.000000	65.133333 
5579.000000	65.148091 
5578.000000	65.136885 
5577.000000	65.100550 
5576.000000	65.048909 
5575.000000	64.997053 
5574.000000	64.959073 
5573.000000	64.943504 
5572.000000	64.950394 
5571.000000	64.971685 
5570.000000	64.994740 
5569.000000	65.006303 
5568.000000	64.997935 
5567.000000	64.968061 
5566.000000	64.921760 
5565.000000	64.869904 
5564.000000	64.823746 
5563.000000	64.794087 
5562.000000	64.787578 
5561.000000	64.806580 
5560.000000	64.849376 
5559.000000	64.910364 
5558.000000	64.982366 
5557.000000	65.056657 
5556.000000	65.124869 
5555.000000	65.178942 
5554.000000	65.211629 
5553.000000	65.218591 
5552.000000	65.198802 
5551.000000	65.156459 
5550.000000	65.100193 
5549.000000	65.042901 
5548.000000	64.998722 
5547.000000	64.979767 
5546.000000	64.992952 
5545.000000	65.037584 
5544.000000	65.105390 
5543.000000	65.183067 
5542.000000	65.255379 
5541.000000	65.309166 
5540.000000	65.336155 
5539.000000	65.334749 
5538.000000	65.308976 
5537.000000	65.266180 
5536.000000	65.215063 
5535.000000	65.162467 
5534.000000	65.113139 
5533.000000	65.069150 
5532.000000	65.030837 
5531.000000	64.998459 
5530.000000	64.972615 
5529.000000	64.955830 
5528.000000	64.949989 
5527.000000	64.955520 
5526.000000	64.969825 
5525.000000	64.986991 
5524.000000	64.999747 
5523.000000	65.000939 
5522.000000	64.986515 
5521.000000	64.956283 
5520.000000	64.914035 
5519.000000	64.865922 
5518.000000	64.818334 
5517.000000	64.775347 
5516.000000	64.736723 
5515.000000	64.698290 
5514.000000	64.653301 
5513.000000	64.595818 
5512.000000	64.522910 
5511.000000	64.437437 
5510.000000	64.347529 
5509.000000	64.266514 
5508.000000	64.209198 
5507.000000	64.189124 
5506.000000	64.213347 
5505.000000	64.282226 
5504.000000	64.388155 
5503.000000	64.518070 
5502.000000	64.656281 
5501.000000	64.787769 
5500.000000	64.900875 
5499.000000	64.988708 
5498.000000	65.049290 
5497.000000	65.084719 
5496.000000	65.099501 
5495.000000	65.099072 
5494.000000	65.088438 
5493.000000	65.071821 
5492.000000	65.052533 
5491.000000	65.034532 
5490.000000	65.021395 
5489.000000	65.016698 
5488.000000	65.022182 
5487.000000	65.038585 
5486.000000	65.063476 
5485.000000	65.090775 
5484.000000	65.112137 
5483.000000	65.118837 
5482.000000	65.104508 
5481.000000	65.066576 
5480.000000	65.007829 
5479.000000	64.936447 
5478.000000	64.863538 
5477.000000	64.800858 
5476.000000	64.756798 
5475.000000	64.734196 
5474.000000	64.729380 
5473.000000	64.734053 
5472.000000	64.736652 
5471.000000	64.725971 
5470.000000	64.695310 
5469.000000	64.645075 
5468.000000	64.581823 
5467.000000	64.517164 
5466.000000	64.465808 
5465.000000	64.442467 
5464.000000	64.457416 
5463.000000	64.515209 
5462.000000	64.613652 
5461.000000	64.744830 
5460.000000	64.897680 
5459.000000	65.059924 
5458.000000	65.220046 
5457.000000	65.368318 
5456.000000	65.498280 
5455.000000	65.605044 
5454.000000	65.685033 
5453.000000	65.734457 
5452.000000	65.750622 
5451.000000	65.730452 
5450.000000	65.672945 
5449.000000	65.578746 
5448.000000	65.453076 
5447.000000	65.303087 
5446.000000	65.138316 
5445.000000	64.968466 
5444.000000	64.803051 
5443.000000	64.648437 
5442.000000	64.507746 
5441.000000	64.381241 
5440.000000	64.268279 
5439.000000	64.168334 
5438.000000	64.083385 
5437.000000	64.017701 
5436.000000	63.978624 
5435.000000	63.973832 
5434.000000	64.010310 
5433.000000	64.090132 
5432.000000	64.210295 
5431.000000	64.361214 
5430.000000	64.528441 
5429.000000	64.693546 
5428.000000	64.838814 
5427.000000	64.950013 
5426.000000	65.019392 
5425.000000	65.046119 
5424.000000	65.036702 
5423.000000	65.003037 
5422.000000	64.959812 
5421.000000	64.921545 
5420.000000	64.899969 
5419.000000	64.902496 
5418.000000	64.931774 
5417.000000	64.986515 
5416.000000	65.061783 
5415.000000	65.150952 
5414.000000	65.247368 
5413.000000	65.345716 
5412.000000	65.441560 
5411.000000	65.531086 
5410.000000	65.611982 
5409.000000	65.682101 
5408.000000	65.738797 
5407.000000	65.778470 
5406.000000	65.797853 
5405.000000	65.794086 
5404.000000	65.766668 
5403.000000	65.717792 
5402.000000	65.652751 
5401.000000	65.579891 
5400.000000	65.510964 
5399.000000	65.457677 
5398.000000	65.429210 
5397.000000	65.430259 
5396.000000	65.460705 
5395.000000	65.513944 
5394.000000	65.578293 
5393.000000	65.639662 
5392.000000	65.684676 
5391.000000	65.704345 
5390.000000	65.695810 
5389.000000	65.664005 
5388.000000	65.620040 
5387.000000	65.579175 
5386.000000	65.556693 
5385.000000	65.564393 
5384.000000	65.607142 
5383.000000	65.682506 
5382.000000	65.780305 
5381.000000	65.886259 
5380.000000	65.983176 
5379.000000	66.055917 
5378.000000	66.091823 
5377.000000	66.083741 
5376.000000	66.028881 
5375.000000	65.928173 
5374.000000	65.785884 
5373.000000	65.609478 
5372.000000	65.409302 
5371.000000	65.197825 
5370.000000	64.990019 
5369.000000	64.803075 
5368.000000	64.653778 
5367.000000	64.556407 
5366.000000	64.519119 
5365.000000	64.541745 
5364.000000	64.615368 
5363.000000	64.723348 
5362.000000	64.846181 
5361.000000	64.965343 
5360.000000	65.067601 
5359.000000	65.146994 
5358.000000	65.205597 
5357.000000	65.251159 
5356.000000	65.293598 
5355.000000	65.340471 
5354.000000	65.394663 
5353.000000	65.451431 
5352.000000	65.501856 
5351.000000	65.532040 
5350.000000	65.529704 
5349.000000	65.484189 
5348.000000	65.390777 
5347.000000	65.250563 
5346.000000	65.071010 
5345.000000	64.865040 
5344.000000	64.648342 
5343.000000	64.438748 
5342.000000	64.253044 
5341.000000	64.106917 
5340.000000	64.013695 
5339.000000	63.980579 
5338.000000	64.006590 
5337.000000	64.083194 
5336.000000	64.195394 
5335.000000	64.322447 
5334.000000	64.441633 
5333.000000	64.533066 
5332.000000	64.583468 
5331.000000	64.590406 
5330.000000	64.561748 
5329.000000	64.512443 
5328.000000	64.459061 
5327.000000	64.417099 
5326.000000	64.393973 
5325.000000	64.386820 
5324.000000	64.382243 
5323.000000	64.362311 
5322.000000	64.308881 
5321.000000	64.210128 
5320.000000	64.065623 
5319.000000	63.885927 
5318.000000	63.694310 
5317.000000	63.519454 
5316.000000	63.393044 
5315.000000	63.339233 
5314.000000	63.374757 
5313.000000	63.504505 
5312.000000	63.722276 
5311.000000	64.010787 
5310.000000	64.346861 
5309.000000	64.705157 
5308.000000	65.056753 
5307.000000	65.371179 
5306.000000	65.619182 
5305.000000	65.774488 
5304.000000	65.816712 
5303.000000	65.733098 
5302.000000	65.523338 
5301.000000	65.198993 
5300.000000	64.783215 
5299.000000	64.308285 
5298.000000	63.812685 
5297.000000	63.337206 
5296.000000	62.920904 
5295.000000	62.597227 
5294.000000	62.390017 
5293.000000	62.312364 
5292.000000	62.363314 
5291.000000	62.531518 
5290.000000	62.791848 
5289.000000	63.116455 
5288.000000	63.473629 
5287.000000	63.839077 
5286.000000	64.193010 
5285.000000	64.528560 
5284.000000	64.847373 
5283.000000	65.157818 
5282.000000	65.468239 
5281.000000	65.782332 
5280.000000	66.095471 
5279.000000	66.393113 
5278.000000	66.653609 
5277.000000	66.856169 
5276.000000	66.985535 
5275.000000	67.039036 
5274.000000	67.025423 
5273.000000	66.964507 
5272.000000	66.879558 
5271.000000	66.792631 
5270.000000	66.717696 
5269.000000	66.659116 
5268.000000	66.611313 
5267.000000	66.565918 
5266.000000	66.513156 
5265.000000	66.447710 
5264.000000	66.369891 
5263.000000	66.287589 
5262.000000	66.211271 
5261.000000	66.150712 
5260.000000	66.109848 
5259.000000	66.083884 
5258.000000	66.060972 
5257.000000	66.025781 
5256.000000	65.962886 
5255.000000	65.861582 
5254.000000	65.721154 
5253.000000	65.552306 
5252.000000	65.373635 
5251.000000	65.207099 
5250.000000	65.073966 
5249.000000	64.989042 
5248.000000	64.956688 
5247.000000	64.969897 
5246.000000	65.013337 
5245.000000	65.066742 
5244.000000	65.108823 
5243.000000	65.123248 
5242.000000	65.101313 
5241.000000	65.043854 
5240.000000	64.959073 
5239.000000	64.860248 
5238.000000	64.760351 
5237.000000	64.670085 
5236.000000	64.595603 
5235.000000	64.537763 
5234.000000	64.493870 
5233.000000	64.458823 
5232.000000	64.428162 
5231.000000	64.398694 
5230.000000	64.369440 
5229.000000	64.342379 
5228.000000	64.321327 
5227.000000	64.311909 
5226.000000	64.319562 
5225.000000	64.349579 
5224.000000	64.404964 
5223.000000	64.484524 
5222.000000	64.581727 
5221.000000	64.685630 
5220.000000	64.782118 
5219.000000	64.855480 
5218.000000	64.892721 
5217.000000	64.886617 
5216.000000	64.838290 
5215.000000	64.757466 
5214.000000	64.660334 
5213.000000	64.566779 
5212.000000	64.494299 
5211.000000	64.454936 
5210.000000	64.450931 
5209.000000	64.475178 
5208.000000	64.512872 
5207.000000	64.545917 
5206.000000	64.558672 
5205.000000	64.542460 
5204.000000	64.498257 
5203.000000	64.435887 
5202.000000	64.372062 
5201.000000	64.324927 
5200.000000	64.310622 
5199.000000	64.338564 
5198.000000	64.409875 
5197.000000	64.516949 
5196.000000	64.645528 
5195.000000	64.777970 
5194.000000	64.897298 
5193.000000	64.989995 
5192.000000	65.048027 
5191.000000	65.069079 
5190.000000	65.055751 
5189.000000	65.014076 
5188.000000	64.951777 
5187.000000	64.876747 
5186.000000	64.796376 
5185.000000	64.716815 
5184.000000	64.644479 
5183.000000	64.584660 
5182.000000	64.542770 
5181.000000	64.522385 
5180.000000	64.525079 
5179.000000	64.549160 
5178.000000	64.589762 
5177.000000	64.638924 
5176.000000	64.686822 
5175.000000	64.723658 
5174.000000	64.741611 
5173.000000	64.737176 
5172.000000	64.711880 
5171.000000	64.672613 
5170.000000	64.630079 
5169.000000	64.596581 
5168.000000	64.583253 
5167.000000	64.597964 
5166.000000	64.643096 
5165.000000	64.715933 
5164.000000	64.807891 
5163.000000	64.906978 
5162.000000	64.999198 
5161.000000	65.071630 
5160.000000	65.114212 
5159.000000	65.120983 
5158.000000	65.091228 
5157.000000	65.029358 
5156.000000	64.944195 
5155.000000	64.847612 
5154.000000	64.752078 
5153.000000	64.668822 
5152.000000	64.606022 
5151.000000	64.568281 
5150.000000	64.556407 
5149.000000	64.568471 
5148.000000	64.600491 
5147.000000	64.647722 
5146.000000	64.705634 
5145.000000	64.770293 
5144.000000	64.838504 
5143.000000	64.907407 
5142.000000	64.974308 
5141.000000	65.036058 
5140.000000	65.089321 
5139.000000	65.130591 
5138.000000	65.156650 
5137.000000	65.165066 
5136.000000	65.155386 
5135.000000	65.128827 
5134.000000	65.088796 
5133.000000	65.040230 
5132.000000	64.989233 
5131.000000	64.941692 
5130.000000	64.903378 
5129.000000	64.877510 
5128.000000	64.865493 
5127.000000	64.864897 
5126.000000	64.870047 
5125.000000	64.873337 
5124.000000	64.866757 
5123.000000	64.844727 
5122.000000	64.805269 
5121.000000	64.752173 
5120.000000	64.694070 
5119.000000	64.643335 
5118.000000	64.612817 
5117.000000	64.612841 
5116.000000	64.648175 
5115.000000	64.717221 
5114.000000	64.811706 
5113.000000	64.918351 
5112.000000	65.021800 
5111.000000	65.107822 
5110.000000	65.166401 
5109.000000	65.192985 
5108.000000	65.189599 
5107.000000	65.163064 
5106.000000	65.124058 
5105.000000	65.083718 
5104.000000	65.052771 
5103.000000	65.040087 
5102.000000	65.051078 
5101.000000	65.088534 
5100.000000	65.150785 
5099.000000	65.233159 
5098.000000	65.327572 
5097.000000	65.424156 
5096.000000	65.512323 
5095.000000	65.582489 
5094.000000	65.627431 
5093.000000	65.643453 
5092.000000	65.630507 
5091.000000	65.591669 
5090.000000	65.532612 
5089.000000	65.460419 
5088.000000	65.383028 
5087.000000	65.307927 
5086.000000	65.242099 
5085.000000	65.191030 
5084.000000	65.158700 
5083.000000	65.146446 
5082.000000	65.153336 
5081.000000	65.175271 
5080.000000	65.205860 
5079.000000	65.236568 
5078.000000	65.258073 
5077.000000	65.262055 
5076.000000	65.242481 
5075.000000	65.197563 
5074.000000	65.130066 
5073.000000	65.047311 
5072.000000	64.959383 
5071.000000	64.877533 
5070.000000	64.811539 
5069.000000	64.768600 
5068.000000	64.752173 
5067.000000	64.761328 
5066.000000	64.791178 
5065.000000	64.833807 
5064.000000	64.880347 
5063.000000	64.921641 
5062.000000	64.950227 
5061.000000	64.961719 
5060.000000	64.955568 
5059.000000	64.934587 
5058.000000	64.904522 
5057.000000	64.872336 
5056.000000	64.845466 
5055.000000	64.830708 
5054.000000	64.833378 
5053.000000	64.856839 
5052.000000	64.902114 
5051.000000	64.968705 
5050.000000	65.053224 
5049.000000	65.150308 
5048.000000	65.251922 
5047.000000	65.348577 
5046.000000	65.429592 
5045.000000	65.484595 
5044.000000	65.505623 
5043.000000	65.488648 
5042.000000	65.435004 
5041.000000	65.351796 
5040.000000	65.250754 
5039.000000	65.146446 
5038.000000	65.052318 
5037.000000	64.978027 
5036.000000	64.927530 
5035.000000	64.899086 
5034.000000	64.886665 
5033.000000	64.882588 
5032.000000	64.880061 
5031.000000	64.875650 
5030.000000	64.869880 
5029.000000	64.867258 
5028.000000	64.873218 
5027.000000	64.893150 
5026.000000	64.929318 
5025.000000	64.980888 
5024.000000	65.043044 
5023.000000	65.108752 
5022.000000	65.170788 
5021.000000	65.222620 
5020.000000	65.260434 
5019.000000	65.282440 
5018.000000	65.289211 
5017.000000	65.282273 
5016.000000	65.263128 
5015.000000	65.233802 
5014.000000	65.196728 
5013.000000	65.155148 
5012.000000	65.113306 
5011.000000	65.075707 
5010.000000	65.046405 
5009.000000	65.027880 
5008.000000	65.020847 
5007.000000	65.023612 
5006.000000	65.032577 
5005.000000	65.043878 
5004.000000	65.054154 
5003.000000	65.061235 
5002.000000	65.064549 
5001.000000	65.065193 
5000.000000	65.064930 
4999.000000	65.065145 
4998.000000	65.065979 
4997.000000	65.065693 
4996.000000	65.061402 
4995.000000	65.049672 
4994.000000	65.027666 
4993.000000	64.994692 
4992.000000	64.952492 
4991.000000	64.905333 
4990.000000	64.859127 
4989.000000	64.819884 
4988.000000	64.792919 
4987.000000	64.781641 
4986.000000	64.786815 
4985.000000	64.806365 
4984.000000	64.835643 
4983.000000	64.868807 
4982.000000	64.899659 
4981.000000	64.923357 
4980.000000	64.937615 
4979.000000	64.943313 
4978.000000	64.944338 
4977.000000	64.946389 
4976.000000	64.955067 
4975.000000	64.974355 
4974.000000	65.005540 
4973.000000	65.046548 
4972.000000	65.092682 
4971.000000	65.137553 
4970.000000	65.175175 
4969.000000	65.201115 
4968.000000	65.213680 
4967.000000	65.213727 
4966.000000	65.204787 
4965.000000	65.191030 
4964.000000	65.176558 
4963.000000	65.163683 
4962.000000	65.152716 
4961.000000	65.141773 
4960.000000	65.127801 
4959.000000	65.107345 
4958.000000	65.077948 
4957.000000	65.039181 
4956.000000	64.993286 
4955.000000	64.944386 
4954.000000	64.897775 
4953.000000	64.859223 
4952.000000	64.834165 
4951.000000	64.826202 
4950.000000	64.836883 
4949.000000	64.865541 
4948.000000	64.909362 
4947.000000	64.964127 
4946.000000	65.024805 
4945.000000	65.086364 
4944.000000	65.144228 
4943.000000	65.194582 
4942.000000	65.234684 
4941.000000	65.262961 
4940.000000	65.278744 
4939.000000	65.282225 
4938.000000	65.273976 
4937.000000	65.255737 
4936.000000	65.228724 
4935.000000	65.194749 
4934.000000	65.153717 
4933.000000	65.104341 
4932.000000	65.043950 
4931.000000	64.969968 
4930.000000	64.880681 
4929.000000	64.776706 
4928.000000	64.662337 
4927.000000	64.545989 
4926.000000	64.438962 
4925.000000	64.353871 
4924.000000	64.302229 
4923.000000	64.292073 
4922.000000	64.325523 
4921.000000	64.398217 
4920.000000	64.499497 
4919.000000	64.614176 
4918.000000	64.725422 
4917.000000	64.817523 
4916.000000	64.877963 
4915.000000	64.900183 
4914.000000	64.883708 
4913.000000	64.834761 
4912.000000	64.763236 
4911.000000	64.682531 
4910.000000	64.606785 
4909.000000	64.548802 
4908.000000	64.518475 
4907.000000	64.520978 
4906.000000	64.556407 
4905.000000	64.619970 
4904.000000	64.703512 
4903.000000	64.796876 
4902.000000	64.890146 
4901.000000	64.975738 
4900.000000	65.049457 
4899.000000	65.110707 
4898.000000	65.161275 
4897.000000	65.204977 
4896.000000	65.244936 
4895.000000	65.282440 
4894.000000	65.315246 
4893.000000	65.339231 
4892.000000	65.348172 
4891.000000	65.336513 
4890.000000	65.300107 
4889.000000	65.238785 
4888.000000	65.156030 
4887.000000	65.059566 
4886.000000	64.959406 
4885.000000	64.865708 
4884.000000	64.787626 
4883.000000	64.731669 
4882.000000	64.701151 
4881.000000	64.695715 
4880.000000	64.712452 
4879.000000	64.746665 
4878.000000	64.793252 
4877.000000	64.847040 
4876.000000	64.903807 
4875.000000	64.960169 
4874.000000	65.013527 
4873.000000	65.061736 
4872.000000	65.103340 
4871.000000	65.137052 
4870.000000	65.162253 
4869.000000	65.178370 
4868.000000	65.185308 
4867.000000	65.182852 
4866.000000	65.171384 
4865.000000	65.151143 
4864.000000	65.122652 
4863.000000	65.086603 
4862.000000	65.044951 
4861.000000	65.000128 
4860.000000	64.955520 
4859.000000	64.914631 
4858.000000	64.880990 
4857.000000	64.856743 
4856.000000	64.842224 
4855.000000	64.835619 
4854.000000	64.833521 
4853.000000	64.831542 
4852.000000	64.825320 
4851.000000	64.812254 
4850.000000	64.792156 
4849.000000	64.767932 
4848.000000	64.744949 
4847.000000	64.729714 
4846.000000	64.728283 
4845.000000	64.745211 
4844.000000	64.782476 
4843.000000	64.838552 
4842.000000	64.909291 
4841.000000	64.989352 
4840.000000	65.073227 
4839.000000	65.156149 
4838.000000	65.234780 
4837.000000	65.307235 
4836.000000	65.372562 
4835.000000	65.430021 
4834.000000	65.478348 
4833.000000	65.516018 
4832.000000	65.540838 
4831.000000	65.551733 
4830.000000	65.548157 
4829.000000	65.531373 
4828.000000	65.504145 
4827.000000	65.471053 
4826.000000	65.436553 
4825.000000	65.404534 
4824.000000	65.377259 
4823.000000	65.355491 
4822.000000	65.337967 
4821.000000	65.322375 
4820.000000	65.305972 
4819.000000	65.286636 
4818.000000	65.262937 
4817.000000	65.234494 
4816.000000	65.201687 
4815.000000	65.165472 
4814.000000	65.126633 
4813.000000	65.086126 
4812.000000	65.044617 
4811.000000	65.002822 
4810.000000	64.961695 
4809.000000	64.922642 
4808.000000	64.887022 
4807.000000	64.856386 
4806.000000	64.832115 
4805.000000	64.815616 
4804.000000	64.807033 
4803.000000	64.806699 
4802.000000	64.814448 
4801.000000	64.830350 
4800.000000	64.854192 
4799.000000	64.885735 
4798.000000	64.924550 
4797.000000	64.969468 
4796.000000	65.018224 
4795.000000	65.067863 
4794.000000	65.114569 
4793.000000	65.154552 
4792.000000	65.184712 
4791.000000	65.203261 
4790.000000	65.210127 
4789.000000	65.207099 
4788.000000	65.197610 
4787.000000	65.185952 
4786.000000	65.176630 
4785.000000	65.173649 
4784.000000	65.179657 
4783.000000	65.195655 
4782.000000	65.220737 
4781.000000	65.253210 
4780.000000	65.290093 
4779.000000	65.327978 
4778.000000	65.363049 
4777.000000	65.392136 
4776.000000	65.412425 
4775.000000	65.421891 
4774.000000	65.419340 
4773.000000	65.404486 
4772.000000	65.378117 
4771.000000	65.342307 
4770.000000	65.299820 
4769.000000	65.253806 
4768.000000	65.207719 
4767.000000	65.164875 
4766.000000	65.127563 
4765.000000	65.096902 
4764.000000	65.072894 
4763.000000	65.054965 
4762.000000	65.041589 
4761.000000	65.031552 
4760.000000	65.023827 
4759.000000	65.018534 
4758.000000	65.016412 
4757.000000	65.019369 
4756.000000	65.029501 
4755.000000	65.048789 
4754.000000	65.078139 
4753.000000	65.116977 
4752.000000	65.163135 
4751.000000	65.212559 
4750.000000	65.260219 
4749.000000	65.300083 
4748.000000	65.326833 
4747.000000	65.335893 
4746.000000	65.324854 
4745.000000	65.293192 
4744.000000	65.242886 
4743.000000	65.177440 
4742.000000	65.101718 
4741.000000	65.021133 
4740.000000	64.941263 
4739.000000	64.867258 
4738.000000	64.803981 
4737.000000	64.755725 
4736.000000	64.726257 
4735.000000	64.718532 
4734.000000	64.734101 
4733.000000	64.772319 
4732.000000	64.829897 
4731.000000	64.900541 
4730.000000	64.976000 
4729.000000	65.046000 
4728.000000	65.100884 
4727.000000	65.133070 
4726.000000	65.138745 
4725.000000	65.118312 
4724.000000	65.076684 
4723.000000	65.022420 
4722.000000	64.965391 
4721.000000	64.915227 
4720.000000	64.878416 
4719.000000	64.857840 
4718.000000	64.851546 
4717.000000	64.854526 
4716.000000	64.859461 
4715.000000	64.859247 
4714.000000	64.848375 
4713.000000	64.824485 
4712.000000	64.788818 
4711.000000	64.745926 
4710.000000	64.702153 
4709.000000	64.664459 
4708.000000	64.638853 
4707.000000	64.629793 
4706.000000	64.638876 
4705.000000	64.665389 
4704.000000	64.706802 
4703.000000	64.759707 
4702.000000	64.820551 
4701.000000	64.886188 
4700.000000	64.953851 
4699.000000	65.021038 
4698.000000	65.085315 
4697.000000	65.143656 
4696.000000	65.192365 
4695.000000	65.227246 
4694.000000	65.244555 
4693.000000	65.241646 
4692.000000	65.218281 
4691.000000	65.176534 
4690.000000	65.120983 
4689.000000	65.058302 
4688.000000	64.996361 
4687.000000	64.943122 
4686.000000	64.905285 
4685.000000	64.887070 
4684.000000	64.889740 
4683.000000	64.911484 
4682.000000	64.948010 
4681.000000	64.993190 
4680.000000	65.040516 
4679.000000	65.084242 
4678.000000	65.120530 
4677.000000	65.147423 
4676.000000	65.164947 
4675.000000	65.174102 
4674.000000	65.176439 
4673.000000	65.173172 
4672.000000	65.165281 
4671.000000	65.153956 
4670.000000	65.140676 
4669.000000	65.127587 
4668.000000	65.117478 
4667.000000	65.114212 
4666.000000	65.121030 
4665.000000	65.140151 
4664.000000	65.170884 
4663.000000	65.209841 
4662.000000	65.250778 
4661.000000	65.285992 
4660.000000	65.307855 
4659.000000	65.310621 
4658.000000	65.292167 
4657.000000	65.254402 
4656.000000	65.202498 
4655.000000	65.143680 
4654.000000	65.085721 
4653.000000	65.035343 
4652.000000	64.997506 
4651.000000	64.974451 
4650.000000	64.966535 
4649.000000	64.971685 
4648.000000	64.986872 
4647.000000	65.008091 
4646.000000	65.030717 
4645.000000	65.050482 
4644.000000	65.063405 
4643.000000	65.067481 
4642.000000	65.061688 
4641.000000	65.047979 
4640.000000	65.030431 
4639.000000	65.015125 
4638.000000	65.008735 
4637.000000	65.016984 
4636.000000	65.043449 
4635.000000	65.088129 
4634.000000	65.147233 
4633.000000	65.213966 
4632.000000	65.279960 
4631.000000	65.337109 
4630.000000	65.379357 
4629.000000	65.403461 
4628.000000	65.409493 
4627.000000	65.400147 
4626.000000	65.379714 
4625.000000	65.352916 
4624.000000	65.323996 
4623.000000	65.296292 
4622.000000	65.271854 
4621.000000	65.251994 
4620.000000	65.237236 
4619.000000	65.228462 
4618.000000	65.225815 
4617.000000	65.229368 
4616.000000	65.237998 
4615.000000	65.249323 
4614.000000	65.259742 
4613.000000	65.265011 
4612.000000	65.261173 
4611.000000	65.245342 
4610.000000	65.217375 
4609.000000	65.179610 
4608.000000	65.137243 
4607.000000	65.096998 
4606.000000	65.066051 
4605.000000	65.050077 
4604.000000	65.051960 
4603.000000	65.070867 
4602.000000	65.102458 
4601.000000	65.139698 
4600.000000	65.174174 
4599.000000	65.198183 
4598.000000	65.206813 
4597.000000	65.198802 
4596.000000	65.176272 
4595.000000	65.144395 
4594.000000	65.109491 
4593.000000	65.077710 
4592.000000	65.053606 
4591.000000	65.039277 
4590.000000	65.034413 
4589.000000	65.036725 
4588.000000	65.043330 
4587.000000	65.051412 
4586.000000	65.059304 
4585.000000	65.066409 
4584.000000	65.072941 
4583.000000	65.079617 
4582.000000	65.086960 
4581.000000	65.095043 
4580.000000	65.103340 
4579.000000	65.111064 
4578.000000	65.117430 
4577.000000	65.122079 
4576.000000	65.125107 
4575.000000	65.126657 
4574.000000	65.126395 
4573.000000	65.123414 
4572.000000	65.116262 
4571.000000	65.102791 
4570.000000	65.081167 
4569.000000	65.050888 
4568.000000	65.013265 
4567.000000	64.971828 
4566.000000	64.931368 
4565.000000	64.897346 
4564.000000	64.873790 
4563.000000	64.862585 
4562.000000	64.862179 
4561.000000	64.867806 
4560.000000	64.872694 
4559.000000	64.869904 
4558.000000	64.854502 
4557.000000	64.824748 
4556.000000	64.783215 
4555.000000	64.736175 
4554.000000	64.691781 
4553.000000	64.657902 
4552.000000	64.640116 
4551.000000	64.640283 
4550.000000	64.656400 
4549.000000	64.683532 
4548.000000	64.715552 
4547.000000	64.747166 
4546.000000	64.775848 
4545.000000	64.802384 
4544.000000	64.830636 
4543.000000	64.865541 
4542.000000	64.911532 
4541.000000	64.969658 
4540.000000	65.036797 
4539.000000	65.105319 
4538.000000	65.164995 
4537.000000	65.204977 
4536.000000	65.217256 
4535.000000	65.197920 
4534.000000	65.149593 
4533.000000	65.079522 
4532.000000	64.997863 
4531.000000	64.915370 
4530.000000	64.840912 
4529.000000	64.780068 
4528.000000	64.734578 
4527.000000	64.703297 
4526.000000	64.683938 
4525.000000	64.674520 
4524.000000	64.674305 
4523.000000	64.684081 
4522.000000	64.705586 
4521.000000	64.740395 
4520.000000	64.788603 
4519.000000	64.847803 
4518.000000	64.912867 
4517.000000	64.976668 
4516.000000	65.031266 
4515.000000	65.069580 
4514.000000	65.086841 
4513.000000	65.081620 
4512.000000	65.056061 
4511.000000	65.015411 
4510.000000	64.967107 
4509.000000	64.919185 
4508.000000	64.879393 
4507.000000	64.853692 
4506.000000	64.845561 
4505.000000	64.856362 
4504.000000	64.884734 
4503.000000	64.927458 
4502.000000	64.979624 
4501.000000	65.035581 
4500.000000	65.089535 
4499.000000	65.136146 
4498.000000	65.171074 
4497.000000	65.191197 
4496.000000	65.195369 
4495.000000	65.184330 
4494.000000	65.160250 
4493.000000	65.126729 
4492.000000	65.088319 
4491.000000	65.050029 
4490.000000	65.016937 
4489.000000	64.993453 
4488.000000	64.983010 
4487.000000	64.987206 
4486.000000	65.006160 
4485.000000	65.038037 
4484.000000	65.078949 
4483.000000	65.123581 
4482.000000	65.166354 
4481.000000	65.201830 
4480.000000	65.225577 
4479.000000	65.234827 
4478.000000	65.229296 
4477.000000	65.210366 
4476.000000	65.181231 
4475.000000	65.145277 
4474.000000	65.105295 
4473.000000	65.063381 
4472.000000	65.020990 
4471.000000	64.980006 
4470.000000	64.942955 
4469.000000	64.913797 
4468.000000	64.897370 
4467.000000	64.898204 
4466.000000	64.919161 
4465.000000	64.959669 
4464.000000	65.015554 
4463.000000	65.079355 
4462.000000	65.141344 
4461.000000	65.191674 
4460.000000	65.221667 
4459.000000	65.226268 
4458.000000	65.204310 
4457.000000	65.158653 
4456.000000	65.095186 
4455.000000	65.021228 
4454.000000	64.944338 
4453.000000	64.870524 
4452.000000	64.804840 
4451.000000	64.751338 
4450.000000	64.713191 
4449.000000	64.693284 
4448.000000	64.693450 
4447.000000	64.714026 
4446.000000	64.753842 
4445.000000	64.809513 
4444.000000	64.877748 
4443.000000	64.955139 
4442.000000	65.039086 
4441.000000	65.126824 
4440.000000	65.213441 
4439.000000	65.291571 
4438.000000	65.351247 
4437.000000	65.381884 
4436.000000	65.375566 
4435.000000	65.328717 
4434.000000	65.245866 
4433.000000	65.137028 
4432.000000	65.016150 
4431.000000	64.897322 
4430.000000	64.790463 
4429.000000	64.701294 
4428.000000	64.632296 
4427.000000	64.582562 
4426.000000	64.549446 
4425.000000	64.530229 
4424.000000	64.523267 
4423.000000	64.528036 
4422.000000	64.543628 
4421.000000	64.568924 
4420.000000	64.601778 
4419.000000	64.636778 
4418.000000	64.664745 
4417.000000	64.679646 
4416.000000	64.680337 
4415.000000	64.669442 
4414.000000	64.653086 
4413.000000	64.637207 
4412.000000	64.626860 
4411.000000	64.626026 
4410.000000	64.637422 
4409.000000	64.664745 
4408.000000	64.708924 
4407.000000	64.774417 
4406.000000	64.858341 
4405.000000	64.945626 
4404.000000	65.010857 
4403.000000	65.021419 
4402.000000	64.948868 
4401.000000	64.775323 
4400.000000	64.504575 
4399.000000	64.169669 
4398.000000	63.819050 
4397.000000	63.510847 
4396.000000	63.285136 
4395.000000	63.157773 
4394.000000	63.099694 
4393.000000	63.043808 
4392.000000	62.900853 
4391.000000	62.585139 
4390.000000	62.051415 
4389.000000	61.315035 
4388.000000	60.459423 
4387.000000	59.621119 
4386.000000	58.953046 
4385.000000	58.590030 
4384.000000	58.605027 
4383.000000	59.000372 
4382.000000	59.711623 
4381.000000	60.630583 
4380.000000	61.637830 
4379.000000	62.629199 
4378.000000	63.531780 
4377.000000	64.314126 
4376.000000	64.969563 
4375.000000	65.514945 
4374.000000	65.970015 
4373.000000	66.349744 
4372.000000	66.661858 
4371.000000	66.898274 
4370.000000	67.046785 
4369.000000	67.091178 
4368.000000	67.029333 
4367.000000	66.869235 
4366.000000	66.636538 
4365.000000	66.366672 
4364.000000	66.102051 
4363.000000	65.876603 
4362.000000	65.709567 
4361.000000	65.602803 
4360.000000	65.543055 
4359.000000	65.508985 
4358.000000	65.478944 
4357.000000	65.438842 
4356.000000	65.385842 
4355.000000	65.324735 
4354.000000	65.267491 
4353.000000	65.224981 
4352.000000	65.206122 
4351.000000	65.214014 
4350.000000	65.246105 
4349.000000	65.293717 
4348.000000	65.345311 
4347.000000	65.393328 
4346.000000	65.431475 
4345.000000	65.453267 
4344.000000	65.455865 
4343.000000	65.441083 
4342.000000	65.413236 
4341.000000	65.377497 
4340.000000	65.339040 
4339.000000	65.302348 
4338.000000	65.269517 
4337.000000	65.240335 
4336.000000	65.213084 
4335.000000	65.185689 
4334.000000	65.156579 
4333.000000	65.125584 
4332.000000	65.092825 
4331.000000	65.058994 
4330.000000	65.025448 
4329.000000	64.994239 
4328.000000	64.966940 
4327.000000	64.945340 
4326.000000	64.930820 
4325.000000	64.924812 
4324.000000	64.928460 
4323.000000	64.942812 
4322.000000	64.967870 
4321.000000	65.003037 
4320.000000	65.046501 
4319.000000	65.095663 
4318.000000	65.147185 
4317.000000	65.197396 
4316.000000	65.242862 
4315.000000	65.280508 
4314.000000	65.308451 
4313.000000	65.324878 
4312.000000	65.328311 
4311.000000	65.317654 
4310.000000	65.292334 
4309.000000	65.252470 
4308.000000	65.199232 
4307.000000	65.135598 
4306.000000	65.066337 
4305.000000	64.997172 
4304.000000	64.934134 
4303.000000	64.882707 
4302.000000	64.846467 
4301.000000	64.826560 
4300.000000	64.821243 
4299.000000	64.826273 
4298.000000	64.835906 
4297.000000	64.843678 
4296.000000	64.844584 
4295.000000	64.835095 
4294.000000	64.815807 
4293.000000	64.790058 
4292.000000	64.764976 
4291.000000	64.748620 
4290.000000	64.749622 
4289.000000	64.774465 
4288.000000	64.826345 
4287.000000	64.903783 
4286.000000	65.001082 
4285.000000	65.109062 
4284.000000	65.216755 
4283.000000	65.313386 
4282.000000	65.390539 
4281.000000	65.443539 
4280.000000	65.471959 
4279.000000	65.478968 
4278.000000	65.470218 
4277.000000	65.451979 
4276.000000	65.429973 
4275.000000	65.407967 
4274.000000	65.387654 
4273.000000	65.368556 
4272.000000	65.349841 
4271.000000	65.330529 
4270.000000	65.310311 
4269.000000	65.289664 
4268.000000	65.270185 
4267.000000	65.253925 
4266.000000	65.242457 
4265.000000	65.236997 
4264.000000	65.237402 
4263.000000	65.242791 
4262.000000	65.251564 
4261.000000	65.261960 
4260.000000	65.272498 
4259.000000	65.282011 
4258.000000	65.290093 
4257.000000	65.296244 
4256.000000	65.299606 
4255.000000	65.299034 
4254.000000	65.293002 
4253.000000	65.279459 
4252.000000	65.256452 
4251.000000	65.223360 
4250.000000	65.181446 
4249.000000	65.133595 
4248.000000	65.084242 
4247.000000	65.038752 
4246.000000	65.002822 
4245.000000	64.980959 
4244.000000	64.975976 
4243.000000	64.988207 
4242.000000	65.015530 
4241.000000	65.054321 
4240.000000	65.099716 
4239.000000	65.146756 
4238.000000	65.190958 
4237.000000	65.228939 
4236.000000	65.258359 
4235.000000	65.277481 
4234.000000	65.285420 
4233.000000	65.281987 
4232.000000	65.267229 
4231.000000	65.241837 
4230.000000	65.206742 
4229.000000	65.163898 
4228.000000	65.115189 
4227.000000	65.062451 
4226.000000	65.007376 
4225.000000	64.951491 
4224.000000	64.895796 
4223.000000	64.841151 
4222.000000	64.788937 
4221.000000	64.741444 
4220.000000	64.701318 
4219.000000	64.671516 
4218.000000	64.654827 
4217.000000	64.653277 
4216.000000	64.667129 
4215.000000	64.695072 
4214.000000	64.733695 
4213.000000	64.778804 
4212.000000	64.825749 
4211.000000	64.871001 
4210.000000	64.912271 
4209.000000	64.949202 
4208.000000	64.982962 
4207.000000	65.015268 
4206.000000	65.047001 
4205.000000	65.078234 
4204.000000	65.108084 
4203.000000	65.134692 
4202.000000	65.155625 
4201.000000	65.169811 
4200.000000	65.178203 
4199.000000	65.184330 
4198.000000	65.193915 
4197.000000	65.213871 
4196.000000	65.250110 
4195.000000	65.306568 
4194.000000	65.382838 
4193.000000	65.472984 
4192.000000	65.566134 
4191.000000	65.649175 
4190.000000	65.709209 
4189.000000	65.736556 
4188.000000	65.727210 
4187.000000	65.684890 
4186.000000	65.619015 
4185.000000	65.543198 
4184.000000	65.470457 
4183.000000	65.411472 
4182.000000	65.369820 
4181.000000	65.342950 
4180.000000	65.321421 
4179.000000	65.292739 
4178.000000	65.244507 
4177.000000	65.168738 
4176.000000	65.063953 
4175.000000	64.935851 
4174.000000	64.796924 
4173.000000	64.663529 
4172.000000	64.552307 
4171.000000	64.476776 
4170.000000	64.445233 
4169.000000	64.459967 
4168.000000	64.516901 
4167.000000	64.607524 
4166.000000	64.720606 
4165.000000	64.844775 
4164.000000	64.969277 
4163.000000	65.085959 
4162.000000	65.189194 
4161.000000	65.276098 
4160.000000	65.345430 
4159.000000	65.397167 
4158.000000	65.431928 
4157.000000	65.449976 
4156.000000	65.452384 
4155.000000	65.439534 
4154.000000	65.412688 
4153.000000	65.373253 
4152.000000	65.324354 
4151.000000	65.269303 
4150.000000	65.212011 
4149.000000	65.156507 
4148.000000	65.106892 
4147.000000	65.066289 
4146.000000	65.036606 
4145.000000	65.018463 
4144.000000	65.011453 
4143.000000	65.013957 
4142.000000	65.023684 
4141.000000	65.038394 
4140.000000	65.056490 
4139.000000	65.076160 
4138.000000	65.096211 
4137.000000	65.115427 
4136.000000	65.133094 
4135.000000	65.149283 
4134.000000	65.164136 
4133.000000	65.177583 
4132.000000	65.189123 
4131.000000	65.198254 
4130.000000	65.203976 
4129.000000	65.204858 
4128.000000	65.199661 
4127.000000	65.188145 
4126.000000	65.171194 
4125.000000	65.150976 
4124.000000	65.130662 
4123.000000	65.113520 
4122.000000	65.102314 
4121.000000	65.098714 
4120.000000	65.103220 
4119.000000	65.115213 
4118.000000	65.133547 
4117.000000	65.157032 
4116.000000	65.185189 
4115.000000	65.218138 
4114.000000	65.256333 
4113.000000	65.299558 
4112.000000	65.346550 
4111.000000	65.394186 
4110.000000	65.437555 
4109.000000	65.470552 
4108.000000	65.487432 
4107.000000	65.484213 
4106.000000	65.459847 
4105.000000	65.417051 
4104.000000	65.361928 
4103.000000	65.302848 
4102.000000	65.249013 
4101.000000	65.208435 
4100.000000	65.186572 
4099.000000	65.185165 
4098.000000	65.202403 
4097.000000	65.233159 
4096.000000	65.270471 
4095.000000	65.306806 
4094.000000	65.335655 
4093.000000	65.351986 
4092.000000	65.352940 
4091.000000	65.337753 
4090.000000	65.307450 
4089.000000	65.264129 
4088.000000	65.210509 
4087.000000	65.149569 
4086.000000	65.084409 
4085.000000	65.018415 
4084.000000	64.955186 
4083.000000	64.898252 
4082.000000	64.851045 
4081.000000	64.816546 
4080.000000	64.797043 
4079.000000	64.793181 
4078.000000	64.804553 
4077.000000	64.829134 
4076.000000	64.864087 
4075.000000	64.905285 
4074.000000	64.948821 
4073.000000	64.990687 
4072.000000	65.028476 
4071.000000	65.060567 
4070.000000	65.087199 
4069.000000	65.109825 
4068.000000	65.131044 
4067.000000	65.153884 
4066.000000	65.181303 
4065.000000	65.215158 
4064.000000	65.255498 
4063.000000	65.300250 
4062.000000	65.345358 
4061.000000	65.385413 
4060.000000	65.414690 
4059.000000	65.428614 
4058.000000	65.425038 
4057.000000	65.404915 
4056.000000	65.372657 
4055.000000	65.335202 
4054.000000	65.300226 
4053.000000	65.274357 
4052.000000	65.262174 
4051.000000	65.264630 
4050.000000	65.278840 
4049.000000	65.299344 
4048.000000	65.319681 
4047.000000	65.334177 
4046.000000	65.339303 
4045.000000	65.334486 
4044.000000	65.321874 
4043.000000	65.305113 
4042.000000	65.288114 
4041.000000	65.273237 
4040.000000	65.260314 
4039.000000	65.247201 
4038.000000	65.230631 
4037.000000	65.207362 
4036.000000	65.175557 
4035.000000	65.135669 
4034.000000	65.090537 
4033.000000	65.044569 
4032.000000	65.002775 
4031.000000	64.969491 
4030.000000	64.947605 
4029.000000	64.937782 
4028.000000	64.939165 
4027.000000	64.949440 
4026.000000	64.966440 
4025.000000	64.988422 
4024.000000	65.014696 
4023.000000	65.045404 
4022.000000	65.080904 
4021.000000	65.121102 
4020.000000	65.164709 
4019.000000	65.208601 
4018.000000	65.248060 
4017.000000	65.277957 
4016.000000	65.293192 
4015.000000	65.290236 
4014.000000	65.267848 
4013.000000	65.227627 
4012.000000	65.173840 
4011.000000	65.112805 
4010.000000	65.051484 
4009.000000	64.996337 
4008.000000	64.952349 
4007.000000	64.922475 
4006.000000	64.907264 
4005.000000	64.905643 
4004.000000	64.915418 
4003.000000	64.934515 
4002.000000	64.960980 
4001.000000	64.993739 
4000.000000	65.031647 
3999.000000	65.073919 
3998.000000	65.118932 
3997.000000	65.165019 
3996.000000	65.209650 
3995.000000	65.250420 
3994.000000	65.285468 
3993.000000	65.313792 
3992.000000	65.335726 
3991.000000	65.352201 
3990.000000	65.365099 
3989.000000	65.375804 
3988.000000	65.385103 
3987.000000	65.392303 
3986.000000	65.395545 
3985.000000	65.391945 
3984.000000	65.378618 
3983.000000	65.353298 
3982.000000	65.315294 
3981.000000	65.265679 
3980.000000	65.207624 
3979.000000	65.145993 
3978.000000	65.086650 
3977.000000	65.035438 
3976.000000	64.997458 
3975.000000	64.976358 
3974.000000	64.973950 
3973.000000	64.989781 
3972.000000	65.021705 
3971.000000	65.065670 
3970.000000	65.117359 
3969.000000	65.172314 
3968.000000	65.226984 
3967.000000	65.278458 
3966.000000	65.324831 
3965.000000	65.365099 
3964.000000	65.398550 
3963.000000	65.424323 
3962.000000	65.441203 
3961.000000	65.448045 
3960.000000	65.443634 
3959.000000	65.427422 
3958.000000	65.399503 
3957.000000	65.361332 
3956.000000	65.315794 
3955.000000	65.267038 
3954.000000	65.220141 
3953.000000	65.180611 
3952.000000	65.153264 
3951.000000	65.141797 
3950.000000	65.147876 
3949.000000	65.171074 
3948.000000	65.208578 
3947.000000	65.256047 
3946.000000	65.307831 
3945.000000	65.358185 
3944.000000	65.401959 
3943.000000	65.435433 
3942.000000	65.456557 
3941.000000	65.464854 
3940.000000	65.461206 
3939.000000	65.447235 
3938.000000	65.425062 
3937.000000	65.396690 
3936.000000	65.363812 
3935.000000	65.328001 
3934.000000	65.291309 
3933.000000	65.255975 
3932.000000	65.224575 
3931.000000	65.199327 
3930.000000	65.182018 
3929.000000	65.173339 
3928.000000	65.172624 
3927.000000	65.178012 
3926.000000	65.186667 
3925.000000	65.195703 
3924.000000	65.202617 
3923.000000	65.205621 
3922.000000	65.204167 
3921.000000	65.198731 
3920.000000	65.190482 
3919.000000	65.180850 
3918.000000	65.170907 
3917.000000	65.161156 
3916.000000	65.151619 
3915.000000	65.142202 
3914.000000	65.132594 
3913.000000	65.122628 
3912.000000	65.112233 
3911.000000	65.101695 
3910.000000	65.091490 
3909.000000	65.081739 
3908.000000	65.072751 
3907.000000	65.064692 
3906.000000	65.057969 
3905.000000	65.053224 
3904.000000	65.051126 
3903.000000	65.052270 
3902.000000	65.057039 
3901.000000	65.065622 
3900.000000	65.077710 
3899.000000	65.092563 
3898.000000	65.109205 
3897.000000	65.126824 
3896.000000	65.144753 
3895.000000	65.162634 
3894.000000	65.180540 
3893.000000	65.198731 
3892.000000	65.217518 
3891.000000	65.236854 
3890.000000	65.256237 
3889.000000	65.274429 
3888.000000	65.289640 
3887.000000	65.299677 
3886.000000	65.302705 
3885.000000	65.297222 
3884.000000	65.282630 
3883.000000	65.259504 
3882.000000	65.229725 
3881.000000	65.196251 
3880.000000	65.162968 
3879.000000	65.133905 
3878.000000	65.112614 
3877.000000	65.101742 
3876.000000	65.102672 
3875.000000	65.114879 
3874.000000	65.136146 
3873.000000	65.163111 
3872.000000	65.192079 
3871.000000	65.219140 
3870.000000	65.241360 
3869.000000	65.257072 
3868.000000	65.266036 
3867.000000	65.269255 
3866.000000	65.268588 
3865.000000	65.266251 
3864.000000	65.264344 
3863.000000	65.264368 
3862.000000	65.266871 
3861.000000	65.271902 
3860.000000	65.278863 
3859.000000	65.287208 
3858.000000	65.296196 
3857.000000	65.305113 
3856.000000	65.313005 
3855.000000	65.319252 
3854.000000	65.322399 
3853.000000	65.320777 
3852.000000	65.312170 
3851.000000	65.294671 
3850.000000	65.266609 
3849.000000	65.227270 
3848.000000	65.177392 
3847.000000	65.119552 
3846.000000	65.057921 
3845.000000	64.997887 
3844.000000	64.945077 
3843.000000	64.904379 
3842.000000	64.879131 
3841.000000	64.870429 
3840.000000	64.876413 
3839.000000	64.893579 
3838.000000	64.916944 
3837.000000	64.942073 
3836.000000	64.965105 
3835.000000	64.984703 
3834.000000	65.001535 
3833.000000	65.018486 
3832.000000	65.038895 
3831.000000	65.066051 
3830.000000	65.101861 
3829.000000	65.146160 
3828.000000	65.196561 
3827.000000	65.249109 
3826.000000	65.299296 
3825.000000	65.342855 
3824.000000	65.377068 
3823.000000	65.400767 
3822.000000	65.414357 
3821.000000	65.419316 
3820.000000	65.417647 
3819.000000	65.411114 
3818.000000	65.400767 
3817.000000	65.387344 
3816.000000	65.371179 
3815.000000	65.352869 
3814.000000	65.333247 
3813.000000	65.314197 
3812.000000	65.297770 
3811.000000	65.286016 
3810.000000	65.280175 
3809.000000	65.280222 
3808.000000	65.284633 
3807.000000	65.290951 
3806.000000	65.296006 
3805.000000	65.296530 
3804.000000	65.290141 
3803.000000	65.275931 
3802.000000	65.254569 
3801.000000	65.228128 
3800.000000	65.200018 
3799.000000	65.174102 
3798.000000	65.153908 
3797.000000	65.141868 
3796.000000	65.138959 
3795.000000	65.144634 
3794.000000	65.156722 
3793.000000	65.172266 
3792.000000	65.188193 
3791.000000	65.202093 
3790.000000	65.212750 
3789.000000	65.220117 
3788.000000	65.225124 
3787.000000	65.228724 
3786.000000	65.231657 
3785.000000	65.233659 
3784.000000	65.233421 
3783.000000	65.228676 
3782.000000	65.217089 
3781.000000	65.197086 
3780.000000	65.168809 
3779.000000	65.134334 
3778.000000	65.097761 
3777.000000	65.064144 
3776.000000	65.038371 
3775.000000	65.024042 
3774.000000	65.022277 
3773.000000	65.031576 
3772.000000	65.048384 
3771.000000	65.068101 
3770.000000	65.086197 
3769.000000	65.099692 
3768.000000	65.107870 
3767.000000	65.112400 
3766.000000	65.116667 
3765.000000	65.124797 
3764.000000	65.140366 
3763.000000	65.165305 
3762.000000	65.199279 
3761.000000	65.239763 
3760.000000	65.282440 
3759.000000	65.322494 
3758.000000	65.355229 
3757.000000	65.377402 
3756.000000	65.387201 
3755.000000	65.384960 
3754.000000	65.372467 
3753.000000	65.352559 
3752.000000	65.328431 
3751.000000	65.303277 
3750.000000	65.279459 
3749.000000	65.258574 
3748.000000	65.241050 
3747.000000	65.226817 
3746.000000	65.215086 
3745.000000	65.204954 
3744.000000	65.195631 
3743.000000	65.186691 
3742.000000	65.178346 
3741.000000	65.171313 
3740.000000	65.166687 
3739.000000	65.165758 
3738.000000	65.169644 
3737.000000	65.178871 
3736.000000	65.193176 
3735.000000	65.211272 
3734.000000	65.231060 
3733.000000	65.249872 
3732.000000	65.264987 
3731.000000	65.273952 
3730.000000	65.275716 
3729.000000	65.270328 
3728.000000	65.259218 
3727.000000	65.244507 
3726.000000	65.229034 
3725.000000	65.215373 
3724.000000	65.205216 
3723.000000	65.198969 
3722.000000	65.195941 
3721.000000	65.194606 
3720.000000	65.193080 
3719.000000	65.189933 
3718.000000	65.184593 
3717.000000	65.177750 
3716.000000	65.171146 
3715.000000	65.167164 
3714.000000	65.168261 
3713.000000	65.176272 
3712.000000	65.191817 
3711.000000	65.214085 
3710.000000	65.240955 
3709.000000	65.269327 
3708.000000	65.295791 
3707.000000	65.317153 
3706.000000	65.331029 
3705.000000	65.336275 
3704.000000	65.333104 
3703.000000	65.322804 
3702.000000	65.307617 
3701.000000	65.290236 
3700.000000	65.272951 
3699.000000	65.257787 
3698.000000	65.245652 
3697.000000	65.236759 
3696.000000	65.230417 
3695.000000	65.225362 
3694.000000	65.220308 
3693.000000	65.214371 
3692.000000	65.207266 
3691.000000	65.199232 
3690.000000	65.191078 
3689.000000	65.183925 
3688.000000	65.178656 
3687.000000	65.175580 
3686.000000	65.174412 
3685.000000	65.174245 
3684.000000	65.173935 
3683.000000	65.172600 
3682.000000	65.169978 
3681.000000	65.166735 
3680.000000	65.164399 
3679.000000	65.165090 
3678.000000	65.170645 
3677.000000	65.182018 
3676.000000	65.198850 
3675.000000	65.219378 
3674.000000	65.240406 
3673.000000	65.258359 
3672.000000	65.270256 
3671.000000	65.274405 
3670.000000	65.271115 
3669.000000	65.262603 
3668.000000	65.252232 
3667.000000	65.243887 
3666.000000	65.240859 
3665.000000	65.244960 
3664.000000	65.256333 
3663.000000	65.273308 
3662.000000	65.293312 
3661.000000	65.313434 
3660.000000	65.331554 
3659.000000	65.346455 
3658.000000	65.358138 
3657.000000	65.367364 
3656.000000	65.375161 
3655.000000	65.382242 
3654.000000	65.388536 
3653.000000	65.393352 
3652.000000	65.395307 
3651.000000	65.393161 
3650.000000	65.385866 
3649.000000	65.373134 
3648.000000	65.355372 
3647.000000	65.333724 
3646.000000	65.310072 
3645.000000	65.286779 
3644.000000	65.266442 
3643.000000	65.251374 
3642.000000	65.243220 
3641.000000	65.242934 
3640.000000	65.250015 
3639.000000	65.262937 
3638.000000	65.278792 
3637.000000	65.293979 
3636.000000	65.304732 
3635.000000	65.307760 
3634.000000	65.301108 
3633.000000	65.284562 
3632.000000	65.259671 
3631.000000	65.229797 
3630.000000	65.199232 
3629.000000	65.172433 
3628.000000	65.153193 
3627.000000	65.143895 
3626.000000	65.145516 
3625.000000	65.157246 
3624.000000	65.177154 
3623.000000	65.202093 
3622.000000	65.228366 
3621.000000	65.252256 
3620.000000	65.270137 
3619.000000	65.279293 
3618.000000	65.278124 
3617.000000	65.266633 
3616.000000	65.246295 
3615.000000	65.220141 
3614.000000	65.192055 
3613.000000	65.166401 
3612.000000	65.147352 
3611.000000	65.137958 
3610.000000	65.139722 
3609.000000	65.152335 
3608.000000	65.174007 
3607.000000	65.201711 
3606.000000	65.231847 
3605.000000	65.261006 
3604.000000	65.286469 
3603.000000	65.306544 
3602.000000	65.320634 
3601.000000	65.329170 
3600.000000	65.332937 
3599.000000	65.333056 
3598.000000	65.330266 
3597.000000	65.325140 
3596.000000	65.317440 
3595.000000	65.306687 
3594.000000	65.291881 
3593.000000	65.272450 
3592.000000	65.248417 
3591.000000	65.220761 
3590.000000	65.191483 
3589.000000	65.163445 
3588.000000	65.140032 
3587.000000	65.124273 
3586.000000	65.118408 
3585.000000	65.123176 
3584.000000	65.137934 
3583.000000	65.160799 
3582.000000	65.189027 
3581.000000	65.219664 
3580.000000	65.250110 
3579.000000	65.278530 
3578.000000	65.303802 
3577.000000	65.325427 
3576.000000	65.343093 
3575.000000	65.356326 
3574.000000	65.364241 
3573.000000	65.365982 
3572.000000	65.361070 
3571.000000	65.349650 
3570.000000	65.333127 
3569.000000	65.313816 
3568.000000	65.294981 
3567.000000	65.280055 
3566.000000	65.271973 
3565.000000	65.272593 
3564.000000	65.282440 
3563.000000	65.300536 
3562.000000	65.324759 
3561.000000	65.351963 
3560.000000	65.378880 
3559.000000	65.402126 
3558.000000	65.418863 
3557.000000	65.426778 
3556.000000	65.424370 
3555.000000	65.411162 
3554.000000	65.387606 
3553.000000	65.355491 
3552.000000	65.317773 
3551.000000	65.278410 
3550.000000	65.241813 
3549.000000	65.212130 
3548.000000	65.192365 
3547.000000	65.183711 
3546.000000	65.185427 
3545.000000	65.194916 
3544.000000	65.208506 
3543.000000	65.222096 
3542.000000	65.232324 
3541.000000	65.237092 
3540.000000	65.235948 
3539.000000	65.229773 
3538.000000	65.220379 
3537.000000	65.209960 
3536.000000	65.200281 
3535.000000	65.192079 
3534.000000	65.184998 
3533.000000	65.177893 
3532.000000	65.169119 
3531.000000	65.157198 
3530.000000	65.141391 
3529.000000	65.121746 
3528.000000	65.099525 
3527.000000	65.076756 
3526.000000	65.056228 
3525.000000	65.040922 
3524.000000	65.033626 
3523.000000	65.036368 
3522.000000	65.049862 
3521.000000	65.073394 
3520.000000	65.104937 
3519.000000	65.141320 
3518.000000	65.178585 
3517.000000	65.212583 
3516.000000	65.239667 
3515.000000	65.257120 
3514.000000	65.263199 
3513.000000	65.257215 
3512.000000	65.239572 
3511.000000	65.211606 
3510.000000	65.175271 
3509.000000	65.133333 
3508.000000	65.089082 
3507.000000	65.046143 
3506.000000	65.008234 
3505.000000	64.978790 
3504.000000	64.960813 
3503.000000	64.955973 
3502.000000	64.964413 
3501.000000	64.984726 
3500.000000	65.013861 
3499.000000	65.048027 
3498.000000	65.083050 
3497.000000	65.115523 
3496.000000	65.143203 
3495.000000	65.165352 
3494.000000	65.182423 
3493.000000	65.195870 
3492.000000	65.207314 
3491.000000	65.217852 
3490.000000	65.227532 
3489.000000	65.235471 
3488.000000	65.239977 
3487.000000	65.239429 
3486.000000	65.232825 
3485.000000	65.220499 
3484.000000	65.204119 
3483.000000	65.186548 
3482.000000	65.171384 
3481.000000	65.161967 
3480.000000	65.160703 
3479.000000	65.168333 
3478.000000	65.183854 
3477.000000	65.204858 
3476.000000	65.228033 
3475.000000	65.249919 
3474.000000	65.267825 
3473.000000	65.280127 
3472.000000	65.286993 
3471.000000	65.289783 
3470.000000	65.290713 
3469.000000	65.292024 
3468.000000	65.295433 
3467.000000	65.301632 
3466.000000	65.310144 
3465.000000	65.319204 
3464.000000	65.326690 
3463.000000	65.330672 
3462.000000	65.330028 
3461.000000	65.324926 
3460.000000	65.316843 
3459.000000	65.308570 
3458.000000	65.303301 
3457.000000	65.304183 
3456.000000	65.313196 
3455.000000	65.330648 
3454.000000	65.355324 
3453.000000	65.384173 
3452.000000	65.413451 
3451.000000	65.438985 
3450.000000	65.457391 
3449.000000	65.465998 
3448.000000	65.463399 
3447.000000	65.449213 
3446.000000	65.424203 
3445.000000	65.389895 
3444.000000	65.348577 
3443.000000	65.302991 
3442.000000	65.256142 
3441.000000	65.211391 
3440.000000	65.172100 
3439.000000	65.141510 
3438.000000	65.122175 
3437.000000	65.115594 
3436.000000	65.122151 
3435.000000	65.140700 
3434.000000	65.168952 
3433.000000	65.203714 
3432.000000	65.241336 
3431.000000	65.278100 
3430.000000	65.310883 
3429.000000	65.336990 
3428.000000	65.354752 
3427.000000	65.363168 
3426.000000	65.362429 
3425.000000	65.353846 
3424.000000	65.339446 
3423.000000	65.321898 
3422.000000	65.303778 
3421.000000	65.287518 
3420.000000	65.274572 
3419.000000	65.265321 
3418.000000	65.259170 
3417.000000	65.255045 
3416.000000	65.251636 
3415.000000	65.248036 
3414.000000	65.243864 
3413.000000	65.239405 
3412.000000	65.235590 
3411.000000	65.233540 
3410.000000	65.234136 
3409.000000	65.237760 
3408.000000	65.244293 
3407.000000	65.253233 
3406.000000	65.263891 
3405.000000	65.275311 
3404.000000	65.287041 
3403.000000	65.298199 
3402.000000	65.307903 
3401.000000	65.314221 
3400.000000	65.315008 
3399.000000	65.307283 
3398.000000	65.288400 
3397.000000	65.256404 
3396.000000	65.210986 
3395.000000	65.153861 
3394.000000	65.088868 
3393.000000	65.021419 
3392.000000	64.957737 
3391.000000	64.903712 
3390.000000	64.863848 
3389.000000	64.840602 
3388.000000	64.834046 
3387.000000	64.842271 
3386.000000	64.861917 
3385.000000	64.888834 
3384.000000	64.919233 
3383.000000	64.949846 
3382.000000	64.978599 
3381.000000	65.004038 
3380.000000	65.025687 
3379.000000	65.043354 
3378.000000	65.057539 
3377.000000	65.068888 
3376.000000	65.078425 
3375.000000	65.087604 
3374.000000	65.098166 
3373.000000	65.111994 
3372.000000	65.130424 
3371.000000	65.153956 
3370.000000	65.181612 
3369.000000	65.211367 
3368.000000	65.240168 
3367.000000	65.264725 
3366.000000	65.282225 
3365.000000	65.291261 
3364.000000	65.291810 
3363.000000	65.285444 
3362.000000	65.274882 
3361.000000	65.263509 
3360.000000	65.254402 
3359.000000	65.249514 
3358.000000	65.249729 
3357.000000	65.254473 
3356.000000	65.262341 
3355.000000	65.271067 
3354.000000	65.278530 
3353.000000	65.283036 
3352.000000	65.283632 
3351.000000	65.280270 
3350.000000	65.273475 
3349.000000	65.264368 
3348.000000	65.254235 
3347.000000	65.244269 
3346.000000	65.235447 
3345.000000	65.228152 
3344.000000	65.222311 
3343.000000	65.217232 
3342.000000	65.212059 
3341.000000	65.205836 
3340.000000	65.197896 
3339.000000	65.187859 
3338.000000	65.175819 
3337.000000	65.162324 
3336.000000	65.148401 
3335.000000	65.135121 
3334.000000	65.123414 
3333.000000	65.114259 
3332.000000	65.108561 
3331.000000	65.106940 
3330.000000	65.109848 
3329.000000	65.117335 
3328.000000	65.129089 
3327.000000	65.144371 
3326.000000	65.162086 
3325.000000	65.180659 
3324.000000	65.198588 
3323.000000	65.214467 
3322.000000	65.227246 
3321.000000	65.236592 
3320.000000	65.242910 
3319.000000	65.247416 
3318.000000	65.251469 
3317.000000	65.256524 
3316.000000	65.263319 
3315.000000	65.272021 
3314.000000	65.281748 
3313.000000	65.290904 
3312.000000	65.297341 
3311.000000	65.298938 
3310.000000	65.294218 
3309.000000	65.282559 
3308.000000	65.264463 
3307.000000	65.241718 
3306.000000	65.217089 
3305.000000	65.193724 
3304.000000	65.174889 
3303.000000	65.163159 
3302.000000	65.159726 
3301.000000	65.164327 
3300.000000	65.175271 
3299.000000	65.189933 
3298.000000	65.205192 
3297.000000	65.218257 
3296.000000	65.227246 
3295.000000	65.231347 
3294.000000	65.231060 
3293.000000	65.227460 
3292.000000	65.221929 
3291.000000	65.215659 
3290.000000	65.209650 
3289.000000	65.203952 
3288.000000	65.198063 
3287.000000	65.190911 
3286.000000	65.181589 
3285.000000	65.169286 
3284.000000	65.153861 
3283.000000	65.135979 
3282.000000	65.117311 
3281.000000	65.100169 
3280.000000	65.087056 
3279.000000	65.080237 
3278.000000	65.081214 
3277.000000	65.090417 
3276.000000	65.107226 
3275.000000	65.129947 
3274.000000	65.156126 
3273.000000	65.183377 
3272.000000	65.209531 
3271.000000	65.233087 
3270.000000	65.252947 
3269.000000	65.268778 
3268.000000	65.280199 
3267.000000	65.286922 
3266.000000	65.287995 
3265.000000	65.282440 
3264.000000	65.268802 
3263.000000	65.246200 
3262.000000	65.214109 
3261.000000	65.173578 
3260.000000	65.126633 
3259.000000	65.076494 
3258.000000	65.026950 
3257.000000	64.982032 
3256.000000	64.945101 
3255.000000	64.918446 
3254.000000	64.903092 
3253.000000	64.898800 
3252.000000	64.904618 
3251.000000	64.919352 
3250.000000	64.941620 
3249.000000	64.970159 
3248.000000	65.003538 
3247.000000	65.040135 
3246.000000	65.077686 
3245.000000	65.113687 
3244.000000	65.145421 
3243.000000	65.170621 
3242.000000	65.187788 
3241.000000	65.196561 
3240.000000	65.197968 
3239.000000	65.193963 
3238.000000	65.187215 
3237.000000	65.180373 
3236.000000	65.175533 
3235.000000	65.173888 
3234.000000	65.175938 
3233.000000	65.181279 
3232.000000	65.189099 
3231.000000	65.198373 
3230.000000	65.208363 
3229.000000	65.217995 
3228.000000	65.226030 
3227.000000	65.231013 
3226.000000	65.231466 
3225.000000	65.226125 
3224.000000	65.214371 
3223.000000	65.196943 
3222.000000	65.175557 
3221.000000	65.152955 
3220.000000	65.132141 
3219.000000	65.115714 
3218.000000	65.105366 
3217.000000	65.101408 
3216.000000	65.103006 
3215.000000	65.108036 
3214.000000	65.114164 
3213.000000	65.119457 
3212.000000	65.123057 
3211.000000	65.125060 
3210.000000	65.126609 
3209.000000	65.129542 
3208.000000	65.135717 
3207.000000	65.146183 
3206.000000	65.160965 
3205.000000	65.178894 
3204.000000	65.197968 
3203.000000	65.215778 
3202.000000	65.229940 
3201.000000	65.238833 
3200.000000	65.241670 
3199.000000	65.238809 
3198.000000	65.231704 
3197.000000	65.222573 
3196.000000	65.214061 
3195.000000	65.208482 
3194.000000	65.207481 
3193.000000	65.211510 
3192.000000	65.220069 
3191.000000	65.231704 
3190.000000	65.244436 
3189.000000	65.256190 
3188.000000	65.265345 
3187.000000	65.270853 
3186.000000	65.272355 
3185.000000	65.269923 
3184.000000	65.264153 
3183.000000	65.255713 
3182.000000	65.245294 
3181.000000	65.233373 
3180.000000	65.220499 
3179.000000	65.207052 
3178.000000	65.193367 
3177.000000	65.179824 
3176.000000	65.166831 
3175.000000	65.154910 
3174.000000	65.144586 
3173.000000	65.136384 
3172.000000	65.130734 
3171.000000	65.128374 
3170.000000	65.130019 
3169.000000	65.136241 
3168.000000	65.147352 
3167.000000	65.163087 
3166.000000	65.182638 
3165.000000	65.204262 
3164.000000	65.225863 
3163.000000	65.244960 
3162.000000	65.259504 
3161.000000	65.268063 
3160.000000	65.270495 
3159.000000	65.267753 
3158.000000	65.261793 
3157.000000	65.255236 
3156.000000	65.250611 
3155.000000	65.249919 
3154.000000	65.254187 
3153.000000	65.263509 
3152.000000	65.276622 
3151.000000	65.291476 
3150.000000	65.305566 
3149.000000	65.316748 
3148.000000	65.323162 
3147.000000	65.323686 
3146.000000	65.317869 
3145.000000	65.305900 
3144.000000	65.288376 
3143.000000	65.266203 
3142.000000	65.240478 
3141.000000	65.212607 
3140.000000	65.184473 
3139.000000	65.158152 
3138.000000	65.136051 
3137.000000	65.120148 
3136.000000	65.111970 
3135.000000	65.112042 
3134.000000	65.119218 
3133.000000	65.131568 
3132.000000	65.146303 
3131.000000	65.160918 
3130.000000	65.173172 
3129.000000	65.182495 
3128.000000	65.189552 
3127.000000	65.196442 
3126.000000	65.205740 
3125.000000	65.219831 
3124.000000	65.239930 
3123.000000	65.265822 
3122.000000	65.295386 
3121.000000	65.325284 
3120.000000	65.351653 
3119.000000	65.370965 
3118.000000	65.380835 
3117.000000	65.380430 
3116.000000	65.370702 
3115.000000	65.353798 
3114.000000	65.332794 
3113.000000	65.310907 
3112.000000	65.290927 
3111.000000	65.274953 
3110.000000	65.264129 
3109.000000	65.258479 
3108.000000	65.257310 
3107.000000	65.259432 
3106.000000	65.263509 
3105.000000	65.268135 
3104.000000	65.272402 
3103.000000	65.275526 
3102.000000	65.277290 
3101.000000	65.277743 
3100.000000	65.277123 
3099.000000	65.275645 
3098.000000	65.273404 
3097.000000	65.270543 
3096.000000	65.267014 
3095.000000	65.262675 
3094.000000	65.257406 
3093.000000	65.251255 
3092.000000	65.244579 
3091.000000	65.237903 
3090.000000	65.232038 
3089.000000	65.227985 
3088.000000	65.226531 
3087.000000	65.227985 
3086.000000	65.232157 
3085.000000	65.238308 
3084.000000	65.245270 
3083.000000	65.251541 
3082.000000	65.255689 
3081.000000	65.256547 
3080.000000	65.253782 
3079.000000	65.247607 
3078.000000	65.238833 
3077.000000	65.228438 
3076.000000	65.217399 
3075.000000	65.206408 
3074.000000	65.195703 
3073.000000	65.185284 
3072.000000	65.174865 
3071.000000	65.164589 
3070.000000	65.155148 
3069.000000	65.147638 
3068.000000	65.143585 
3067.000000	65.144085 
3066.000000	65.149664 
3065.000000	65.159511 
3064.000000	65.171623 
3063.000000	65.182900 
3062.000000	65.189838 
3061.000000	65.189576 
3060.000000	65.180850 
3059.000000	65.164303 
3058.000000	65.142750 
3057.000000	65.120458 
3056.000000	65.102386 
3055.000000	65.092730 
3054.000000	65.094113 
3053.000000	65.106701 
3052.000000	65.128326 
3051.000000	65.155005 
3050.000000	65.181851 
3049.000000	65.204358 
3048.000000	65.219283 
3047.000000	65.225052 
3046.000000	65.221953 
3045.000000	65.211606 
3044.000000	65.196323 
3043.000000	65.178251 
3042.000000	65.159153 
3041.000000	65.140032 
3040.000000	65.121722 
3039.000000	65.105009 
3038.000000	65.091037 
3037.000000	65.081667 
3036.000000	65.078830 
3035.000000	65.084266 
3034.000000	65.098810 
3033.000000	65.121960 
3032.000000	65.151548 
3031.000000	65.184187 
3030.000000	65.215706 
3029.000000	65.242290 
3028.000000	65.261125 
3027.000000	65.271043 
3026.000000	65.272879 
3025.000000	65.268874 
3024.000000	65.262317 
3023.000000	65.256404 
3022.000000	65.253686 
3021.000000	65.255236 
3020.000000	65.260767 
3019.000000	65.268611 
3018.000000	65.276503 
3017.000000	65.282177 
3016.000000	65.284013 
3015.000000	65.281391 
3014.000000	65.274786 
3013.000000	65.265536 
3012.000000	65.255451 
3011.000000	65.246367 
3010.000000	65.239739 
3009.000000	65.236496 
3008.000000	65.236878 
3007.000000	65.240740 
3006.000000	65.247368 
3005.000000	65.255975 
3004.000000	65.265607 
3003.000000	65.275239 
3002.000000	65.283632 
3001.000000	65.289616 
3000.000000	65.291953 
2999.000000	65.289402 
2998.000000	65.281057 
2997.000000	65.266895 
2996.000000	65.247678 
2995.000000	65.224933 
2994.000000	65.200924 
2993.000000	65.178251 
2992.000000	65.159273 
2991.000000	65.145730 
2990.000000	65.138387 
2989.000000	65.136837 
2988.000000	65.139746 
2987.000000	65.144896 
2986.000000	65.149807 
2985.000000	65.152311 
2984.000000	65.150809 
2983.000000	65.144610 
2982.000000	65.134119 
2981.000000	65.120720 
2980.000000	65.106463 
2979.000000	65.093493 
2978.000000	65.083742 
2977.000000	65.078401 
2976.000000	65.077805 
2975.000000	65.081238 
2974.000000	65.087127 
2973.000000	65.093493 
2972.000000	65.098381 
2971.000000	65.100598 
2970.000000	65.099453 
2969.000000	65.095424 
2968.000000	65.089678 
2967.000000	65.083813 
2966.000000	65.079236 
2965.000000	65.076804 
2964.000000	65.076351 
2963.000000	65.077018 
2962.000000	65.077280 
2961.000000	65.075612 
2960.000000	65.071082 
2959.000000	65.063476 
2958.000000	65.053629 
2957.000000	65.043139 
2956.000000	65.033936 
2955.000000	65.027880 
2954.000000	65.026116 
2953.000000	65.028762 
2952.000000	65.035152 
2951.000000	65.043807 
2950.000000	65.053319 
2949.000000	65.062689 
2948.000000	65.072035 
2947.000000	65.082621 
2946.000000	65.096521 
2945.000000	65.116143 
2944.000000	65.142846 
2943.000000	65.176606 
2942.000000	65.215182 
2941.000000	65.254402 
2940.000000	65.288567 
2939.000000	65.311908 
2938.000000	65.319538 
2937.000000	65.309023 
2936.000000	65.280675 
2935.000000	65.237617 
2934.000000	65.185070 
2933.000000	65.129423 
2932.000000	65.076661 
2931.000000	65.031170 
2930.000000	64.995503 
2929.000000	64.970088 
2928.000000	64.954018 
2927.000000	64.945769 
2926.000000	64.944052 
2925.000000	64.947915 
2924.000000	64.956688 
2923.000000	64.969801 
2922.000000	64.985990 
2921.000000	65.003490 
2920.000000	65.019869 
2919.000000	65.032601 
2918.000000	65.039467 
2917.000000	65.039491 
2916.000000	65.032911 
2915.000000	65.021419 
2914.000000	65.007686 
2913.000000	64.994883 
2912.000000	64.985847 
2911.000000	64.982581 
2910.000000	64.985847 
2909.000000	64.995169 
2908.000000	65.008950 
2907.000000	65.024924 
2906.000000	65.040707 
2905.000000	65.053892 
2904.000000	65.062451 
2903.000000	65.065121 
2902.000000	65.061569 
2901.000000	65.052413 
2900.000000	65.039205 
2899.000000	65.024590 
2898.000000	65.011692 
2897.000000	65.003371 
2896.000000	65.001535 
2895.000000	65.006923 
2894.000000	65.018582 
2893.000000	65.034341 
2892.000000	65.051150 
2891.000000	65.065908 
2890.000000	65.076255 
2889.000000	65.080976 
2888.000000	65.080642 
2887.000000	65.076851 
2886.000000	65.072345 
2885.000000	65.069913 
2884.000000	65.071940 
2883.000000	65.079665 
2882.000000	65.093064 
2881.000000	65.110993 
2880.000000	65.131425 
2879.000000	65.151977 
2878.000000	65.170335 
2877.000000	65.184593 
2876.000000	65.193486 
2875.000000	65.196490 
2874.000000	65.193963 
2873.000000	65.187001 
2872.000000	65.177297 
2871.000000	65.166807 
2870.000000	65.157437 
2869.000000	65.150713 
2868.000000	65.147662 
2867.000000	65.148520 
2866.000000	65.152859 
2865.000000	65.159726 
2864.000000	65.168070 
2863.000000	65.176749 
2862.000000	65.184974 
2861.000000	65.192246 
2860.000000	65.198397 
2859.000000	65.203213 
2858.000000	65.206360 
2857.000000	65.207219 
2856.000000	65.204930 
2855.000000	65.198826 
2854.000000	65.188527 
2853.000000	65.174603 
2852.000000	65.158486 
2851.000000	65.142369 
2850.000000	65.128684 
2849.000000	65.119600 
2848.000000	65.116357 
2847.000000	65.119290 
2846.000000	65.127468 
2845.000000	65.139102 
2844.000000	65.151953 
2843.000000	65.163993 
2842.000000	65.173864 
2841.000000	65.181040 
2840.000000	65.186095 
2839.000000	65.190029 
2838.000000	65.194368 
2837.000000	65.200209 
2836.000000	65.208315 
2835.000000	65.218734 
2834.000000	65.230965 
2833.000000	65.244174 
2832.000000	65.257501 
2831.000000	65.270423 
2830.000000	65.282654 
2829.000000	65.294408 
2828.000000	65.305995 
2827.000000	65.317726 
2826.000000	65.329504 
2825.000000	65.340948 
2824.000000	65.350985 
2823.000000	65.358257 
2822.000000	65.361309 
2821.000000	65.359091 
2820.000000	65.351176 
2819.000000	65.338063 
2818.000000	65.321302 
2817.000000	65.303039 
2816.000000	65.285825 
2815.000000	65.272068 
2814.000000	65.263581 
2813.000000	65.261411 
2812.000000	65.265655 
2811.000000	65.275645 
2810.000000	65.290093 
2809.000000	65.307283 
2808.000000	65.325474 
2807.000000	65.343189 
2806.000000	65.359210 
2805.000000	65.372729 
2804.000000	65.383386 
2803.000000	65.391230 
2802.000000	65.396475 
2801.000000	65.399622 
2800.000000	65.401411 
2799.000000	65.402579 
2798.000000	65.403604 
2797.000000	65.404653 
2796.000000	65.405631 
2795.000000	65.405988 
2794.000000	65.404987 
2793.000000	65.401959 
2792.000000	65.396428 
2791.000000	65.388393 
2790.000000	65.378284 
2789.000000	65.366816 
2788.000000	65.354847 
2787.000000	65.343165 
2786.000000	65.332627 
2785.000000	65.323853 
2784.000000	65.317535 
2783.000000	65.314340 
2782.000000	65.314888 
2781.000000	65.319585 
2780.000000	65.328288 
2779.000000	65.340256 
2778.000000	65.353894 
2777.000000	65.366959 
2776.000000	65.376925 
2775.000000	65.381121 
2774.000000	65.377569 
2773.000000	65.365362 
2772.000000	65.345096 
2771.000000	65.318727 
2770.000000	65.289354 
2769.000000	65.260601 
2768.000000	65.236067 
2767.000000	65.218520 
2766.000000	65.209698 
2765.000000	65.210151 
2764.000000	65.219235 
2763.000000	65.235280 
2762.000000	65.256047 
2761.000000	65.278840 
2760.000000	65.300941 
2759.000000	65.319919 
2758.000000	65.333580 
2757.000000	65.340352 
2756.000000	65.339255 
2755.000000	65.330219 
2754.000000	65.313911 
2753.000000	65.291857 
2752.000000	65.266442 
2751.000000	65.240526 
2750.000000	65.217351 
2749.000000	65.199971 
2748.000000	65.190935 
2747.000000	65.191459 
2746.000000	65.201497 
2745.000000	65.219354 
2744.000000	65.242075 
2743.000000	65.266036 
2742.000000	65.287399 
2741.000000	65.302968 
2740.000000	65.310740 
2739.000000	65.310406 
2738.000000	65.303325 
2737.000000	65.292191 
2736.000000	65.280532 
2735.000000	65.271806 
2734.000000	65.268397 
2733.000000	65.271592 
2732.000000	65.280771 
2731.000000	65.294027 
2730.000000	65.308237 
2729.000000	65.319895 
2728.000000	65.325808 
2727.000000	65.323734 
2726.000000	65.313100 
2725.000000	65.294528 
2724.000000	65.270423 
2723.000000	65.244269 
2722.000000	65.220451 
2721.000000	65.202903 
2720.000000	65.194845 
2719.000000	65.198040 
2718.000000	65.212392 
2717.000000	65.236186 
2716.000000	65.266180 
2715.000000	65.298461 
2714.000000	65.328955 
2713.000000	65.354371 
2712.000000	65.372800 
2711.000000	65.384006 
2710.000000	65.389132 
2709.000000	65.390467 
2708.000000	65.390825 
2707.000000	65.392684 
2706.000000	65.397715 
2705.000000	65.406322 
2704.000000	65.417814 
2703.000000	65.430068 
2702.000000	65.440750 
2701.000000	65.447211 
2700.000000	65.447449 
2699.000000	65.440177 
2698.000000	65.425205 
2697.000000	65.403461 
2696.000000	65.376782 
2695.000000	65.347695 
2694.000000	65.318918 
2693.000000	65.293049 
2692.000000	65.272188 
2691.000000	65.257763 
2690.000000	65.250182 
2689.000000	65.249085 
2688.000000	65.253400 
2687.000000	65.261316 
2686.000000	65.270996 
2685.000000	65.280723 
2684.000000	65.289378 
2683.000000	65.296268 
2682.000000	65.301346 
2681.000000	65.305089 
2680.000000	65.308094 
2679.000000	65.310811 
2678.000000	65.313506 
2677.000000	65.315961 
2676.000000	65.317726 
2675.000000	65.318202 
2674.000000	65.316939 
2673.000000	65.313959 
2672.000000	65.309715 
2671.000000	65.305018 
2670.000000	65.300846 
2669.000000	65.298151 
2668.000000	65.297341 
2667.000000	65.298318 
2666.000000	65.300273 
2665.000000	65.301799 
2664.000000	65.301442 
2663.000000	65.298199 
2662.000000	65.291571 
2661.000000	65.281915 
2660.000000	65.270495 
2659.000000	65.259146 
2658.000000	65.249705 
2657.000000	65.243554 
2656.000000	65.241241 
2655.000000	65.242242 
2654.000000	65.245223 
2653.000000	65.248441 
2652.000000	65.249896 
2651.000000	65.248084 
2650.000000	65.242147 
2649.000000	65.232253 
2648.000000	65.219187 
2647.000000	65.204381 
2646.000000	65.189528 
2645.000000	65.176367 
2644.000000	65.166139 
2643.000000	65.159869 
2642.000000	65.157985 
2641.000000	65.160608 
2640.000000	65.167498 
2639.000000	65.178346 
2638.000000	65.192699 
2637.000000	65.210151 
2636.000000	65.230154 
2635.000000	65.252232 
2634.000000	65.275669 
2633.000000	65.299606 
2632.000000	65.322899 
2631.000000	65.344285 
2630.000000	65.362334 
2629.000000	65.375638 
2628.000000	65.383172 
2627.000000	65.384101 
2626.000000	65.378189 
2625.000000	65.365958 
2624.000000	65.348720 
2623.000000	65.328073 
2622.000000	65.306043 
2621.000000	65.284562 
2620.000000	65.265393 
2619.000000	65.249848 
2618.000000	65.238571 
2617.000000	65.231609 
2616.000000	65.228390 
2615.000000	65.228056 
2614.000000	65.229749 
2613.000000	65.232682 
2612.000000	65.236520 
2611.000000	65.241241 
2610.000000	65.247249 
2609.000000	65.254807 
2608.000000	65.264105 
2607.000000	65.275120 
2606.000000	65.287303 
2605.000000	65.299820 
2604.000000	65.311717 
2603.000000	65.322256 
2602.000000	65.331196 
2601.000000	65.338659 
2600.000000	65.345311 
2599.000000	65.351772 
2598.000000	65.358710 
2597.000000	65.366125 
2596.000000	65.373468 
2595.000000	65.379428 
2594.000000	65.382456 
2593.000000	65.381050 
2592.000000	65.374302 
2591.000000	65.362191 
2590.000000	65.345978 
2589.000000	65.327572 
2588.000000	65.309143 
2587.000000	65.292763 
2586.000000	65.279817 
2585.000000	65.270853 
2584.000000	65.265512 
2583.000000	65.262818 
2582.000000	65.261673 
2581.000000	65.261149 
2580.000000	65.261054 
2579.000000	65.261554 
2578.000000	65.263271 
2577.000000	65.266895 
2576.000000	65.273022 
2575.000000	65.281486 
2574.000000	65.291571 
2573.000000	65.302038 
2572.000000	65.311264 
2571.000000	65.317749 
2570.000000	65.320301 
2569.000000	65.318417 
2568.000000	65.312361 
2567.000000	65.302991 
2566.000000	65.291714 
2565.000000	65.280246 
2564.000000	65.270304 
2563.000000	65.263414 
2562.000000	65.260720 
2561.000000	65.262699 
2560.000000	65.269374 
2559.000000	65.280175 
2558.000000	65.294051 
2557.000000	65.309572 
2556.000000	65.325140 
2555.000000	65.339469 
2554.000000	65.351390 
2553.000000	65.359926 
2552.000000	65.364789 
2551.000000	65.366101 
2550.000000	65.364336 
2549.000000	65.360116 
2548.000000	65.354251 
2547.000000	65.347409 
2546.000000	65.340232 
2545.000000	65.333175 
2544.000000	65.326309 
2543.000000	65.319585 
2542.000000	65.312981 
2541.000000	65.306258 
2540.000000	65.299081 
2539.000000	65.291261 
2538.000000	65.282630 
2537.000000	65.273308 
2536.000000	65.263438 
2535.000000	65.253520 
2534.000000	65.244150 
2533.000000	65.236210 
2532.000000	65.230536 
2531.000000	65.228176 
2530.000000	65.229725 
2529.000000	65.235829 
2528.000000	65.246534 
2527.000000	65.261793 
2526.000000	65.281343 
2525.000000	65.304708 
2524.000000	65.331029 
2523.000000	65.358972 
2522.000000	65.386772 
2521.000000	65.412354 
2520.000000	65.433239 
2519.000000	65.446972 
2518.000000	65.451550 
2517.000000	65.445828 
2516.000000	65.429949 
2515.000000	65.405368 
2514.000000	65.374708 
2513.000000	65.341567 
2512.000000	65.309882 
2511.000000	65.283203 
2510.000000	65.264344 
2509.000000	65.254831 
2508.000000	65.254902 
2507.000000	65.263652 
2506.000000	65.279078 
2505.000000	65.298724 
2504.000000	65.319919 
2503.000000	65.339994 
2502.000000	65.356802 
2501.000000	65.368533 
2500.000000	65.374255 
2499.000000	65.373802 
2498.000000	65.367889 
2497.000000	65.357851 
2496.000000	65.345525 
2495.000000	65.332865 
2494.000000	65.321612 
2493.000000	65.313029 
2492.000000	65.308046 
2491.000000	65.306949 
2490.000000	65.309691 
2489.000000	65.315747 
2488.000000	65.324330 
2487.000000	65.334367 
2486.000000	65.344834 
2485.000000	65.354585 
2484.000000	65.362548 
2483.000000	65.367889 
2482.000000	65.370059 
2481.000000	65.368795 
2480.000000	65.364146 
2479.000000	65.356516 
2478.000000	65.346550 
2477.000000	65.335106 
2476.000000	65.323066 
2475.000000	65.311217 
2474.000000	65.300250 
2473.000000	65.291047 
2472.000000	65.284371 
2471.000000	65.280890 
2470.000000	65.281105 
2469.000000	65.284991 
2468.000000	65.292024 
2467.000000	65.301036 
2466.000000	65.310502 
2465.000000	65.318870 
2464.000000	65.325140 
2463.000000	65.328931 
2462.000000	65.330672 
2461.000000	65.331315 
2460.000000	65.332293 
2459.000000	65.334630 
2458.000000	65.338850 
2457.000000	65.344929 
2456.000000	65.352129 
2455.000000	65.359234 
2454.000000	65.364980 
2453.000000	65.368509 
2452.000000	65.369367 
2451.000000	65.367770 
2450.000000	65.364217 
2449.000000	65.359473 
2448.000000	65.354228 
2447.000000	65.348911 
2446.000000	65.343952 
2445.000000	65.339660 
2444.000000	65.336537 
2443.000000	65.335369 
2442.000000	65.336894 
2441.000000	65.341758 
2440.000000	65.350317 
2439.000000	65.362334 
2438.000000	65.376710 
2437.000000	65.391707 
2436.000000	65.405249 
2435.000000	65.415120 
2434.000000	65.419578 
2433.000000	65.417623 
2432.000000	65.409088 
2431.000000	65.394878 
2430.000000	65.376734 
2429.000000	65.356993 
2428.000000	65.338158 
2427.000000	65.322637 
2426.000000	65.312433 
2425.000000	65.308761 
2424.000000	65.312075 
2423.000000	65.321588 
2422.000000	65.335726 
2421.000000	65.352010 
2420.000000	65.367436 
2419.000000	65.379118 
2418.000000	65.384864 
2417.000000	65.383672 
2416.000000	65.375900 
2415.000000	65.363287 
2414.000000	65.348529 
2413.000000	65.334796 
2412.000000	65.324807 
2411.000000	65.320372 
2410.000000	65.321850 
2409.000000	65.328359 
2408.000000	65.337896 
2407.000000	65.347981 
2406.000000	65.356230 
2405.000000	65.360951 
2404.000000	65.361595 
2403.000000	65.358376 
2402.000000	65.352392 
2401.000000	65.345001 
2400.000000	65.337491 
2399.000000	65.330576 
2398.000000	65.324378 
2397.000000	65.318703 
2396.000000	65.312886 
2395.000000	65.306472 
2394.000000	65.299010 
2393.000000	65.290546 
2392.000000	65.281319 
2391.000000	65.271902 
2390.000000	65.262770 
2389.000000	65.254163 
2388.000000	65.246248 
2387.000000	65.239143 
2386.000000	65.232872 
2385.000000	65.227603 
2384.000000	65.223598 
2383.000000	65.221381 
2382.000000	65.221452 
2381.000000	65.224575 
2380.000000	65.231108 
2379.000000	65.241146 
2378.000000	65.254569 
2377.000000	65.270757 
2376.000000	65.288853 
2375.000000	65.307521 
2374.000000	65.325140 
2373.000000	65.340065 
2372.000000	65.350794 
2371.000000	65.356111 
2370.000000	65.355324 
2369.000000	65.348315 
2368.000000	65.335559 
2367.000000	65.318083 
2366.000000	65.297484 
2365.000000	65.275669 
2364.000000	65.254449 
2363.000000	65.235495 
2362.000000	65.219998 
2361.000000	65.208768 
2360.000000	65.202140 
2359.000000	65.199947 
2358.000000	65.201902 
2357.000000	65.207648 
2356.000000	65.216851 
2355.000000	65.229272 
2354.000000	65.244483 
2353.000000	65.261793 
2352.000000	65.279889 
2351.000000	65.297055 
2350.000000	65.311074 
2349.000000	65.319585 
2348.000000	65.320658 
2347.000000	65.313124 
2346.000000	65.297389 
2345.000000	65.275311 
2344.000000	65.250277 
2343.000000	65.226674 
2342.000000	65.208792 
2341.000000	65.200328 
2340.000000	65.203213 
2339.000000	65.217399 
2338.000000	65.240740 
2337.000000	65.269613 
2336.000000	65.299510 
2335.000000	65.326118 
2334.000000	65.345907 
2333.000000	65.356874 
2332.000000	65.358734 
2331.000000	65.352702 
2330.000000	65.341091 
2329.000000	65.326666 
2328.000000	65.312266 
2327.000000	65.299963 
2326.000000	65.291142 
2325.000000	65.285944 
2324.000000	65.284037 
2323.000000	65.284514 
2322.000000	65.286135 
2321.000000	65.287733 
2320.000000	65.288352 
2319.000000	65.287780 
2318.000000	65.286064 
2317.000000	65.283679 
2316.000000	65.281319 
2315.000000	65.279579 
2314.000000	65.278673 
2313.000000	65.278530 
2312.000000	65.278673 
2311.000000	65.278530 
2310.000000	65.277671 
2309.000000	65.275955 
2308.000000	65.273737 
2307.000000	65.271735 
2306.000000	65.271067 
2305.000000	65.272545 
2304.000000	65.276885 
2303.000000	65.284323 
2302.000000	65.294861 
2301.000000	65.308189 
2300.000000	65.324020 
2299.000000	65.342068 
2298.000000	65.362262 
2297.000000	65.384721 
2296.000000	65.409612 
2295.000000	65.436530 
2294.000000	65.464782 
2293.000000	65.493035 
2292.000000	65.519499 
2291.000000	65.542531 
2290.000000	65.560364 
2289.000000	65.572023 
2288.000000	65.576863 
2287.000000	65.574884 
2286.000000	65.566539 
2285.000000	65.552449 
2284.000000	65.533399 
2283.000000	65.510153 
2282.000000	65.483546 
2281.000000	65.454578 
2280.000000	65.424537 
2279.000000	65.394926 
2278.000000	65.367317 
2277.000000	65.343379 
2276.000000	65.324640 
2275.000000	65.312266 
2274.000000	65.306901 
2273.000000	65.308570 
2272.000000	65.316843 
2271.000000	65.330696 
2270.000000	65.348577 
2269.000000	65.368437 
2268.000000	65.388011 
2267.000000	65.404868 
2266.000000	65.416502 
2265.000000	65.421104 
2264.000000	65.417718 
2263.000000	65.406703 
2262.000000	65.389609 
2261.000000	65.369272 
2260.000000	65.349221 
2259.000000	65.333151 
2258.000000	65.324044 
2257.000000	65.323686 
2256.000000	65.332317 
2255.000000	65.348577 
2254.000000	65.369963 
2253.000000	65.393233 
2252.000000	65.415048 
2251.000000	65.432858 
2250.000000	65.445041 
2249.000000	65.451145 
2248.000000	65.451526 
2247.000000	65.447235 
2246.000000	65.439653 
2245.000000	65.429949 
2244.000000	65.418982 
2243.000000	65.407466 
2242.000000	65.395760 
2241.000000	65.384101 
2240.000000	65.372681 
2239.000000	65.361785 
2238.000000	65.351605 
2237.000000	65.342473 
2236.000000	65.334582 
2235.000000	65.327882 
2234.000000	65.322279 
2233.000000	65.317583 
2232.000000	65.313601 
2231.000000	65.310263 
2230.000000	65.307664 
2229.000000	65.306067 
2228.000000	65.305900 
2227.000000	65.307736 
2226.000000	65.312075 
2225.000000	65.319299 
2224.000000	65.329456 
2223.000000	65.342235 
2222.000000	65.356969 
2221.000000	65.372467 
2220.000000	65.387177 
2219.000000	65.399432 
2218.000000	65.407729 
2217.000000	65.410900 
2216.000000	65.408658 
2215.000000	65.401506 
2214.000000	65.390753 
2213.000000	65.378355 
2212.000000	65.366697 
2211.000000	65.357780 
2210.000000	65.352892 
2209.000000	65.352320 
2208.000000	65.355229 
2207.000000	65.359902 
2206.000000	65.364122 
2205.000000	65.365934 
2204.000000	65.364027 
2203.000000	65.358161 
2202.000000	65.349125 
2201.000000	65.338611 
2200.000000	65.328621 
2199.000000	65.320992 
2198.000000	65.316748 
2197.000000	65.316057 
2196.000000	65.318274 
2195.000000	65.322160 
2194.000000	65.326738 
2193.000000	65.331363 
2192.000000	65.336155 
2191.000000	65.341973 
2190.000000	65.349936 
2189.000000	65.360975 
2188.000000	65.375280 
2187.000000	65.391826 
2186.000000	65.408515 
2185.000000	65.422415 
2184.000000	65.430712 
2183.000000	65.431118 
2182.000000	65.422773 
2181.000000	65.406656 
2180.000000	65.385365 
2179.000000	65.362572 
2178.000000	65.342354 
2177.000000	65.328168 
2176.000000	65.322446 
2175.000000	65.325999 
2174.000000	65.337967 
2173.000000	65.356111 
2172.000000	65.377378 
2171.000000	65.398311 
2170.000000	65.415859 
2169.000000	65.427613 
2168.000000	65.432000 
2167.000000	65.428805 
2166.000000	65.418624 
2165.000000	65.403151 
2164.000000	65.384602 
2163.000000	65.365600 
2162.000000	65.348720 
2161.000000	65.336132 
2160.000000	65.329551 
2159.000000	65.329694 
2158.000000	65.336394 
2157.000000	65.348696 
2156.000000	65.365076 
2155.000000	65.383529 
2154.000000	65.402102 
2153.000000	65.418744 
2152.000000	65.431857 
2151.000000	65.440249 
2150.000000	65.443062 
2149.000000	65.440201 
2148.000000	65.432167 
2147.000000	65.420150 
2146.000000	65.405845 
2145.000000	65.391445 
2144.000000	65.379142 
2143.000000	65.370988 
2142.000000	65.368461 
2141.000000	65.372204 
2140.000000	65.381956 
2139.000000	65.396642 
2138.000000	65.414333 
2137.000000	65.432691 
2136.000000	65.449357 
2135.000000	65.462255 
2134.000000	65.470075 
2133.000000	65.472173 
2132.000000	65.468883 
2131.000000	65.461230 
2130.000000	65.450906 
2129.000000	65.439867 
2128.000000	65.430092 
2127.000000	65.423202 
2126.000000	65.420007 
2125.000000	65.420460 
2124.000000	65.423488 
2123.000000	65.427255 
2122.000000	65.429449 
2121.000000	65.427827 
2120.000000	65.420746 
2119.000000	65.407538 
2118.000000	65.388774 
2117.000000	65.366268 
2116.000000	65.342783 
2115.000000	65.321421 
2114.000000	65.305137 
2113.000000	65.296268 
2112.000000	65.295910 
2111.000000	65.303802 
2110.000000	65.318608 
2109.000000	65.338015 
2108.000000	65.359258 
2107.000000	65.379500 
2106.000000	65.396499 
2105.000000	65.408849 
2104.000000	65.415620 
2103.000000	65.417051 
2102.000000	65.413999 
2101.000000	65.407943 
2100.000000	65.400695 
2099.000000	65.394091 
2098.000000	65.389728 
2097.000000	65.388989 
2096.000000	65.392732 
2095.000000	65.401053 
2094.000000	65.413212 
2093.000000	65.427970 
2092.000000	65.443682 
2091.000000	65.458393 
2090.000000	65.470361 
2089.000000	65.478372 
2088.000000	65.481710 
2087.000000	65.480279 
2086.000000	65.474224 
2085.000000	65.464115 
2084.000000	65.450334 
2083.000000	65.433263 
2082.000000	65.412855 
2081.000000	65.389204 
2080.000000	65.362405 
2079.000000	65.332674 
2078.000000	65.300583 
2077.000000	65.267181 
2076.000000	65.233993 
2075.000000	65.202927 
2074.000000	65.176105 
2073.000000	65.155291 
2072.000000	65.141963 
2071.000000	65.136885 
2070.000000	65.140151 
2069.000000	65.150952 
2068.000000	65.167951 
2067.000000	65.189266 
2066.000000	65.212869 
2065.000000	65.236854 
2064.000000	65.259575 
2063.000000	65.279769 
2062.000000	65.296554 
2061.000000	65.309453 
2060.000000	65.318393 
2059.000000	65.323638 
2058.000000	65.325808 
2057.000000	65.325760 
2056.000000	65.324544 
2055.000000	65.323424 
2054.000000	65.323829 
2053.000000	65.327000 
2052.000000	65.333676 
2051.000000	65.344047 
2050.000000	65.357637 
2049.000000	65.373277 
2048.000000	65.389275 
2047.000000	65.403985 
2046.000000	65.416073 
2045.000000	65.424776 
2044.000000	65.430188 
2043.000000	65.433120 
2042.000000	65.435051 
2041.000000	65.437459 
2040.000000	65.441513 
2039.000000	65.447473 
2038.000000	65.454626 
2037.000000	65.461206 
2036.000000	65.464901 
2035.000000	65.463280 
2034.000000	65.454554 
2033.000000	65.438151 
2032.000000	65.415287 
2031.000000	65.388607 
2030.000000	65.361738 
2029.000000	65.338611 
2028.000000	65.322637 
2027.000000	65.315651 
2026.000000	65.317702 
2025.000000	65.327000 
2024.000000	65.340566 
2023.000000	65.354704 
2022.000000	65.366315 
2021.000000	65.373468 
2020.000000	65.376114 
2019.000000	65.375661 
2018.000000	65.374636 
2017.000000	65.375876 
2016.000000	65.381598 
2015.000000	65.392756 
2014.000000	65.408802 
2013.000000	65.427708 
2012.000000	65.446543 
2011.000000	65.462470 
2010.000000	65.473103 
2009.000000	65.477132 
2008.000000	65.474677 
2007.000000	65.466976 
2006.000000	65.456151 
2005.000000	65.444517 
2004.000000	65.434217 
2003.000000	65.426325 
2002.000000	65.420889 
2001.000000	65.416932 
2000.000000	65.412831 
1999.000000	65.406608 
1998.000000	65.396833 
1997.000000	65.382790 
1996.000000	65.364909 
1995.000000	65.344691 
1994.000000	65.324401 
1993.000000	65.306901 
1992.000000	65.294647 
1991.000000	65.289616 
1990.000000	65.292763 
1989.000000	65.304183 
1988.000000	65.322852 
1987.000000	65.347242 
1986.000000	65.375471 
1985.000000	65.405654 
1984.000000	65.436053 
1983.000000	65.465092 
1982.000000	65.491366 
1981.000000	65.513563 
1980.000000	65.530395 
1979.000000	65.541219 
1978.000000	65.545701 
1977.000000	65.544414 
1976.000000	65.538144 
1975.000000	65.528368 
1974.000000	65.516304 
1973.000000	65.503454 
1972.000000	65.490531 
1971.000000	65.477943 
1970.000000	65.465593 
1969.000000	65.453290 
1968.000000	65.440917 
1967.000000	65.428495 
1966.000000	65.416359 
1965.000000	65.405035 
1964.000000	65.395355 
1963.000000	65.387821 
1962.000000	65.382790 
1961.000000	65.380334 
1960.000000	65.380048 
1959.000000	65.381360 
1958.000000	65.383362 
1957.000000	65.385150 
1956.000000	65.385746 
1955.000000	65.384173 
1954.000000	65.379524 
1953.000000	65.371012 
1952.000000	65.358185 
1951.000000	65.341162 
1950.000000	65.320706 
1949.000000	65.298223 
1948.000000	65.275740 
1947.000000	65.255498 
1946.000000	65.239667 
1945.000000	65.229773 
1944.000000	65.226411 
1943.000000	65.229392 
1942.000000	65.237402 
1941.000000	65.248894 
1940.000000	65.262103 
1939.000000	65.275788 
1938.000000	65.289425 
1937.000000	65.303015 
1936.000000	65.316867 
1935.000000	65.331268 
1934.000000	65.345954 
1933.000000	65.360236 
1932.000000	65.372681 
1931.000000	65.381836 
1930.000000	65.386486 
1929.000000	65.386128 
1928.000000	65.381097 
1927.000000	65.372824 
1926.000000	65.363264 
1925.000000	65.354728 
1924.000000	65.349006 
1923.000000	65.347194 
1922.000000	65.349221 
1921.000000	65.354061 
1920.000000	65.359878 
1919.000000	65.364885 
1918.000000	65.367531 
1917.000000	65.367269 
1916.000000	65.364599 
1915.000000	65.360879 
1914.000000	65.357899 
1913.000000	65.357232 
1912.000000	65.359854 
1911.000000	65.365695 
1910.000000	65.373802 
1909.000000	65.382647 
1908.000000	65.390682 
1907.000000	65.396738 
1906.000000	65.400505 
1905.000000	65.402603 
1904.000000	65.404367 
1903.000000	65.407395 
1902.000000	65.412926 
1901.000000	65.421509 
1900.000000	65.432858 
1899.000000	65.445542 
1898.000000	65.457677 
1897.000000	65.466928 
1896.000000	65.471529 
1895.000000	65.470337 
1894.000000	65.463232 
1893.000000	65.451073 
1892.000000	65.435361 
1891.000000	65.417981 
1890.000000	65.400838 
1889.000000	65.385293 
1888.000000	65.372061 
1887.000000	65.361309 
1886.000000	65.352773 
1885.000000	65.345931 
1884.000000	65.340232 
1883.000000	65.335464 
1882.000000	65.331745 
1881.000000	65.329599 
1880.000000	65.329647 
1879.000000	65.332436 
1878.000000	65.338253 
1877.000000	65.346932 
1876.000000	65.357708 
1875.000000	65.369534 
1874.000000	65.380907 
1873.000000	65.390348 
1872.000000	65.396666 
1871.000000	65.399098 
1870.000000	65.397596 
1869.000000	65.392446 
1868.000000	65.384697 
1867.000000	65.375542 
1866.000000	65.366411 
1865.000000	65.358519 
1864.000000	65.352749 
1863.000000	65.349674 
1862.000000	65.349578 
1861.000000	65.352272 
1860.000000	65.357327 
1859.000000	65.364122 
1858.000000	65.372037 
1857.000000	65.380477 
1856.000000	65.389037 
1855.000000	65.397381 
1854.000000	65.405464 
1853.000000	65.413475 
1852.000000	65.421652 
1851.000000	65.430283 
1850.000000	65.439581 
1849.000000	65.449571 
1848.000000	65.460014 
1847.000000	65.470290 
1846.000000	65.479731 
1845.000000	65.487384 
1844.000000	65.492463 
1843.000000	65.494346 
1842.000000	65.492630 
1841.000000	65.487122 
1840.000000	65.477800 
1839.000000	65.464854 
1838.000000	65.448451 
1837.000000	65.428876 
1836.000000	65.406560 
1835.000000	65.382099 
1834.000000	65.356492 
1833.000000	65.331029 
1832.000000	65.307402 
1831.000000	65.287232 
1830.000000	65.271997 
1829.000000	65.262746 
1828.000000	65.259742 
1827.000000	65.262603 
1826.000000	65.270018 
1825.000000	65.280413 
1824.000000	65.292048 
1823.000000	65.303468 
1822.000000	65.313553 
1821.000000	65.321683 
1820.000000	65.327572 
1819.000000	65.331125 
1818.000000	65.332245 
1817.000000	65.330481 
1816.000000	65.325450 
1815.000000	65.316581 
1814.000000	65.303850 
1813.000000	65.287756 
1812.000000	65.269732 
1811.000000	65.251731 
1810.000000	65.236139 
1809.000000	65.225434 
1808.000000	65.221452 
1807.000000	65.225148 
1806.000000	65.236186 
1805.000000	65.253067 
1804.000000	65.273451 
1803.000000	65.294742 
1802.000000	65.314316 
1801.000000	65.330052 
1800.000000	65.340757 
1799.000000	65.346097 
1798.000000	65.346646 
1797.000000	65.343332 
1796.000000	65.337443 
1795.000000	65.330362 
1794.000000	65.323376 
1793.000000	65.317630 
1792.000000	65.314006 
1791.000000	65.313124 
1790.000000	65.315461 
1789.000000	65.321087 
1788.000000	65.329647 
1787.000000	65.340209 
1786.000000	65.351533 
1785.000000	65.362119 
1784.000000	65.370368 
1783.000000	65.375041 
1782.000000	65.375494 
1781.000000	65.372037 
1780.000000	65.365672 
1779.000000	65.357971 
1778.000000	65.350842 
1777.000000	65.345907 
1776.000000	65.344333 
1775.000000	65.346455 
1774.000000	65.351867 
1773.000000	65.359616 
1772.000000	65.368247 
1771.000000	65.376472 
1770.000000	65.383458 
1769.000000	65.388655 
1768.000000	65.391826 
1767.000000	65.393090 
1766.000000	65.392446 
1765.000000	65.389776 
1764.000000	65.384531 
1763.000000	65.376186 
1762.000000	65.364313 
1761.000000	65.348815 
1760.000000	65.330100 
1759.000000	65.309071 
1758.000000	65.287113 
1757.000000	65.265750 
1756.000000	65.246486 
1755.000000	65.230250 
1754.000000	65.217542 
1753.000000	65.208339 
1752.000000	65.202260 
1751.000000	65.198731 
1750.000000	65.197253 
1749.000000	65.197348 
1748.000000	65.198731 
1747.000000	65.201044 
1746.000000	65.203905 
1745.000000	65.206742 
1744.000000	65.208840 
1743.000000	65.209317 
1742.000000	65.207409 
1741.000000	65.202713 
1740.000000	65.195012 
1739.000000	65.184330 
1738.000000	65.170979 
1737.000000	65.155386 
1736.000000	65.137958 
1735.000000	65.119290 
1734.000000	65.100049 
1733.000000	65.081501 
1732.000000	65.065193 
1731.000000	65.052986 
1730.000000	65.046977 
1729.000000	65.048694 
1728.000000	65.058875 
1727.000000	65.076756 
1726.000000	65.100216 
1725.000000	65.125823 
1724.000000	65.149331 
1723.000000	65.167164 
1722.000000	65.176653 
1721.000000	65.177321 
1720.000000	65.170860 
1719.000000	65.160870 
1718.000000	65.151953 
1717.000000	65.148568 
1716.000000	65.153813 
1715.000000	65.168642 
1714.000000	65.191817 
1713.000000	65.220260 
1712.000000	65.250015 
1711.000000	65.277600 
1710.000000	65.300679 
1709.000000	65.318560 
1708.000000	65.331959 
1707.000000	65.342664 
1706.000000	65.352320 
1705.000000	65.361618 
1704.000000	65.369844 
1703.000000	65.375137 
1702.000000	65.374851 
1701.000000	65.366816 
1700.000000	65.349626 
1699.000000	65.323901 
1698.000000	65.291857 
1697.000000	65.257096 
1696.000000	65.223813 
1695.000000	65.195631 
1694.000000	65.175127 
1693.000000	65.163183 
1692.000000	65.159344 
1691.000000	65.161895 
1690.000000	65.168666 
1689.000000	65.177702 
1688.000000	65.187478 
1687.000000	65.197181 
1686.000000	65.206718 
1685.000000	65.216350 
1684.000000	65.226268 
1683.000000	65.236616 
1682.000000	65.247249 
1681.000000	65.258002 
1680.000000	65.268540 
1679.000000	65.278553 
1678.000000	65.287923 
1677.000000	65.296530 
1676.000000	65.304350 
1675.000000	65.311121 
1674.000000	65.316534 
1673.000000	65.320158 
1672.000000	65.321707 
1671.000000	65.321040 
1670.000000	65.318322 
1669.000000	65.314102 
1668.000000	65.309286 
1667.000000	65.304946 
1666.000000	65.302181 
1665.000000	65.301823 
1664.000000	65.304350 
1663.000000	65.309309 
1662.000000	65.315651 
1661.000000	65.321636 
1660.000000	65.325403 
1659.000000	65.325284 
1658.000000	65.320253 
1657.000000	65.310072 
1656.000000	65.295696 
1655.000000	65.278911 
1654.000000	65.262103 
1653.000000	65.247750 
1652.000000	65.237784 
1651.000000	65.233445 
1650.000000	65.234851 
1649.000000	65.241146 
1648.000000	65.250706 
1647.000000	65.261816 
1646.000000	65.272903 
1645.000000	65.282821 
1644.000000	65.290951 
1643.000000	65.297245 
1642.000000	65.301775 
1641.000000	65.304660 
1640.000000	65.305995 
1639.000000	65.305733 
1638.000000	65.303921 
1637.000000	65.300583 
1636.000000	65.295958 
1635.000000	65.290474 
1634.000000	65.284729 
1633.000000	65.279293 
1632.000000	65.274763 
1631.000000	65.271496 
1630.000000	65.269732 
1629.000000	65.269446 
1628.000000	65.270519 
1627.000000	65.272450 
1626.000000	65.274786 
1625.000000	65.276861 
1624.000000	65.277957 
1623.000000	65.277409 
1622.000000	65.274667 
1621.000000	65.269589 
1620.000000	65.262389 
1619.000000	65.253806 
1618.000000	65.244960 
1617.000000	65.237164 
1616.000000	65.231394 
1615.000000	65.228152 
1614.000000	65.227150 
1613.000000	65.227293 
1612.000000	65.226984 
1611.000000	65.224552 
1610.000000	65.218663 
1609.000000	65.208697 
1608.000000	65.195012 
1607.000000	65.178704 
1606.000000	65.161538 
1605.000000	65.145587 
1604.000000	65.132737 
1603.000000	65.124320 
1602.000000	65.120768 
1601.000000	65.121793 
1600.000000	65.126681 
1599.000000	65.134358 
1598.000000	65.143942 
1597.000000	65.154695 
1596.000000	65.166211 
1595.000000	65.178227 
1594.000000	65.190601 
1593.000000	65.202927 
1592.000000	65.214633 
1591.000000	65.224790 
1590.000000	65.232586 
1589.000000	65.237212 
1588.000000	65.238332 
1587.000000	65.236330 
1586.000000	65.232133 
1585.000000	65.227341 
1584.000000	65.223360 
1583.000000	65.221405 
1582.000000	65.221548 
1581.000000	65.222787 
1580.000000	65.223050 
1579.000000	65.219759 
1578.000000	65.210413 
1577.000000	65.193462 
1576.000000	65.168976 
1575.000000	65.138816 
1574.000000	65.106391 
1573.000000	65.075993 
1572.000000	65.051960 
1571.000000	65.037655 
1570.000000	65.034794 
1569.000000	65.043258 
1568.000000	65.061187 
1567.000000	65.085625 
1566.000000	65.113401 
1565.000000	65.141773 
1564.000000	65.168857 
1563.000000	65.193724 
1562.000000	65.216135 
1561.000000	65.236020 
1560.000000	65.253067 
1559.000000	65.266489 
1558.000000	65.275192 
1557.000000	65.277862 
1556.000000	65.273666 
1555.000000	65.262460 
1554.000000	65.245318 
1553.000000	65.224146 
1552.000000	65.201616 
1551.000000	65.180277 
1550.000000	65.162086 
1549.000000	65.148043 
1548.000000	65.138149 
1547.000000	65.131449 
1546.000000	65.126681 
1545.000000	65.122580 
1544.000000	65.118479 
1543.000000	65.114259 
1542.000000	65.110492 
1541.000000	65.107965 
1540.000000	65.107583 
1539.000000	65.109944 
1538.000000	65.115070 
1537.000000	65.122556 
1536.000000	65.131616 
1535.000000	65.141367 
1534.000000	65.150690 
1533.000000	65.158605 
1532.000000	65.164136 
1531.000000	65.166473 
1530.000000	65.164947 
1529.000000	65.159082 
1528.000000	65.148901 
1527.000000	65.135025 
1526.000000	65.118885 
1525.000000	65.102577 
1524.000000	65.088605 
1523.000000	65.079116 
1522.000000	65.075898 
1521.000000	65.079736 
1520.000000	65.089941 
1519.000000	65.104556 
1518.000000	65.120959 
1517.000000	65.136051 
1516.000000	65.147185 
1515.000000	65.152430 
1514.000000	65.151190 
1513.000000	65.144133 
1512.000000	65.132808 
1511.000000	65.119266 
1510.000000	65.105557 
1509.000000	65.093088 
1508.000000	65.082693 
1507.000000	65.074300 
1506.000000	65.067434 
1505.000000	65.061283 
1504.000000	65.055274 
1503.000000	65.049362 
1502.000000	65.044021 
1501.000000	65.040802 
1500.000000	65.041851 
1499.000000	65.049624 
1498.000000	65.066075 
1497.000000	65.091967 
1496.000000	65.126466 
1495.000000	65.166997 
1494.000000	65.209650 
1493.000000	65.250253 
1492.000000	65.284776 
1491.000000	65.310621 
1490.000000	65.326571 
1489.000000	65.332651 
1488.000000	65.329742 
1487.000000	65.319085 
1486.000000	65.301799 
1485.000000	65.279197 
1484.000000	65.252280 
1483.000000	65.222692 
1482.000000	65.192079 
1481.000000	65.162611 
1480.000000	65.136051 
1479.000000	65.114164 
1478.000000	65.097880 
1477.000000	65.087223 
1476.000000	65.081286 
1475.000000	65.078496 
1474.000000	65.076923 
1473.000000	65.074777 
1472.000000	65.070867 
1471.000000	65.064883 
1470.000000	65.057086 
1469.000000	65.048408 
1468.000000	65.039825 
1467.000000	65.032339 
1466.000000	65.026235 
1465.000000	65.021538 
1464.000000	65.017724 
1463.000000	65.014457 
1462.000000	65.011620 
1461.000000	65.009713 
1460.000000	65.009546 
1459.000000	65.012431 
1458.000000	65.019702 
1457.000000	65.032529 
1456.000000	65.051245 
1455.000000	65.075135 
1454.000000	65.102386 
1453.000000	65.130186 
1452.000000	65.155291 
1451.000000	65.174603 
1450.000000	65.185546 
1449.000000	65.187001 
1448.000000	65.179228 
1447.000000	65.163969 
1446.000000	65.144109 
1445.000000	65.123295 
1444.000000	65.105366 
1443.000000	65.093970 
1442.000000	65.091967 
1441.000000	65.101218 
1440.000000	65.121912 
1439.000000	65.152835 
1438.000000	65.190982 
1437.000000	65.231966 
1436.000000	65.270686 
1435.000000	65.302324 
1434.000000	65.322923 
1433.000000	65.330314 
1432.000000	65.324306 
1431.000000	65.306973 
1430.000000	65.281963 
1429.000000	65.253925 
1428.000000	65.227460 
1427.000000	65.206360 
1426.000000	65.192818 
1425.000000	65.187478 
1424.000000	65.189194 
1423.000000	65.195965 
1422.000000	65.204834 
1421.000000	65.213131 
1420.000000	65.218615 
1419.000000	65.219855 
1418.000000	65.216207 
1417.000000	65.207648 
1416.000000	65.194869 
1415.000000	65.178942 
1414.000000	65.161132 
1413.000000	65.142512 
1412.000000	65.123915 
1411.000000	65.105581 
1410.000000	65.087413 
1409.000000	65.068840 
1408.000000	65.049362 
1407.000000	65.028738 
1406.000000	65.007138 
1405.000000	64.985561 
1404.000000	64.965462 
1403.000000	64.948940 
1402.000000	64.937973 
1401.000000	64.934301 
1400.000000	64.938545 
1399.000000	64.950466 
1398.000000	64.968943 
1397.000000	64.991998 
1396.000000	65.017223 
1395.000000	65.042161 
1394.000000	65.064835 
1393.000000	65.083456 
1392.000000	65.096616 
1391.000000	65.103101 
1390.000000	65.102100 
1389.000000	65.093255 
1388.000000	65.076971 
1387.000000	65.054535 
1386.000000	65.027999 
1385.000000	65.000033 
1384.000000	64.973545 
1383.000000	64.951348 
1382.000000	64.935803 
1381.000000	64.928245 
1380.000000	64.929342 
1379.000000	64.938831 
1378.000000	64.956116 
1377.000000	64.980077 
1376.000000	65.009641 
1375.000000	65.043568 
1374.000000	65.080738 
1373.000000	65.119814 
1372.000000	65.159153 
1371.000000	65.196800 
1370.000000	65.230774 
1369.000000	65.258979 
1368.000000	65.279579 
1367.000000	65.291500 
1366.000000	65.294194 
1365.000000	65.287971 
1364.000000	65.273737 
1363.000000	65.253090 
1362.000000	65.228176 
1361.000000	65.201330 
1360.000000	65.174961 
1359.000000	65.151238 
1358.000000	65.131735 
1357.000000	65.117430 
1356.000000	65.108394 
1355.000000	65.104222 
1354.000000	65.103936 
1353.000000	65.106463 
1352.000000	65.110731 
1351.000000	65.116190 
1350.000000	65.122342 
1349.000000	65.129137 
1348.000000	65.136384 
1347.000000	65.144085 
1346.000000	65.152025 
1345.000000	65.160059 
1344.000000	65.167737 
1343.000000	65.174913 
1342.000000	65.181732 
1341.000000	65.188479 
1340.000000	65.195465 
1339.000000	65.202879 
1338.000000	65.210580 
1337.000000	65.217971 
1336.000000	65.224099 
1335.000000	65.227818 
1334.000000	65.228176 
1333.000000	65.224814 
1332.000000	65.218138 
1331.000000	65.209126 
1330.000000	65.199255 
1329.000000	65.190148 
1328.000000	65.183258 
1327.000000	65.179419 
1326.000000	65.178680 
1325.000000	65.180468 
1324.000000	65.183854 
1323.000000	65.187478 
1322.000000	65.189909 
1321.000000	65.190076 
1320.000000	65.187191 
1319.000000	65.180730 
1318.000000	65.170621 
1317.000000	65.157079 
1316.000000	65.140509 
1315.000000	65.121793 
1314.000000	65.101933 
1313.000000	65.082168 
1312.000000	65.063881 
1311.000000	65.048575 
1310.000000	65.037417 
1309.000000	65.031242 
1308.000000	65.030455 
1307.000000	65.034866 
1306.000000	65.043854 
1305.000000	65.056252 
1304.000000	65.070796 
1303.000000	65.086293 
1302.000000	65.101695 
1301.000000	65.116238 
1300.000000	65.129470 
1299.000000	65.141224 
1298.000000	65.151596 
1297.000000	65.160679 
1296.000000	65.168476 
1295.000000	65.174889 
1294.000000	65.179777 
1293.000000	65.182757 
1292.000000	65.183591 
1291.000000	65.181899 
1290.000000	65.177512 
1289.000000	65.170431 
1288.000000	65.160799 
1287.000000	65.148973 
1286.000000	65.135383 
1285.000000	65.120601 
1284.000000	65.105247 
1283.000000	65.089869 
1282.000000	65.075039 
1281.000000	65.061259 
1280.000000	65.049004 
1279.000000	65.038609 
1278.000000	65.030431 
1277.000000	65.024709 
1276.000000	65.021705 
1275.000000	65.021538 
1274.000000	65.023994 
1273.000000	65.028810 
1272.000000	65.035486 
1271.000000	65.043139 
1270.000000	65.050792 
1269.000000	65.057539 
1268.000000	65.062665 
1267.000000	65.065789 
1266.000000	65.066933 
1265.000000	65.066552 
1264.000000	65.065383 
1263.000000	65.064263 
1262.000000	65.063881 
1261.000000	65.064477 
1260.000000	65.065717 
1259.000000	65.066838 
1258.000000	65.066742 
1257.000000	65.064239 
1256.000000	65.058398 
1255.000000	65.048933 
1254.000000	65.036201 
1253.000000	65.021228 
1252.000000	65.005564 
1251.000000	64.990973 
1250.000000	64.979028 
1249.000000	64.971113 
1248.000000	64.967751 
1247.000000	64.969086 
1246.000000	64.974689 
1245.000000	64.983916 
1244.000000	64.995884 
1243.000000	65.009784 
1242.000000	65.025019 
1241.000000	65.041232 
1240.000000	65.057921 
1239.000000	65.074729 
1238.000000	65.091109 
1237.000000	65.106439 
1236.000000	65.120100 
1235.000000	65.131306 
1234.000000	65.139317 
1233.000000	65.143656 
1232.000000	65.144205 
1231.000000	65.140986 
1230.000000	65.134143 
1229.000000	65.123939 
1228.000000	65.110731 
1227.000000	65.095067 
1226.000000	65.077519 
1225.000000	65.058779 
1224.000000	65.039563 
1223.000000	65.020513 
1222.000000	65.002369 
1221.000000	64.985442 
1220.000000	64.969730 
1219.000000	64.954972 
1218.000000	64.940762 
1217.000000	64.926600 
1216.000000	64.912438 
1215.000000	64.898633 
1214.000000	64.886283 
1213.000000	64.876794 
1212.000000	64.872002 
1211.000000	64.873719 
1210.000000	64.883470 
1209.000000	64.901661 
1208.000000	64.927744 
1207.000000	64.960050 
1206.000000	64.996099 
1205.000000	65.032744 
1204.000000	65.066647 
1203.000000	65.094900 
1202.000000	65.115189 
1201.000000	65.126132 
1200.000000	65.127062 
1199.000000	65.118074 
1198.000000	65.099906 
1197.000000	65.073823 
1196.000000	65.041422 
1195.000000	65.004730 
1194.000000	64.966082 
1193.000000	64.928126 
1192.000000	64.893603 
1191.000000	64.865064 
1190.000000	64.844679 
1189.000000	64.833807 
1188.000000	64.832830 
1187.000000	64.840984 
1186.000000	64.856505 
1185.000000	64.876961 
1184.000000	64.899373 
1183.000000	64.921045 
1182.000000	64.939689 
1181.000000	64.953923 
1180.000000	64.963221 
1179.000000	64.968156 
1178.000000	64.969873 
1177.000000	64.969968 
1176.000000	64.970159 
1175.000000	64.971923 
1174.000000	64.976000 
1173.000000	64.982485 
1172.000000	64.990592 
1171.000000	64.998722 
1170.000000	65.004849 
1169.000000	65.006923 
1168.000000	65.003299 
1167.000000	64.993190 
1166.000000	64.976835 
1165.000000	64.955377 
1164.000000	64.930772 
1163.000000	64.905619 
1162.000000	64.882683 
1161.000000	64.864301 
1160.000000	64.851999 
1159.000000	64.846634 
1158.000000	64.847993 
1157.000000	64.854979 
1156.000000	64.865994 
1155.000000	64.879083 
1154.000000	64.892649 
1153.000000	64.905643 
1152.000000	64.917564 
1151.000000	64.928197 
1150.000000	64.937710 
1149.000000	64.946103 
1148.000000	64.952993 
1147.000000	64.957523 
1146.000000	64.958477 
1145.000000	64.954805 
1144.000000	64.945960 
1143.000000	64.932298 
1142.000000	64.915204 
1141.000000	64.896988 
1140.000000	64.880561 
1139.000000	64.868807 
1138.000000	64.863896 
1137.000000	64.866638 
1136.000000	64.876532 
1135.000000	64.891886 
1134.000000	64.910054 
1133.000000	64.928388 
1132.000000	64.944577 
1131.000000	64.957189 
1130.000000	64.965343 
1129.000000	64.969062 
1128.000000	64.968681 
1127.000000	64.964771 
1126.000000	64.957833 
1125.000000	64.948177 
1124.000000	64.936113 
1123.000000	64.921951 
1122.000000	64.906215 
1121.000000	64.889597 
1120.000000	64.873218 
1119.000000	64.858651 
1118.000000	64.847612 
1117.000000	64.841794 
1116.000000	64.842438 
1115.000000	64.850282 
1114.000000	64.865231 
1113.000000	64.885997 
1112.000000	64.910602 
1111.000000	64.936566 
1110.000000	64.961552 
1109.000000	64.983344 
1108.000000	65.000534 
1107.000000	65.012598 
1106.000000	65.019941 
1105.000000	65.023589 
1104.000000	65.024805 
1103.000000	65.024781 
1102.000000	65.024018 
1101.000000	65.022659 
1100.000000	65.020132 
1099.000000	65.015578 
1098.000000	65.008425 
1097.000000	64.998626 
1096.000000	64.987087 
1095.000000	64.975380 
1094.000000	64.965653 
1093.000000	64.960098 
1092.000000	64.960193 
1091.000000	64.966011 
1090.000000	64.976239 
1089.000000	64.988017 
1088.000000	64.997410 
1087.000000	65.000319 
1086.000000	64.993357 
1085.000000	64.974856 
1084.000000	64.945220 
1083.000000	64.907217 
1082.000000	64.865159 
1081.000000	64.824318 
1080.000000	64.789795 
1079.000000	64.765429 
1078.000000	64.753055 
1077.000000	64.752411 
1076.000000	64.761662 
1075.000000	64.777827 
1074.000000	64.797687 
1073.000000	64.818358 
1072.000000	64.837718 
1071.000000	64.854645 
1070.000000	64.868593 
1069.000000	64.879536 
1068.000000	64.887499 
1067.000000	64.892530 
1066.000000	64.894604 
1065.000000	64.893651 
1064.000000	64.889693 
1063.000000	64.883208 
1062.000000	64.875030 
1061.000000	64.866304 
1060.000000	64.858317 
1059.000000	64.852261 
1058.000000	64.848899 
1057.000000	64.848494 
1056.000000	64.850568 
1055.000000	64.854311 
1054.000000	64.858651 
1053.000000	64.862298 
1052.000000	64.864253 
1051.000000	64.863967 
1050.000000	64.861345 
1049.000000	64.856576 
1048.000000	64.850091 
1047.000000	64.842700 
1046.000000	64.834976 
1045.000000	64.827394 
1044.000000	64.820027 
1043.000000	64.812946 
1042.000000	64.805936 
1041.000000	64.798808 
1040.000000	64.791297 
1039.000000	64.783287 
1038.000000	64.774775 
1037.000000	64.765858 
1036.000000	64.756727 
1035.000000	64.747619 
1034.000000	64.738941 
1033.000000	64.731144 
1032.000000	64.724636 
1031.000000	64.720034 
1030.000000	64.717698 
1029.000000	64.717984 
1028.000000	64.720916 
1027.000000	64.726257 
1026.000000	64.733266 
1025.000000	64.741015 
1024.000000	64.748311 
1023.000000	64.754176 
1022.000000	64.757943 
1021.000000	64.759659 
1020.000000	64.759755 
1019.000000	64.759325 
1018.000000	64.759731 
1017.000000	64.762187 
1016.000000	64.767527 
1015.000000	64.775967 
1014.000000	64.786982 
1013.000000	64.799571 
1012.000000	64.812636 
1011.000000	64.824938 
1010.000000	64.835381 
1009.000000	64.843463 
1008.000000	64.848899 
1007.000000	64.851689 
1006.000000	64.851880 
1005.000000	64.849519 
1004.000000	64.844679 
1003.000000	64.837908 
1002.000000	64.829969 
1001.000000	64.822363 
1000.000000	64.816737 
999.000000	 64.815282 
998.000000	 64.819622 
997.000000	 64.830684 
996.000000	 64.847993 
995.000000	 64.869809 
994.000000	 64.893150 
993.000000	 64.914393 
992.000000	 64.930248 
991.000000	 64.938592 
990.000000	 64.939188 
989.000000	 64.933562 
988.000000	 64.924836 
987.000000	 64.917087 
986.000000	 64.914202 
985.000000	 64.918875 
984.000000	 64.931797 
983.000000	 64.951395 
982.000000	 64.974427 
981.000000	 64.996576 
980.000000	 65.013456 
979.000000	 65.021252 
978.000000	 65.017819 
977.000000	 65.002727 
976.000000	 64.977121 
975.000000	 64.943528 
974.000000	 64.905023 
973.000000	 64.864826 
972.000000	 64.826345 
971.000000	 64.792227 
970.000000	 64.764738 
969.000000	 64.744901 
968.000000	 64.732861 
967.000000	 64.727425 
966.000000	 64.726424 
965.000000	 64.726948 
964.000000	 64.725899 
963.000000	 64.721083 
962.000000	 64.711189 
961.000000	 64.696931 
960.000000	 64.680767 
959.000000	 64.666604 
958.000000	 64.658975 
957.000000	 64.662289 
956.000000	 64.679360 
955.000000	 64.710998 
954.000000	 64.755177 
953.000000	 64.807605 
952.000000	 64.861989 
951.000000	 64.911246 
950.000000	 64.948391 
949.000000	 64.967989 
948.000000	 64.966845 
947.000000	 64.944529 
946.000000	 64.903354 
945.000000	 64.847731 
944.000000	 64.783525 
943.000000	 64.717555 
942.000000	 64.656138 
941.000000	 64.604449 
940.000000	 64.565849 
939.000000	 64.541888 
938.000000	 64.532470 
937.000000	 64.536476 
936.000000	 64.551973 
935.000000	 64.576482 
934.000000	 64.607691 
933.000000	 64.643454 
932.000000	 64.681291 
931.000000	 64.717769 
930.000000	 64.749455 
929.000000	 64.772891 
928.000000	 64.784598 
927.000000	 64.781761 
926.000000	 64.762687 
925.000000	 64.727711 
924.000000	 64.679741 
923.000000	 64.624261 
922.000000	 64.569020 
921.000000	 64.522767 
920.000000	 64.494204 
919.000000	 64.489388 
918.000000	 64.510512 
917.000000	 64.554762 
916.000000	 64.615297 
915.000000	 64.681696 
914.000000	 64.742183 
913.000000	 64.786028 
912.000000	 64.806079 
911.000000	 64.798688 
910.000000	 64.764022 
909.000000	 64.704561 
908.000000	 64.624381 
907.000000	 64.526724 
906.000000	 64.413547 
905.000000	 64.285802 
904.000000	 64.144802 
903.000000	 63.994312 
902.000000	 63.841962 
901.000000	 63.699197 
900.000000	 63.580036 
899.000000	 63.498020 
898.000000	 63.463902 
897.000000	 63.481354 
896.000000	 63.547372 
895.000000	 63.651704 
894.000000	 63.780665 
893.000000	 63.918566 
892.000000	 64.052414 
891.000000	 64.173126 
890.000000	 64.277625 
889.000000	 64.366698 
888.000000	 64.444875 
887.000000	 64.516854 
886.000000	 64.586210 
885.000000	 64.654278 
884.000000	 64.719247 
883.000000	 64.777565 
882.000000	 64.824151 
881.000000	 64.855289 
880.000000	 64.868044 
879.000000	 64.861989 
878.000000	 64.838552 
877.000000	 64.800977 
876.000000	 64.753580 
875.000000	 64.701080 
874.000000	 64.649152 
873.000000	 64.603281 
872.000000	 64.567828 
871.000000	 64.545059 
870.000000	 64.535737 
869.000000	 64.538240 
868.000000	 64.548563 
867.000000	 64.561367 
866.000000	 64.570546 
865.000000	 64.571428 
864.000000	 64.561128 
863.000000	 64.540243 
862.000000	 64.511680 
861.000000	 64.481258 
860.000000	 64.456629 
859.000000	 64.444851 
858.000000	 64.450335 
857.000000	 64.473676 
856.000000	 64.511418 
855.000000	 64.556097 
854.000000	 64.597773 
853.000000	 64.626622 
852.000000	 64.635372 
851.000000	 64.620947 
850.000000	 64.585566 
849.000000	 64.536690 
848.000000	 64.485430 
847.000000	 64.443922 
846.000000	 64.422512 
845.000000	 64.427471 
844.000000	 64.459490 
843.000000	 64.514112 
842.000000	 64.582657 
841.000000	 64.654660 
840.000000	 64.720010 
839.000000	 64.771389 
838.000000	 64.805412 
837.000000	 64.822196 
836.000000	 64.824867 
835.000000	 64.817762 
834.000000	 64.804911 
833.000000	 64.788818 
832.000000	 64.769935 
831.000000	 64.747524 
830.000000	 64.719963 
829.000000	 64.686608 
828.000000	 64.647984 
827.000000	 64.606547 
826.000000	 64.565443 
825.000000	 64.527845 
824.000000	 64.495778 
823.000000	 64.469361 
822.000000	 64.447331 
821.000000	 64.427375 
820.000000	 64.406847 
819.000000	 64.383912 
818.000000	 64.357852 
817.000000	 64.329504 
816.000000	 64.300465 
815.000000	 64.273095 
814.000000	 64.249706 
813.000000	 64.232230 
812.000000	 64.222025 
811.000000	 64.219355 
810.000000	 64.223575 
809.000000	 64.233183 
808.000000	 64.245939 
807.000000	 64.259338 
806.000000	 64.270997 
805.000000	 64.278912 
804.000000	 64.281606 
803.000000	 64.278674 
802.000000	 64.270639 
801.000000	 64.259123 
800.000000	 64.246368 
799.000000	 64.234852 
798.000000	 64.226603 
797.000000	 64.222741 
796.000000	 64.223217 
795.000000	 64.226603 
794.000000	 64.230322 
793.000000	 64.231300 
792.000000	 64.226508 
791.000000	 64.213228 
790.000000	 64.190006 
789.000000	 64.156723 
788.000000	 64.115762 
787.000000	 64.071393 
786.000000	 64.029788 
785.000000	 63.997864 
784.000000	 63.982033 
783.000000	 63.986444 
782.000000	 64.011907 
781.000000	 64.055728 
780.000000	 64.111399 
779.000000	 64.170122 
778.000000	 64.222240 
777.000000	 64.259123 
776.000000	 64.275026 
775.000000	 64.267873 
774.000000	 64.239358 
773.000000	 64.194297 
772.000000	 64.139437 
771.000000	 64.082002 
770.000000	 64.028406 
769.000000	 63.983249 
768.000000	 63.949275 
767.000000	 63.927316 
766.000000	 63.916897 
765.000000	 63.916563 
764.000000	 63.923907 
763.000000	 63.936233 
762.000000	 63.949990 
761.000000	 63.962221 
760.000000	 63.970255 
759.000000	 63.972997 
758.000000	 63.970541 
757.000000	 63.964557 
756.000000	 63.958048 
755.000000	 63.954138 
754.000000	 63.955354 
753.000000	 63.962554 
752.000000	 63.975048 
751.000000	 63.989877 
750.000000	 64.002966 
749.000000	 64.009404 
748.000000	 64.005041 
747.000000	 63.987255 
746.000000	 63.955807 
745.000000	 63.913202 
744.000000	 63.864231 
743.000000	 63.815069 
742.000000	 63.772058 
741.000000	 63.740324 
740.000000	 63.722896 
739.000000	 63.720488 
738.000000	 63.731431 
737.000000	 63.752293 
736.000000	 63.778519 
735.000000	 63.805413 
734.000000	 63.828611 
733.000000	 63.844752 
732.000000	 63.851165 
731.000000	 63.845705 
730.000000	 63.826704 
729.000000	 63.792872 
728.000000	 63.743925 
727.000000	 63.680815 
726.000000	 63.606619 
725.000000	 63.526868 
724.000000	 63.448882 
723.000000	 63.381338 
722.000000	 63.332033 
721.000000	 63.306236 
720.000000	 63.305592 
719.000000	 63.327288 
718.000000	 63.365221 
717.000000	 63.411188 
716.000000	 63.457059 
715.000000	 63.496422 
714.000000	 63.525891 
713.000000	 63.545203 
712.000000	 63.556408 
711.000000	 63.562417 
710.000000	 63.565182 
709.000000	 63.564562 
708.000000	 63.558435 
707.000000	 63.543248 
706.000000	 63.515543 
705.000000	 63.473486 
704.000000	 63.418340 
703.000000	 63.354635 
702.000000	 63.289141 
701.000000	 63.229870 
700.000000	 63.184046 
699.000000	 63.157129 
698.000000	 63.151454 
697.000000	 63.166522 
696.000000	 63.199377 
695.000000	 63.245105 
694.000000	 63.297963 
693.000000	 63.352012 
692.000000	 63.401794 
691.000000	 63.442778 
690.000000	 63.471293 
689.000000	 63.485074 
688.000000	 63.483405 
687.000000	 63.467359 
686.000000	 63.439679 
685.000000	 63.404536 
684.000000	 63.366913 
683.000000	 63.331913 
682.000000	 63.303875 
681.000000	 63.285565 
680.000000	 63.278126 
679.000000	 63.281321 
678.000000	 63.294005 
677.000000	 63.314604 
676.000000	 63.341617 
675.000000	 63.373923 
674.000000	 63.410377 
673.000000	 63.449311 
672.000000	 63.488173 
671.000000	 63.523268 
670.000000	 63.550329 
669.000000	 63.565278 
668.000000	 63.564825 
667.000000	 63.547587 
666.000000	 63.514566 
665.000000	 63.469505 
664.000000	 63.417863 
663.000000	 63.366127 
662.000000	 63.320064 
661.000000	 63.283634 
660.000000	 63.258767 
659.000000	 63.245296 
658.000000	 63.241624 
657.000000	 63.245153 
656.000000	 63.253688 
655.000000	 63.265347 
654.000000	 63.279318 
653.000000	 63.294529 
652.000000	 63.309097 
651.000000	 63.319826 
650.000000	 63.322401 
649.000000	 63.312506 
648.000000	 63.286638 
647.000000	 63.243699 
646.000000	 63.185954 
645.000000	 63.119053 
644.000000	 63.051247 
643.000000	 62.991809 
642.000000	 62.948846 
641.000000	 62.927556 
640.000000	 62.929010 
639.000000	 62.949800 
638.000000	 62.983131 
637.000000	 63.019895 
636.000000	 63.050913 
635.000000	 63.068461 
634.000000	 63.067936 
633.000000	 63.048553 
632.000000	 63.013458 
631.000000	 62.968754 
630.000000	 62.922310 
629.000000	 62.882590 
628.000000	 62.856650 
627.000000	 62.849712 
626.000000	 62.863445 
625.000000	 62.896275 
624.000000	 62.943077 
623.000000	 62.996077 
622.000000	 63.046431 
621.000000	 63.085460 
620.000000	 63.107109 
619.000000	 63.108468 
618.000000	 63.091325 
617.000000	 63.061070 
616.000000	 63.026213 
615.000000	 62.996482 
614.000000	 62.980604 
613.000000	 62.984585 
612.000000	 63.009929 
611.000000	 63.053846 
610.000000	 63.108634 
609.000000	 63.163685 
608.000000	 63.207435 
607.000000	 63.229799 
606.000000	 63.224983 
605.000000	 63.192677 
604.000000	 63.137769 
603.000000	 63.068819 
602.000000	 62.995672 
601.000000	 62.927103 
600.000000	 62.868785 
599.000000	 62.822914 
598.000000	 62.789058 
597.000000	 62.765359 
596.000000	 62.750434 
595.000000	 62.744021 
594.000000	 62.746644 
593.000000	 62.759685 
592.000000	 62.782955 
591.000000	 62.815690 
590.000000	 62.855577 
589.000000	 62.899279 
588.000000	 62.942719 
587.000000	 62.981581 
586.000000	 63.012266 
585.000000	 63.031625 
584.000000	 63.037467 
583.000000	 63.028430 
582.000000	 63.004112 
581.000000	 62.964701 
580.000000	 62.911343 
579.000000	 62.845993 
578.000000	 62.771630 
577.000000	 62.692260 
576.000000	 62.612605 
575.000000	 62.538027 
574.000000	 62.473797 
573.000000	 62.424612 
572.000000	 62.393593 
571.000000	 62.381243 
570.000000	 62.385654 
569.000000	 62.402820 
568.000000	 62.427067 
567.000000	 62.451767 
566.000000	 62.470579 
565.000000	 62.478256 
564.000000	 62.471532 
563.000000	 62.449645 
562.000000	 62.413907 
561.000000	 62.367320 
560.000000	 62.313175 
559.000000	 62.254714 
558.000000	 62.194085 
557.000000	 62.132430 
556.000000	 62.070131 
555.000000	 62.007498 
554.000000	 61.945128 
553.000000	 61.884617 
552.000000	 61.828637 
551.000000	 61.781096 
550.000000	 61.746287 
549.000000	 61.728525 
548.000000	 61.730861 
547.000000	 61.754655 
546.000000	 61.799430 
545.000000	 61.862468 
544.000000	 61.938762 
543.000000	 62.021279 
542.000000	 62.102055 
541.000000	 62.172532 
540.000000	 62.224221 
539.000000	 62.250447 
538.000000	 62.247395 
537.000000	 62.215280 
536.000000	 62.159180 
535.000000	 62.087845 
534.000000	 62.013006 
533.000000	 61.945962 
532.000000	 61.895895 
531.000000	 61.867046 
530.000000	 61.858654 
529.000000	 61.864590 
528.000000	 61.875605 
527.000000	 61.882305 
526.000000	 61.877822 
525.000000	 61.860513 
524.000000	 61.834502 
523.000000	 61.807990 
522.000000	 61.790871 
521.000000	 61.791706 
520.000000	 61.815381 
519.000000	 61.860513 
518.000000	 61.920499 
517.000000	 61.986827 
516.000000	 62.050747 
515.000000	 62.106537 
514.000000	 62.151551 
513.000000	 62.186551 
512.000000	 62.213945 
511.000000	 62.234950 
510.000000	 62.250137 
509.000000	 62.258768 
508.000000	 62.259674 
507.000000	 62.252998 
506.000000	 62.239694 
505.000000	 62.222146 
504.000000	 62.203431 
503.000000	 62.187337 
502.000000	 62.175822 
501.000000	 62.168526 
500.000000	 62.161731 
499.000000	 62.148976 
498.000000	 62.120532 
497.000000	 62.065529 
496.000000	 61.973881 
495.000000	 61.839318 
494.000000	 61.662626 
493.000000	 61.452507 
492.000000	 61.224460 
491.000000	 60.998058 
490.000000	 60.792827 
489.000000	 60.624742 
488.000000	 60.502696 
487.000000	 60.428094 
486.000000	 60.393691 
485.000000	 60.388779 
484.000000	 60.400056 
483.000000	 60.418558 
482.000000	 60.439705 
481.000000	 60.465955 
480.000000	 60.502219 
479.000000	 60.555863 
478.000000	 60.632038 
477.000000	 60.732030 
476.000000	 60.850739 
475.000000	 60.978341 
474.000000	 61.101603 
473.000000	 61.207079 
472.000000	 61.283612 
471.000000	 61.321473 
470.000000	 61.313700 
469.000000	 61.256098 
468.000000	 61.148834 
467.000000	 60.996127 
466.000000	 60.808610 
465.000000	 60.603451 
464.000000	 60.404157 
463.000000	 60.238409 
462.000000	 60.132956 
461.000000	 60.109138 
460.000000	 60.176086 
459.000000	 60.329818 
458.000000	 60.549879 
457.000000	 60.802888 
456.000000	 61.047077 
455.000000	 61.239576 
454.000000	 61.346149 
453.000000	 61.346340 
452.000000	 61.240696 
451.000000	 61.049222 
450.000000	 60.808634 
449.000000	 60.563087 
448.000000	 60.356187 
447.000000	 60.221695 
446.000000	 60.177898 
445.000000	 60.224914 
444.000000	 60.347819 
443.000000	 60.521030 
442.000000	 60.714054 
441.000000	 60.897016 
440.000000	 61.047053 
439.000000	 61.148524 
438.000000	 61.192631 
437.000000	 61.174559 
436.000000	 61.089110 
435.000000	 60.932135 
434.000000	 60.703396 
433.000000	 60.408353 
432.000000	 60.062527 
431.000000	 59.689569 
430.000000	 59.320712 
429.000000	 58.988976 
428.000000	 58.725953 
427.000000	 58.552551 
426.000000	 58.473110 
425.000000	 58.477187 
424.000000	 58.540177 
423.000000	 58.634042 
422.000000	 58.733773 
421.000000	 58.822298 
420.000000	 58.890628 
419.000000	 58.939552 
418.000000	 58.975958 
417.000000	 58.992719 
416.000000	 58.968997 
415.000000	 58.878040 
414.000000	 58.699607 
413.000000	 58.429408 
412.000000	 58.089160 
411.000000	 57.739734 
410.000000	 57.459616 
409.000000	 57.329463 
408.000000	 57.398748 
407.000000	 57.664465 
406.000000	 58.064556 
405.000000	 58.498024 
404.000000	 58.841276 
403.000000	 58.966422 
402.000000	 58.791875 
401.000000	 58.312463 
400.000000	 57.600235 
399.000000	 56.769037 
398.000000	 55.980849 
397.000000	 55.407118 
396.000000	 55.192804 
395.000000	 55.417871 
394.000000	 56.098866 
393.000000	 57.184338 
392.000000	 58.590292 
391.000000	 60.224843 
390.000000	 61.986279 
389.000000	 63.778567 
388.000000	 65.549230 
387.000000	 67.276120 
386.000000	 68.939185 
385.000000	 70.497512 
384.000000	 71.904230 
383.000000	 73.066043 
382.000000	 73.898148 
381.000000	 74.273228 
380.000000	 74.065399 
379.000000	 73.132371 
378.000000	 71.415495 
377.000000	 68.880128 
376.000000	 65.594720 
375.000000	 61.649560 
374.000000	 57.175469 
373.000000	 52.314066 
372.000000	 47.185826 
371.000000	 41.978240 
370.000000	 36.951327 

