PE IR       SPECTRUM    SPECTRUM    ASCII       PEDS        1.60        
  -1
C-1AE1~1.ASC
17/05/02
11:58:35.00
17/05/02
11:58:35.00
tln
$C-4040-8_t0013$<tbV0>[12.5,-3.0,8.0,0.0,22,1,0]
370.000000
64









2002,4.07    
MIRTGS : RIGHTBACK : INTERNAL 2
MIR : ON : INTERNAL 2
OPTKBR

0.200000
8
8.000000
FILLER
RATIO
SPECTRUM
UNLOCKED 256

DOUBLE
64
COMBINED
1
0
0


1.000000
RATIO


1
0
TRUE
51149
0
LEFT NOT FITTED RIGHT NOT FITTED 0
NONE
NONE
15600
12.000000
4.427000
51148
TRUE
1 0 8 72 0 0 0 0 

15798.010000






#HDR
-1
-1
#GR
CM-1
%T
0.00002384185791015625
0.0
7800.000000
-1.000000
7431
8
94.661283
37.678503
#DATA
7800.000000	76.234507 
7799.000000	75.310516 
7798.000000	74.743843 
7797.000000	74.401903 
7796.000000	74.094438 
7795.000000	73.654365 
7794.000000	72.961258 
7793.000000	71.976995 
7792.000000	70.745825 
7791.000000	69.383406 
7790.000000	68.025922 
7789.000000	66.808295 
7788.000000	65.848207 
7787.000000	65.233731 
7786.000000	65.022611 
7785.000000	65.234661 
7784.000000	65.854048 
7783.000000	66.824722 
7782.000000	68.042683 
7781.000000	69.374585 
7780.000000	70.668673 
7779.000000	71.783924 
7778.000000	72.591328 
7777.000000	73.018074 
7776.000000	73.058772 
7775.000000	72.776460 
7774.000000	72.285676 
7773.000000	71.727323 
7772.000000	71.239209 
7771.000000	70.926141 
7770.000000	70.851421 
7769.000000	71.009254 
7768.000000	71.334910 
7767.000000	71.734595 
7766.000000	72.117877 
7765.000000	72.425270 
7764.000000	72.643709 
7763.000000	72.810053 
7762.000000	72.988891 
7761.000000	73.243665 
7760.000000	73.600745 
7759.000000	74.033665 
7758.000000	74.451971 
7757.000000	74.727153 
7756.000000	74.714922 
7755.000000	74.304246 
7754.000000	73.443460 
7753.000000	72.157526 
7752.000000	70.559549 
7751.000000	68.814468 
7750.000000	67.137789 
7749.000000	65.748262 
7748.000000	64.840793 
7747.000000	64.545917 
7746.000000	64.911532 
7745.000000	65.895414 
7744.000000	67.369294 
7743.000000	69.141173 
7742.000000	70.988392 
7741.000000	72.692918 
7740.000000	74.075865 
7739.000000	75.018358 
7738.000000	75.475096 
7737.000000	75.465679 
7736.000000	75.064754 
7735.000000	74.371767 
7734.000000	73.488545 
7733.000000	72.494029 
7732.000000	71.444773 
7731.000000	70.369458 
7730.000000	69.292378 
7729.000000	68.235731 
7728.000000	67.240595 
7727.000000	66.359782 
7726.000000	65.641951 
7725.000000	65.135192 
7724.000000	64.853715 
7723.000000	64.804148 
7722.000000	64.972305 
7721.000000	65.340828 
7720.000000	65.892577 
7719.000000	66.598033 
7718.000000	67.403674 
7717.000000	68.237590 
7716.000000	69.009304 
7715.000000	69.628715 
7714.000000	70.018720 
7713.000000	70.142006 
7712.000000	70.009613 
7711.000000	69.679427 
7710.000000	69.243407 
7709.000000	68.800473 
7708.000000	68.434262 
7707.000000	68.204951 
7706.000000	68.135070 
7705.000000	68.213820 
7704.000000	68.400263 
7703.000000	68.637657 
7702.000000	68.868064 
7701.000000	69.046020 
7700.000000	69.150209 
7699.000000	69.175672 
7698.000000	69.144535 
7697.000000	69.085693 
7696.000000	69.044089 
7695.000000	69.064021 
7694.000000	69.190645 
7693.000000	69.456219 
7692.000000	69.881868 
7691.000000	70.473909 
7690.000000	71.219754 
7689.000000	72.085714 
7688.000000	73.025298 
7687.000000	73.984670 
7686.000000	74.905323 
7685.000000	75.730252 
7684.000000	76.401734 
7683.000000	76.867175 
7682.000000	77.084088 
7681.000000	77.027559 
7680.000000	76.700973 
7679.000000	76.137137 
7678.000000	75.403618 
7677.000000	74.586343 
7676.000000	73.787689 
7675.000000	73.093366 
7674.000000	72.566795 
7673.000000	72.220873 
7672.000000	72.027587 
7671.000000	71.912193 
7670.000000	71.776962 
7669.000000	71.520423 
7668.000000	71.065402 
7667.000000	70.376849 
7666.000000	69.467616 
7665.000000	68.399763 
7664.000000	67.259812 
7663.000000	66.157150 
7662.000000	65.191364 
7661.000000	64.459896 
7660.000000	64.039969 
7659.000000	63.985562 
7658.000000	64.315676 
7657.000000	65.007209 
7656.000000	65.990233 
7655.000000	67.141175 
7654.000000	68.296933 
7653.000000	69.279193 
7652.000000	69.924640 
7651.000000	70.112252 
7650.000000	69.788217 
7649.000000	68.977713 
7648.000000	67.779445 
7647.000000	66.345810 
7646.000000	64.854407 
7645.000000	63.473582 
7644.000000	62.339854 
7643.000000	61.542367 
7642.000000	61.119747 
7641.000000	61.065435 
7640.000000	61.341214 
7639.000000	61.894345 
7638.000000	62.661623 
7637.000000	63.569641 
7636.000000	64.541602 
7635.000000	65.492534 
7634.000000	66.338253 
7633.000000	66.995239 
7632.000000	67.404007 
7631.000000	67.536091 
7630.000000	67.402863 
7629.000000	67.050528 
7628.000000	66.555356 
7627.000000	66.002082 
7626.000000	65.465188 
7625.000000	64.988780 
7624.000000	64.582777 
7623.000000	64.221811 
7622.000000	63.863110 
7621.000000	63.461256 
7620.000000	62.985324 
7619.000000	62.434434 
7618.000000	61.837863 
7617.000000	61.255764 
7616.000000	60.753440 
7615.000000	60.400032 
7614.000000	60.234689 
7613.000000	60.280966 
7612.000000	60.536479 
7611.000000	60.984945 
7610.000000	61.597156 
7609.000000	62.337636 
7608.000000	63.169693 
7607.000000	64.040327 
7606.000000	64.880609 
7605.000000	65.602421 
7604.000000	66.108798 
7603.000000	66.324615 
7602.000000	66.215300 
7601.000000	65.804553 
7600.000000	65.171694 
7599.000000	64.442420 
7598.000000	63.755440 
7597.000000	63.232445 
7596.000000	62.944960 
7595.000000	62.900567 
7594.000000	63.042306 
7593.000000	63.276171 
7592.000000	63.494586 
7591.000000	63.598442 
7590.000000	63.537144 
7589.000000	63.310122 
7588.000000	62.983965 
7587.000000	62.661719 
7586.000000	62.470793 
7585.000000	62.520933 
7584.000000	62.881183 
7583.000000	63.559293 
7582.000000	64.495301 
7581.000000	65.576410 
7580.000000	66.655349 
7579.000000	67.586231 
7578.000000	68.242645 
7577.000000	68.542599 
7576.000000	68.453645 
7575.000000	67.995786 
7574.000000	67.227935 
7573.000000	66.238808 
7572.000000	65.134406 
7571.000000	64.027929 
7570.000000	63.033366 
7569.000000	62.254834 
7568.000000	61.778450 
7567.000000	61.662101 
7566.000000	61.929392 
7565.000000	62.562966 
7564.000000	63.501310 
7563.000000	64.645862 
7562.000000	65.869402 
7561.000000	67.035055 
7560.000000	68.011260 
7559.000000	68.695235 
7558.000000	69.023346 
7557.000000	68.983554 
7556.000000	68.614649 
7555.000000	67.994403 
7554.000000	67.226290 
7553.000000	66.413950 
7552.000000	65.646862 
7551.000000	64.987635 
7550.000000	64.471435 
7549.000000	64.112997 
7548.000000	63.916420 
7547.000000	63.880944 
7546.000000	64.005517 
7545.000000	64.287424 
7544.000000	64.717745 
7543.000000	65.267610 
7542.000000	65.890431 
7541.000000	66.516494 
7540.000000	67.071270 
7539.000000	67.486333 
7538.000000	67.718720 
7537.000000	67.760109 
7536.000000	67.638921 
7535.000000	67.417168 
7534.000000	67.168545 
7533.000000	66.965723 
7532.000000	66.853976 
7531.000000	66.841053 
7530.000000	66.900062 
7529.000000	66.986417 
7528.000000	67.049217 
7527.000000	67.049407 
7526.000000	66.976475 
7525.000000	66.853475 
7524.000000	66.727042 
7523.000000	66.652488 
7522.000000	66.670894 
7521.000000	66.793918 
7520.000000	67.001581 
7519.000000	67.245817 
7518.000000	67.463350 
7517.000000	67.593002 
7516.000000	67.598366 
7515.000000	67.473816 
7514.000000	67.245054 
7513.000000	66.958546 
7512.000000	66.667199 
7511.000000	66.413140 
7510.000000	66.218495 
7509.000000	66.076350 
7508.000000	65.963077 
7507.000000	65.835881 
7506.000000	65.652871 
7505.000000	65.376329 
7504.000000	64.986658 
7503.000000	64.483404 
7502.000000	63.883495 
7501.000000	63.222956 
7500.000000	62.546515 
7499.000000	61.908578 
7498.000000	61.362695 
7497.000000	60.959815 
7496.000000	60.739636 
7495.000000	60.727906 
7494.000000	60.931229 
7493.000000	61.331105 
7492.000000	61.886644 
7491.000000	62.534666 
7490.000000	63.204813 
7489.000000	63.825511 
7488.000000	64.345145 
7487.000000	64.739298 
7486.000000	65.018820 
7485.000000	65.221238 
7484.000000	65.401411 
7483.000000	65.617847 
7482.000000	65.912103 
7481.000000	66.300010 
7480.000000	66.763281 
7479.000000	67.259526 
7478.000000	67.728805 
7477.000000	68.118262 
7476.000000	68.386554 
7475.000000	68.518018 
7474.000000	68.519783 
7473.000000	68.420124 
7472.000000	68.255877 
7471.000000	68.063282 
7470.000000	67.868947 
7469.000000	67.686367 
7468.000000	67.522406 
7467.000000	67.380809 
7466.000000	67.271232 
7465.000000	67.207765 
7464.000000	67.204570 
7463.000000	67.267346 
7462.000000	67.388510 
7461.000000	67.540693 
7460.000000	67.679619 
7459.000000	67.748785 
7458.000000	67.691636 
7457.000000	67.464470 
7456.000000	67.047452 
7455.000000	66.455006 
7454.000000	65.731167 
7453.000000	64.951038 
7452.000000	64.208507 
7451.000000	63.596653 
7450.000000	63.195252 
7449.000000	63.040161 
7448.000000	63.118815 
7447.000000	63.361811 
7446.000000	63.659358 
7445.000000	63.883304 
7444.000000	63.918161 
7443.000000	63.688325 
7442.000000	63.177061 
7441.000000	62.434744 
7440.000000	61.568951 
7439.000000	60.722208 
7438.000000	60.041093 
7437.000000	59.647965 
7436.000000	59.613704 
7435.000000	59.947848 
7434.000000	60.595536 
7433.000000	61.450266 
7432.000000	62.379646 
7431.000000	63.248705 
7430.000000	63.955092 
7429.000000	64.438652 
7428.000000	64.699697 
7427.000000	64.782142 
7426.000000	64.766860 
7425.000000	64.742779 
7424.000000	64.786934 
7423.000000	64.949846 
7422.000000	65.239739 
7421.000000	65.629863 
7420.000000	66.063189 
7419.000000	66.477966 
7418.000000	66.812825 
7417.000000	67.024850 
7416.000000	67.093968 
7415.000000	67.026329 
7414.000000	66.847920 
7413.000000	66.597056 
7412.000000	66.315460 
7411.000000	66.040349 
7410.000000	65.802097 
7409.000000	65.620255 
7408.000000	65.508031 
7407.000000	65.469622 
7406.000000	65.501737 
7405.000000	65.593361 
7404.000000	65.725994 
7403.000000	65.877056 
7402.000000	66.022658 
7401.000000	66.141343 
7400.000000	66.211724 
7399.000000	66.221308 
7398.000000	66.170406 
7397.000000	66.069149 
7396.000000	65.933871 
7395.000000	65.783762 
7394.000000	65.637230 
7393.000000	65.507292 
7392.000000	65.400600 
7391.000000	65.316343 
7390.000000	65.248799 
7389.000000	65.190124 
7388.000000	65.133929 
7387.000000	65.076470 
7386.000000	65.017700 
7385.000000	64.960598 
7384.000000	64.909458 
7383.000000	64.867305 
7382.000000	64.833498 
7381.000000	64.806389 
7380.000000	64.779615 
7379.000000	64.741468 
7378.000000	64.676117 
7377.000000	64.566707 
7376.000000	64.400362 
7375.000000	64.171767 
7374.000000	63.887739 
7373.000000	63.565444 
7372.000000	63.233923 
7371.000000	62.927722 
7370.000000	62.683320 
7369.000000	62.528944 
7368.000000	62.483310 
7367.000000	62.551021 
7366.000000	62.722611 
7365.000000	62.975335 
7364.000000	63.279032 
7363.000000	63.600587 
7362.000000	63.912987 
7361.000000	64.198875 
7360.000000	64.456009 
7359.000000	64.695167 
7358.000000	64.938783 
7357.000000	65.211343 
7356.000000	65.532350 
7355.000000	65.904712 
7354.000000	66.315793 
7353.000000	66.731357 
7352.000000	67.102074 
7351.000000	67.371201 
7350.000000	67.491769 
7349.000000	67.435336 
7348.000000	67.204070 
7347.000000	66.828250 
7346.000000	66.364550 
7345.000000	65.879249 
7344.000000	65.436863 
7343.000000	65.083622 
7342.000000	64.839243 
7341.000000	64.698219 
7340.000000	64.637637 
7339.000000	64.627313 
7338.000000	64.641952 
7337.000000	64.667391 
7336.000000	64.702725 
7335.000000	64.756989 
7334.000000	64.841699 
7333.000000	64.964818 
7332.000000	65.125632 
7331.000000	65.314054 
7330.000000	65.513658 
7329.000000	65.710878 
7328.000000	65.897941 
7327.000000	66.078543 
7326.000000	66.261792 
7325.000000	66.459584 
7324.000000	66.674780 
7323.000000	66.898608 
7322.000000	67.103934 
7321.000000	67.254590 
7320.000000	67.306327 
7319.000000	67.223405 
7318.000000	66.982197 
7317.000000	66.582465 
7316.000000	66.047143 
7315.000000	65.420174 
7314.000000	64.761328 
7313.000000	64.134144 
7312.000000	63.600850 
7311.000000	63.211917 
7310.000000	63.001441 
7309.000000	62.982225 
7308.000000	63.147377 
7307.000000	63.472819 
7306.000000	63.918066 
7305.000000	64.433097 
7304.000000	64.964151 
7303.000000	65.462827 
7302.000000	65.892863 
7301.000000	66.234421 
7300.000000	66.486692 
7299.000000	66.661524 
7298.000000	66.777753 
7297.000000	66.851139 
7296.000000	66.890883 
7295.000000	66.894578 
7294.000000	66.857075 
7293.000000	66.768193 
7292.000000	66.625165 
7291.000000	66.429734 
7290.000000	66.194391 
7289.000000	65.937685 
7288.000000	65.680122 
7287.000000	65.443921 
7286.000000	65.246796 
7285.000000	65.106034 
7284.000000	65.034818 
7283.000000	65.047168 
7282.000000	65.154767 
7281.000000	65.368604 
7280.000000	65.694570 
7279.000000	66.129326 
7278.000000	66.656875 
7277.000000	67.246341 
7276.000000	67.854690 
7275.000000	68.435931 
7274.000000	68.946456 
7273.000000	69.354176 
7272.000000	69.638514 
7271.000000	69.795775 
7270.000000	69.830870 
7269.000000	69.756674 
7268.000000	69.585299 
7267.000000	69.330787 
7266.000000	69.004011 
7265.000000	68.619823 
7264.000000	68.194675 
7263.000000	67.753672 
7262.000000	67.326092 
7261.000000	66.945958 
7260.000000	66.644096 
7259.000000	66.443347 
7258.000000	66.352510 
7257.000000	66.363334 
7256.000000	66.451549 
7255.000000	66.580581 
7254.000000	66.708707 
7253.000000	66.796946 
7252.000000	66.816425 
7251.000000	66.754174 
7250.000000	66.613054 
7249.000000	66.411423 
7248.000000	66.180944 
7247.000000	65.959525 
7246.000000	65.785360 
7245.000000	65.686750 
7244.000000	65.678954 
7243.000000	65.757131 
7242.000000	65.898752 
7241.000000	66.066431 
7240.000000	66.218209 
7239.000000	66.315007 
7238.000000	66.327166 
7237.000000	66.243433 
7236.000000	66.071200 
7235.000000	65.836930 
7234.000000	65.578055 
7233.000000	65.336179 
7232.000000	65.147614 
7231.000000	65.035295 
7230.000000	65.006113 
7229.000000	65.047168 
7228.000000	65.130996 
7227.000000	65.221643 
7226.000000	65.285181 
7225.000000	65.296816 
7224.000000	65.248799 
7223.000000	65.152549 
7222.000000	65.037631 
7221.000000	64.947366 
7220.000000	64.927697 
7219.000000	65.017986 
7218.000000	65.236878 
7217.000000	65.577745 
7216.000000	66.003012 
7215.000000	66.454529 
7214.000000	66.859722 
7213.000000	67.148351 
7212.000000	67.264771 
7211.000000	67.183089 
7210.000000	66.908454 
7209.000000	66.475629 
7208.000000	65.940046 
7207.000000	65.367102 
7206.000000	64.817357 
7205.000000	64.337515 
7204.000000	63.954019 
7203.000000	63.674473 
7202.000000	63.491129 
7201.000000	63.389158 
7200.000000	63.352489 
7199.000000	63.369321 
7198.000000	63.432741 
7197.000000	63.539814 
7196.000000	63.684868 
7195.000000	63.857698 
7194.000000	64.043259 
7193.000000	64.223146 
7192.000000	64.377379 
7191.000000	64.489555 
7190.000000	64.549207 
7189.000000	64.556670 
7188.000000	64.523100 
7187.000000	64.469981 
7186.000000	64.423251 
7185.000000	64.408993 
7184.000000	64.449810 
7183.000000	64.556717 
7182.000000	64.728569 
7181.000000	64.948320 
7180.000000	65.187907 
7179.000000	65.412282 
7178.000000	65.588498 
7177.000000	65.690517 
7176.000000	65.705633 
7175.000000	65.633821 
7174.000000	65.486693 
7173.000000	65.284347 
7172.000000	65.051126 
7171.000000	64.806699 
7170.000000	64.563488 
7169.000000	64.326310 
7168.000000	64.096093 
7167.000000	63.873505 
7166.000000	63.665604 
7165.000000	63.485527 
7164.000000	63.356590 
7163.000000	63.306546 
7162.000000	63.365077 
7161.000000	63.551855 
7160.000000	63.873076 
7159.000000	64.316797 
7158.000000	64.850544 
7157.000000	65.427279 
7156.000000	65.986633 
7155.000000	66.466212 
7154.000000	66.807889 
7153.000000	66.969251 
7152.000000	66.929244 
7151.000000	66.691827 
7150.000000	66.287922 
7149.000000	65.770745 
7148.000000	65.209555 
7147.000000	64.679217 
7146.000000	64.248180 
7145.000000	63.968038 
7144.000000	63.863682 
7143.000000	63.930630 
7142.000000	64.134168 
7141.000000	64.418935 
7140.000000	64.719676 
7139.000000	64.977622 
7138.000000	65.148186 
7137.000000	65.213561 
7136.000000	65.181159 
7135.000000	65.083265 
7134.000000	64.964032 
7133.000000	64.869904 
7132.000000	64.837718 
7131.000000	64.885544 
7130.000000	65.012454 
7129.000000	65.196967 
7128.000000	65.406632 
7127.000000	65.604686 
7126.000000	65.760684 
7125.000000	65.857410 
7124.000000	65.894579 
7123.000000	65.886497 
7122.000000	65.855383 
7121.000000	65.824747 
7120.000000	65.811371 
7119.000000	65.819907 
7118.000000	65.841627 
7117.000000	65.853238 
7116.000000	65.823101 
7115.000000	65.720558 
7114.000000	65.524911 
7113.000000	65.229892 
7112.000000	64.848279 
7111.000000	64.410114 
7110.000000	63.959193 
7109.000000	63.542842 
7108.000000	63.205838 
7107.000000	62.978720 
7106.000000	62.877416 
7105.000000	62.901806 
7104.000000	63.038420 
7103.000000	63.262867 
7102.000000	63.546061 
7101.000000	63.856220 
7100.000000	64.165449 
7099.000000	64.447903 
7098.000000	64.686417 
7097.000000	64.870023 
7096.000000	64.996647 
7095.000000	65.070533 
7094.000000	65.100622 
7093.000000	65.098071 
7092.000000	65.073657 
7091.000000	65.036916 
7090.000000	64.993500 
7089.000000	64.946031 
7088.000000	64.896035 
7087.000000	64.845633 
7086.000000	64.798974 
7085.000000	64.762449 
7084.000000	64.744353 
7083.000000	64.752388 
7082.000000	64.791274 
7081.000000	64.860057 
7080.000000	64.950776 
7079.000000	65.049266 
7078.000000	65.137481 
7077.000000	65.198040 
7076.000000	65.217828 
7075.000000	65.192365 
7074.000000	65.126347 
7073.000000	65.034317 
7072.000000	64.935278 
7071.000000	64.851784 
7070.000000	64.805269 
7069.000000	64.811325 
7068.000000	64.875364 
7067.000000	64.994692 
7066.000000	65.160727 
7065.000000	65.357375 
7064.000000	65.563631 
7063.000000	65.758633 
7062.000000	65.924501 
7061.000000	66.046404 
7060.000000	66.113734 
7059.000000	66.120910 
7058.000000	66.066360 
7057.000000	65.955352 
7056.000000	65.796208 
7055.000000	65.598893 
7054.000000	65.372061 
7053.000000	65.128040 
7052.000000	64.876437 
7051.000000	64.623022 
7050.000000	64.370536 
7049.000000	64.121174 
7048.000000	63.877820 
7047.000000	63.647127 
7046.000000	63.436508 
7045.000000	63.254761 
7044.000000	63.105082 
7043.000000	62.984514 
7042.000000	62.878870 
7041.000000	62.765216 
7040.000000	62.614107 
7039.000000	62.396550 
7038.000000	62.091636 
7037.000000	61.694002 
7036.000000	61.217355 
7035.000000	60.696172 
7034.000000	60.178399 
7033.000000	59.721326 
7032.000000	59.382510 
7031.000000	59.214615 
7030.000000	59.251999 
7029.000000	59.510493 
7028.000000	59.987068 
7027.000000	60.657882 
7026.000000	61.482405 
7025.000000	62.401247 
7024.000000	63.337516 
7023.000000	64.206361 
7022.000000	64.922547 
7021.000000	65.417075 
7020.000000	65.647149 
7019.000000	65.607500 
7018.000000	65.335941 
7017.000000	64.901232 
7016.000000	64.392066 
7015.000000	63.897538 
7014.000000	63.494181 
7013.000000	63.230204 
7012.000000	63.123011 
7011.000000	63.158822 
7010.000000	63.303375 
7009.000000	63.503503 
7008.000000	63.700819 
7007.000000	63.838529 
7006.000000	63.874030 
7005.000000	63.781237 
7004.000000	63.559770 
7003.000000	63.231968 
7002.000000	62.843585 
7001.000000	62.455081 
7000.000000	62.131643 
6999.000000	61.932539 
6998.000000	61.895751 
6997.000000	62.034440 
6996.000000	62.327432 
6995.000000	62.723588 
6994.000000	63.151121 
6993.000000	63.533425 
6992.000000	63.805103 
6991.000000	63.921475 
6990.000000	63.872671 
6989.000000	63.681817 
6988.000000	63.399958 
6987.000000	63.090443 
6986.000000	62.816572 
6985.000000	62.626743 
6984.000000	62.547445 
6983.000000	62.580919 
6982.000000	62.707901 
6981.000000	62.895727 
6980.000000	63.109493 
6979.000000	63.319683 
6978.000000	63.504362 
6977.000000	63.650798 
6976.000000	63.752102 
6975.000000	63.805627 
6974.000000	63.807797 
6973.000000	63.755774 
6972.000000	63.648176 
6971.000000	63.489103 
6970.000000	63.290929 
6969.000000	63.075566 
6968.000000	62.874174 
6967.000000	62.720775 
6966.000000	62.646794 
6965.000000	62.672066 
6964.000000	62.799429 
6963.000000	63.012647 
6962.000000	63.280868 
6961.000000	63.560581 
6960.000000	63.804674 
6959.000000	63.970279 
6958.000000	64.027118 
6957.000000	63.964009 
6956.000000	63.790941 
6955.000000	63.540530 
6954.000000	63.261437 
6953.000000	63.012957 
6952.000000	62.851977 
6951.000000	62.822556 
6950.000000	62.944555 
6949.000000	63.210129 
6948.000000	63.583350 
6947.000000	64.008665 
6946.000000	64.421033 
6945.000000	64.759659 
6944.000000	64.979362 
6943.000000	65.058398 
6942.000000	64.999508 
6941.000000	64.826774 
6940.000000	64.575910 
6939.000000	64.283919 
6938.000000	63.982033 
6937.000000	63.691639 
6936.000000	63.425064 
6935.000000	63.190126 
6934.000000	62.994050 
6933.000000	62.849140 
6932.000000	62.768936 
6931.000000	62.765979 
6930.000000	62.844753 
6929.000000	62.997412 
6928.000000	63.203477 
6927.000000	63.432049 
6926.000000	63.648295 
6925.000000	63.821339 
6924.000000	63.931393 
6923.000000	63.974404 
6922.000000	63.962602 
6921.000000	63.920378 
6920.000000	63.875913 
6919.000000	63.853693 
6918.000000	63.867473 
6917.000000	63.917756 
6916.000000	63.995575 
6915.000000	64.083981 
6914.000000	64.165806 
6913.000000	64.226818 
6912.000000	64.260458 
6911.000000	64.268136 
6910.000000	64.256501 
6909.000000	64.236998 
6908.000000	64.220142 
6907.000000	64.215946 
6906.000000	64.231657 
6905.000000	64.270472 
6904.000000	64.331531 
6903.000000	64.412140 
6902.000000	64.509367 
6901.000000	64.621043 
6900.000000	64.745593 
6899.000000	64.883184 
6898.000000	65.033221 
6897.000000	65.193057 
6896.000000	65.354967 
6895.000000	65.506148 
6894.000000	65.628266 
6893.000000	65.701079 
6892.000000	65.706300 
6891.000000	65.630936 
6890.000000	65.473985 
6889.000000	65.250086 
6888.000000	64.988493 
6887.000000	64.728283 
6886.000000	64.510536 
6885.000000	64.371466 
6884.000000	64.332103 
6883.000000	64.393162 
6882.000000	64.535903 
6881.000000	64.727067 
6880.000000	64.927935 
6879.000000	65.102696 
6878.000000	65.228939 
6877.000000	65.300965 
6876.000000	65.331149 
6875.000000	65.343618 
6874.000000	65.366649 
6873.000000	65.422916 
6872.000000	65.523505 
6871.000000	65.663814 
6870.000000	65.828466 
6869.000000	65.993022 
6868.000000	66.133284 
6867.000000	66.226625 
6866.000000	66.258072 
6865.000000	66.218543 
6864.000000	66.105723 
6863.000000	65.921521 
6862.000000	65.671777 
6861.000000	65.365123 
6860.000000	65.014219 
6859.000000	64.635324 
6858.000000	64.248228 
6857.000000	63.876032 
6856.000000	63.542938 
6855.000000	63.272547 
6854.000000	63.082098 
6853.000000	62.984061 
6852.000000	62.981748 
6851.000000	63.072752 
6850.000000	63.247680 
6849.000000	63.490056 
6848.000000	63.776063 
6847.000000	64.074873 
6846.000000	64.351606 
6845.000000	64.568543 
6844.000000	64.692378 
6843.000000	64.702439 
6842.000000	64.596176 
6841.000000	64.393448 
6840.000000	64.131760 
6839.000000	63.859844 
6838.000000	63.624978 
6837.000000	63.464403 
6836.000000	63.395738 
6835.000000	63.413953 
6834.000000	63.496065 
6833.000000	63.609385 
6832.000000	63.722419 
6831.000000	63.813400 
6830.000000	63.876080 
6829.000000	63.920307 
6828.000000	63.964056 
6827.000000	64.023256 
6826.000000	64.105200 
6825.000000	64.203000 
6824.000000	64.296960 
6823.000000	64.359712 
6822.000000	64.366030 
6821.000000	64.301824 
6820.000000	64.168262 
6819.000000	63.983082 
6818.000000	63.774180 
6817.000000	63.573861 
6816.000000	63.410449 
6815.000000	63.303947 
6814.000000	63.262033 
6813.000000	63.282179 
6812.000000	63.356614 
6811.000000	63.475537 
6810.000000	63.630652 
6809.000000	63.815331 
6808.000000	64.022755 
6807.000000	64.244532 
6806.000000	64.466714 
6805.000000	64.672565 
6804.000000	64.842367 
6803.000000	64.959836 
6802.000000	65.017962 
6801.000000	65.018343 
6800.000000	64.972734 
6799.000000	64.897489 
6798.000000	64.811801 
6797.000000	64.729046 
6796.000000	64.654850 
6795.000000	64.585399 
6794.000000	64.510726 
6793.000000	64.420318 
6792.000000	64.309167 
6791.000000	64.181900 
6790.000000	64.053130 
6789.000000	63.944578 
6788.000000	63.878512 
6787.000000	63.870167 
6786.000000	63.921618 
6785.000000	64.019250 
6784.000000	64.136123 
6783.000000	64.236283 
6782.000000	64.286804 
6781.000000	64.265036 
6780.000000	64.169335 
6779.000000	64.014148 
6778.000000	63.835811 
6777.000000	63.683223 
6776.000000	63.607883 
6775.000000	63.650417 
6774.000000	63.829517 
6773.000000	64.137339 
6772.000000	64.536976 
6771.000000	64.971590 
6770.000000	65.373706 
6769.000000	65.680885 
6768.000000	65.848660 
6767.000000	65.860319 
6766.000000	65.727925 
6765.000000	65.487766 
6764.000000	65.193605 
6763.000000	64.902424 
6762.000000	64.663672 
6761.000000	64.505863 
6760.000000	64.437079 
6759.000000	64.438986 
6758.000000	64.475965 
6757.000000	64.499878 
6756.000000	64.463186 
6755.000000	64.329075 
6754.000000	64.077830 
6753.000000	63.714480 
6752.000000	63.263320 
6751.000000	62.768983 
6750.000000	62.283420 
6749.000000	61.860775 
6748.000000	61.544919 
6747.000000	61.364889 
6746.000000	61.329483 
6745.000000	61.429333 
6744.000000	61.638832 
6743.000000	61.925649 
6742.000000	62.256288 
6741.000000	62.602305 
6740.000000	62.941408 
6739.000000	63.261365 
6738.000000	63.556575 
6737.000000	63.824439 
6736.000000	64.060521 
6735.000000	64.257168 
6734.000000	64.401865 
6733.000000	64.482522 
6732.000000	64.488196 
6731.000000	64.413022 
6730.000000	64.259266 
6729.000000	64.042305 
6728.000000	63.788533 
6727.000000	63.530707 
6726.000000	63.304686 
6725.000000	63.143682 
6724.000000	63.072443 
6723.000000	63.104319 
6722.000000	63.236260 
6721.000000	63.452386 
6720.000000	63.721108 
6719.000000	64.000320 
6718.000000	64.244413 
6717.000000	64.412546 
6716.000000	64.475870 
6715.000000	64.421701 
6714.000000	64.259243 
6713.000000	64.016866 
6712.000000	63.737201 
6711.000000	63.468098 
6710.000000	63.253092 
6709.000000	63.123083 
6708.000000	63.093304 
6707.000000	63.161659 
6706.000000	63.310909 
6705.000000	63.514113 
6704.000000	63.742756 
6703.000000	63.971805 
6702.000000	64.181661 
6701.000000	64.361023 
6700.000000	64.503908 
6699.000000	64.609813 
6698.000000	64.678478 
6697.000000	64.711427 
6696.000000	64.710307 
6695.000000	64.679765 
6694.000000	64.628839 
6693.000000	64.571094 
6692.000000	64.524102 
6691.000000	64.506578 
6690.000000	64.534711 
6689.000000	64.619636 
6688.000000	64.765286 
6687.000000	64.965367 
6686.000000	65.203547 
6685.000000	65.457987 
6684.000000	65.704870 
6683.000000	65.921330 
6682.000000	66.088628 
6681.000000	66.194367 
6680.000000	66.233444 
6679.000000	66.209101 
6678.000000	66.130566 
6677.000000	66.011118 
6676.000000	65.865278 
6675.000000	65.709543 
6674.000000	65.557718 
6673.000000	65.422296 
6672.000000	65.310525 
6671.000000	65.225458 
6670.000000	65.164613 
6669.000000	65.123414 
6668.000000	65.094065 
6667.000000	65.068054 
6666.000000	65.036177 
6665.000000	64.990544 
6664.000000	64.923429 
6663.000000	64.828944 
6662.000000	64.701342 
6661.000000	64.535975 
6660.000000	64.330053 
6659.000000	64.084458 
6658.000000	63.805460 
6657.000000	63.506531 
6656.000000	63.208270 
6655.000000	62.937068 
6654.000000	62.722325 
6653.000000	62.591552 
6652.000000	62.563204 
6651.000000	62.642717 
6650.000000	62.821006 
6649.000000	63.074517 
6648.000000	63.366293 
6647.000000	63.654780 
6646.000000	63.899827 
6645.000000	64.072513 
6644.000000	64.157485 
6643.000000	64.157819 
6642.000000	64.090991 
6641.000000	63.985824 
6640.000000	63.875818 
6639.000000	63.790273 
6638.000000	63.748383 
6637.000000	63.756203 
6636.000000	63.809037 
6635.000000	63.892102 
6634.000000	63.986611 
6633.000000	64.075660 
6632.000000	64.149188 
6631.000000	64.205598 
6630.000000	64.250349 
6629.000000	64.294052 
6628.000000	64.346504 
6627.000000	64.410018 
6626.000000	64.476418 
6625.000000	64.530277 
6624.000000	64.550447 
6623.000000	64.515042 
6622.000000	64.407348 
6621.000000	64.223384 
6620.000000	63.972735 
6619.000000	63.676691 
6618.000000	63.365721 
6617.000000	63.071036 
6616.000000	62.822914 
6615.000000	62.644672 
6614.000000	62.551379 
6613.000000	62.547039 
6612.000000	62.627315 
6611.000000	62.781167 
6610.000000	62.992095 
6609.000000	63.239002 
6608.000000	63.499116 
6607.000000	63.749098 
6606.000000	63.967919 
6605.000000	64.138150 
6604.000000	64.252710 
6603.000000	64.316129 
6602.000000	64.344406 
6601.000000	64.361763 
6600.000000	64.398241 
6599.000000	64.481353 
6598.000000	64.630699 
6597.000000	64.850878 
6596.000000	65.130758 
6595.000000	65.443658 
6594.000000	65.754961 
6593.000000	66.027736 
6592.000000	66.231632 
6591.000000	66.348218 
6590.000000	66.376090 
6589.000000	66.327786 
6588.000000	66.225767 
6587.000000	66.096138 
6586.000000	65.964889 
6585.000000	65.849089 
6584.000000	65.756678 
6583.000000	65.683603 
6582.000000	65.621757 
6581.000000	65.554428 
6580.000000	65.463542 
6579.000000	65.331172 
6578.000000	65.145015 
6577.000000	64.901709 
6576.000000	64.609503 
6575.000000	64.286470 
6574.000000	63.958549 
6573.000000	63.656449 
6572.000000	63.410854 
6571.000000	63.244724 
6570.000000	63.170957 
6569.000000	63.190960 
6568.000000	63.295483 
6567.000000	63.464188 
6566.000000	63.672208 
6565.000000	63.893246 
6564.000000	64.106082 
6563.000000	64.291548 
6562.000000	64.441061 
6561.000000	64.553427 
6560.000000	64.637494 
6559.000000	64.704871 
6558.000000	64.772295 
6557.000000	64.857649 
6556.000000	64.975762 
6555.000000	65.137195 
6554.000000	65.340757 
6553.000000	65.573930 
6552.000000	65.813589 
6551.000000	66.031551 
6550.000000	66.198563 
6549.000000	66.290998 
6548.000000	66.297960 
6547.000000	66.222929 
6546.000000	66.081523 
6545.000000	65.896558 
6544.000000	65.694022 
6543.000000	65.495610 
6542.000000	65.315532 
6541.000000	65.156865 
6540.000000	65.017414 
6539.000000	64.888167 
6538.000000	64.758896 
6537.000000	64.619922 
6536.000000	64.466166 
6535.000000	64.297318 
6534.000000	64.115309 
6533.000000	63.926362 
6532.000000	63.735651 
6531.000000	63.552093 
6530.000000	63.385200 
6529.000000	63.247776 
6528.000000	63.152313 
6527.000000	63.112425 
6526.000000	63.139009 
6525.000000	63.237524 
6524.000000	63.404536 
6523.000000	63.627862 
6522.000000	63.887047 
6521.000000	64.155077 
6520.000000	64.402699 
6519.000000	64.602947 
6518.000000	64.736366 
6517.000000	64.792418 
6516.000000	64.773440 
6515.000000	64.692974 
6514.000000	64.575767 
6513.000000	64.452695 
6512.000000	64.356923 
6511.000000	64.317798 
6510.000000	64.356064 
6509.000000	64.482140 
6508.000000	64.692378 
6507.000000	64.971852 
6506.000000	65.294170 
6505.000000	65.627026 
6504.000000	65.935945 
6503.000000	66.189289 
6502.000000	66.364121 
6501.000000	66.449475 
6500.000000	66.447591 
6499.000000	66.371774 
6498.000000	66.245102 
6497.000000	66.096019 
6496.000000	65.951108 
6495.000000	65.830159 
6494.000000	65.743613 
6493.000000	65.691637 
6492.000000	65.665650 
6491.000000	65.651917 
6490.000000	65.635919 
6489.000000	65.606307 
6488.000000	65.559840 
6487.000000	65.499401 
6486.000000	65.431785 
6485.000000	65.363311 
6484.000000	65.296554 
6483.000000	65.228176 
6482.000000	65.147614 
6481.000000	65.042829 
6480.000000	64.903283 
6479.000000	64.728021 
6478.000000	64.526557 
6477.000000	64.322161 
6476.000000	64.146566 
6475.000000	64.034891 
6474.000000	64.015531 
6473.000000	64.104819 
6472.000000	64.301490 
6471.000000	64.586567 
6470.000000	64.926195 
6469.000000	65.280389 
6468.000000	65.610766 
6467.000000	65.887451 
6466.000000	66.092801 
6465.000000	66.220784 
6464.000000	66.274857 
6463.000000	66.263818 
6462.000000	66.198086 
6461.000000	66.089558 
6460.000000	65.948009 
6459.000000	65.784645 
6458.000000	65.608763 
6457.000000	65.431380 
6456.000000	65.262079 
6455.000000	65.110397 
6454.000000	64.984369 
6453.000000	64.888119 
6452.000000	64.825463 
6451.000000	64.798688 
6450.000000	64.810848 
6449.000000	64.863657 
6448.000000	64.958262 
6447.000000	65.093564 
6446.000000	65.262913 
6445.000000	65.452337 
6444.000000	65.642046 
6443.000000	65.808606 
6442.000000	65.931797 
6441.000000	65.998101 
6440.000000	66.004467 
6439.000000	65.956330 
6438.000000	65.863990 
6437.000000	65.737199 
6436.000000	65.579843 
6435.000000	65.389680 
6434.000000	65.160632 
6433.000000	64.888882 
6432.000000	64.577937 
6431.000000	64.244437 
6430.000000	63.916802 
6429.000000	63.634610 
6428.000000	63.437461 
6427.000000	63.360810 
6426.000000	63.424301 
6425.000000	63.629722 
6424.000000	63.956332 
6423.000000	64.367628 
6422.000000	64.817214 
6421.000000	65.257120 
6420.000000	65.646076 
6419.000000	65.952730 
6418.000000	66.158056 
6417.000000	66.255283 
6416.000000	66.247987 
6415.000000	66.150093 
6414.000000	65.983009 
6413.000000	65.775394 
6412.000000	65.559029 
6411.000000	65.366029 
6410.000000	65.223121 
6409.000000	65.149450 
6408.000000	65.151762 
6407.000000	65.224599 
6406.000000	65.350151 
6405.000000	65.503716 
6404.000000	65.656805 
6403.000000	65.781736 
6402.000000	65.856647 
6401.000000	65.868091 
6400.000000	65.813088 
6399.000000	65.695834 
6398.000000	65.529417 
6397.000000	65.331625 
6396.000000	65.124464 
6395.000000	64.930939 
6394.000000	64.772772 
6393.000000	64.668822 
6392.000000	64.630365 
6391.000000	64.660620 
6390.000000	64.750933 
6389.000000	64.882111 
6388.000000	65.030717 
6387.000000	65.174174 
6386.000000	65.294384 
6385.000000	65.381264 
6384.000000	65.434741 
6383.000000	65.463399 
6382.000000	65.480661 
6381.000000	65.500187 
6380.000000	65.531992 
6379.000000	65.578961 
6378.000000	65.638041 
6377.000000	65.700173 
6376.000000	65.754032 
6375.000000	65.789103 
6374.000000	65.799498 
6373.000000	65.786075 
6372.000000	65.757107 
6371.000000	65.725874 
6370.000000	65.707063 
6369.000000	65.712594 
6368.000000	65.748691 
6367.000000	65.812826 
6366.000000	65.895366 
6365.000000	65.978550 
6364.000000	66.040992 
6363.000000	66.062116 
6362.000000	66.027736 
6361.000000	65.932679 
6360.000000	65.782737 
6359.000000	65.593743 
6358.000000	65.388250 
6357.000000	65.191340 
6356.000000	65.025305 
6355.000000	64.904785 
6354.000000	64.834499 
6353.000000	64.810919 
6352.000000	64.823246 
6351.000000	64.857578 
6350.000000	64.899230 
6349.000000	64.934206 
6348.000000	64.952659 
6347.000000	64.948058 
6346.000000	64.920067 
6345.000000	64.871382 
6344.000000	64.809584 
6343.000000	64.743351 
6342.000000	64.683675 
6341.000000	64.642071 
6340.000000	64.628219 
6339.000000	64.648246 
6338.000000	64.703226 
6337.000000	64.789056 
6336.000000	64.896035 
6335.000000	65.010452 
6334.000000	65.115737 
6333.000000	65.195345 
6332.000000	65.235018 
6331.000000	65.225720 
6330.000000	65.163779 
6329.000000	65.053629 
6328.000000	64.906549 
6327.000000	64.741873 
6326.000000	64.584374 
6325.000000	64.461898 
6324.000000	64.402365 
6323.000000	64.426684 
6322.000000	64.545917 
6321.000000	64.754366 
6320.000000	65.031504 
6319.000000	65.340852 
6318.000000	65.637087 
6317.000000	65.872645 
6316.000000	66.006851 
6315.000000	66.014552 
6314.000000	65.891003 
6313.000000	65.653848 
6312.000000	65.339183 
6311.000000	64.995098 
6310.000000	64.671874 
6309.000000	64.412975 
6308.000000	64.247465 
6307.000000	64.186358 
6306.000000	64.222621 
6305.000000	64.335107 
6304.000000	64.494562 
6303.000000	64.669370 
6302.000000	64.831972 
6301.000000	64.961075 
6300.000000	65.044879 
6299.000000	65.078830 
6298.000000	65.065956 
6297.000000	65.013504 
6296.000000	64.931249 
6295.000000	64.829349 
6294.000000	64.717054 
6293.000000	64.605164 
6292.000000	64.501905 
6291.000000	64.414191 
6290.000000	64.345288 
6289.000000	64.296531 
6288.000000	64.265513 
6287.000000	64.247083 
6286.000000	64.234042 
6285.000000	64.217948 
6284.000000	64.192700 
6283.000000	64.155793 
6282.000000	64.109301 
6281.000000	64.059042 
6280.000000	64.014482 
6279.000000	63.986396 
6278.000000	63.983988 
6277.000000	64.012670 
6276.000000	64.073061 
6275.000000	64.160823 
6274.000000	64.266610 
6273.000000	64.379191 
6272.000000	64.486956 
6271.000000	64.582419 
6270.000000	64.661478 
6269.000000	64.727330 
6268.000000	64.788365 
6267.000000	64.857554 
6266.000000	64.948868 
6265.000000	65.072774 
6264.000000	65.233016 
6263.000000	65.423941 
6262.000000	65.633034 
6261.000000	65.840435 
6260.000000	66.024231 
6259.000000	66.163372 
6258.000000	66.244959 
6257.000000	66.260433 
6256.000000	66.207528 
6255.000000	66.087651 
6254.000000	65.906119 
6253.000000	65.668463 
6252.000000	65.381002 
6251.000000	65.051579 
6250.000000	64.691591 
6249.000000	64.318013 
6248.000000	63.954210 
6247.000000	63.627195 
6246.000000	63.365101 
6245.000000	63.192510 
6244.000000	63.126420 
6243.000000	63.168716 
6242.000000	63.308453 
6241.000000	63.521194 
6240.000000	63.775944 
6239.000000	64.036560 
6238.000000	64.273357 
6237.000000	64.464426 
6236.000000	64.603495 
6235.000000	64.694428 
6234.000000	64.754939 
6233.000000	64.808845 
6232.000000	64.881658 
6231.000000	64.993906 
6230.000000	65.154910 
6229.000000	65.361166 
6228.000000	65.595245 
6227.000000	65.830802 
6226.000000	66.036224 
6225.000000	66.182017 
6224.000000	66.246366 
6223.000000	66.219472 
6222.000000	66.103601 
6221.000000	65.912413 
6220.000000	65.668487 
6219.000000	65.398788 
6218.000000	65.129995 
6217.000000	64.884400 
6216.000000	64.680695 
6215.000000	64.529728 
6214.000000	64.434814 
6213.000000	64.391636 
6212.000000	64.391660 
6211.000000	64.422464 
6210.000000	64.468097 
6209.000000	64.514183 
6208.000000	64.545702 
6207.000000	64.555668 
6206.000000	64.544248 
6205.000000	64.520025 
6204.000000	64.495921 
6203.000000	64.486765 
6202.000000	64.504861 
6201.000000	64.555168 
6200.000000	64.632987 
6199.000000	64.725327 
6198.000000	64.813637 
6197.000000	64.877319 
6196.000000	64.898705 
6195.000000	64.866518 
6194.000000	64.779686 
6193.000000	64.645051 
6192.000000	64.479565 
6191.000000	64.307212 
6190.000000	64.157533 
6189.000000	64.059686 
6188.000000	64.038419 
6187.000000	64.110326 
6186.000000	64.278435 
6185.000000	64.533352 
6184.000000	64.850378 
6183.000000	65.192174 
6182.000000	65.515542 
6181.000000	65.778732 
6180.000000	65.950202 
6179.000000	66.013360 
6178.000000	65.970945 
6177.000000	65.844035 
6176.000000	65.664339 
6175.000000	65.467000 
6174.000000	65.281343 
6173.000000	65.125679 
6172.000000	65.005445 
6171.000000	64.914774 
6170.000000	64.841842 
6169.000000	64.773583 
6168.000000	64.698767 
6167.000000	64.610671 
6166.000000	64.506196 
6165.000000	64.386200 
6164.000000	64.252090 
6163.000000	64.107537 
6162.000000	63.954782 
6161.000000	63.799715 
6160.000000	63.649582 
6159.000000	63.517761 
6158.000000	63.420152 
6157.000000	63.376116 
6156.000000	63.402795 
6155.000000	63.512229 
6154.000000	63.705468 
6153.000000	63.972258 
6152.000000	64.291310 
6151.000000	64.631533 
6150.000000	64.955878 
6149.000000	65.228748 
6148.000000	65.422630 
6147.000000	65.521836 
6146.000000	65.524911 
6145.000000	65.445375 
6144.000000	65.308094 
6143.000000	65.146470 
6142.000000	64.994859 
6141.000000	64.881992 
6140.000000	64.824676 
6139.000000	64.827442 
6138.000000	64.881491 
6137.000000	64.968085 
6136.000000	65.064406 
6135.000000	65.148472 
6134.000000	65.206146 
6133.000000	65.233349 
6132.000000	65.236330 
6131.000000	65.229225 
6130.000000	65.226602 
6129.000000	65.238809 
6128.000000	65.265536 
6127.000000	65.296697 
6126.000000	65.311670 
6125.000000	65.285730 
6124.000000	65.197324 
6123.000000	65.036129 
6122.000000	64.807105 
6121.000000	64.531230 
6120.000000	64.242243 
6119.000000	63.978934 
6118.000000	63.777852 
6117.000000	63.664698 
6116.000000	63.648438 
6115.000000	63.719153 
6114.000000	63.851499 
6113.000000	64.010500 
6112.000000	64.159607 
6111.000000	64.268755 
6110.000000	64.318156 
6109.000000	64.302635 
6108.000000	64.228558 
6107.000000	64.112973 
6106.000000	63.975739 
6105.000000	63.837862 
6104.000000	63.716006 
6103.000000	63.623452 
6102.000000	63.568711 
6101.000000	63.557910 
6100.000000	63.595676 
6099.000000	63.685297 
6098.000000	63.827443 
6097.000000	64.019203 
6096.000000	64.251756 
6095.000000	64.510703 
6094.000000	64.776301 
6093.000000	65.025949 
6092.000000	65.237259 
6091.000000	65.393257 
6090.000000	65.485072 
6089.000000	65.514469 
6088.000000	65.492582 
6087.000000	65.436577 
6086.000000	65.365338 
6085.000000	65.296840 
6084.000000	65.244030 
6083.000000	65.213227 
6082.000000	65.204453 
6081.000000	65.213847 
6080.000000	65.236473 
6079.000000	65.268921 
6078.000000	65.311479 
6077.000000	65.366625 
6076.000000	65.439391 
6075.000000	65.535092 
6074.000000	65.655851 
6073.000000	65.799260 
6072.000000	65.955018 
6071.000000	66.106963 
6070.000000	66.233134 
6069.000000	66.311597 
6068.000000	66.322422 
6067.000000	66.253376 
6066.000000	66.102194 
6065.000000	65.878438 
6064.000000	65.603256 
6063.000000	65.306472 
6062.000000	65.021324 
6061.000000	64.779019 
6060.000000	64.604902 
6059.000000	64.514589 
6058.000000	64.511561 
6057.000000	64.587831 
6056.000000	64.726972 
6055.000000	64.907050 
6054.000000	65.104341 
6053.000000	65.296339 
6052.000000	65.462446 
6051.000000	65.586876 
6050.000000	65.657830 
6049.000000	65.670084 
6048.000000	65.622949 
6047.000000	65.523099 
6046.000000	65.383458 
6045.000000	65.222859 
6044.000000	65.064120 
6043.000000	64.930295 
6042.000000	64.841818 
6041.000000	64.811372 
6040.000000	64.842367 
6039.000000	64.926934 
6038.000000	65.047669 
6037.000000	65.182113 
6036.000000	65.307712 
6035.000000	65.405583 
6034.000000	65.464401 
6033.000000	65.481472 
6032.000000	65.462660 
6031.000000	65.419507 
6030.000000	65.366816 
6029.000000	65.317606 
6028.000000	65.282201 
6027.000000	65.267825 
6026.000000	65.278387 
6025.000000	65.316224 
6024.000000	65.381741 
6023.000000	65.474462 
6022.000000	65.591812 
6021.000000	65.728950 
6020.000000	65.878200 
6019.000000	66.028141 
6018.000000	66.166377 
6017.000000	66.281938 
6016.000000	66.366219 
6015.000000	66.415476 
6014.000000	66.428565 
6013.000000	66.407275 
6012.000000	66.353011 
6011.000000	66.266989 
6010.000000	66.148829 
6009.000000	65.998744 
6008.000000	65.819358 
6007.000000	65.618181 
6006.000000	65.409731 
6005.000000	65.214514 
6004.000000	65.055966 
6003.000000	64.955759 
6002.000000	64.928340 
6001.000000	64.977526 
6000.000000	65.093016 
5999.000000	65.253782 
5998.000000	65.431833 
5997.000000	65.599107 
5996.000000	65.732765 
5995.000000	65.819334 
5994.000000	65.855860 
5993.000000	65.848183 
5992.000000	65.806937 
5991.000000	65.743517 
5990.000000	65.667104 
5989.000000	65.582013 
5988.000000	65.489006 
5987.000000	65.385866 
5986.000000	65.271306 
5985.000000	65.145969 
5984.000000	65.014648 
5983.000000	64.885139 
5982.000000	64.767384 
5981.000000	64.670753 
5980.000000	64.602589 
5979.000000	64.566421 
5978.000000	64.561891 
5977.000000	64.586210 
5976.000000	64.634323 
5975.000000	64.698290 
5974.000000	64.769124 
5973.000000	64.837312 
5972.000000	64.894342 
5971.000000	64.932775 
5970.000000	64.948177 
5969.000000	64.938735 
5968.000000	64.906597 
5967.000000	64.857983 
5966.000000	64.801549 
5965.000000	64.746332 
5964.000000	64.700937 
5963.000000	64.672827 
5962.000000	64.666008 
5961.000000	64.681100 
5960.000000	64.714241 
5959.000000	64.758110 
5958.000000	64.803647 
5957.000000	64.842462 
5956.000000	64.867663 
5955.000000	64.875841 
5954.000000	64.868640 
5953.000000	64.853096 
5952.000000	64.840650 
5951.000000	64.844727 
5950.000000	64.879131 
5949.000000	64.952754 
5948.000000	65.067100 
5947.000000	65.212941 
5946.000000	65.372538 
5945.000000	65.520429 
5944.000000	65.629863 
5943.000000	65.676498 
5942.000000	65.644431 
5941.000000	65.528988 
5940.000000	65.338397 
5939.000000	65.092897 
5938.000000	64.819717 
5937.000000	64.550328 
5936.000000	64.314603 
5935.000000	64.137291 
5934.000000	64.035058 
5933.000000	64.013910 
5932.000000	64.069461 
5931.000000	64.188575 
5930.000000	64.352393 
5929.000000	64.539361 
5928.000000	64.728736 
5927.000000	64.902853 
5926.000000	65.049242 
5925.000000	65.162277 
5924.000000	65.242433 
5923.000000	65.295004 
5922.000000	65.326666 
5921.000000	65.344429 
5920.000000	65.351271 
5919.000000	65.347886 
5918.000000	65.329885 
5917.000000	65.291070 
5916.000000	65.223979 
5915.000000	65.124225 
5914.000000	64.991974 
5913.000000	64.833211 
5912.000000	64.660978 
5911.000000	64.492106 
5910.000000	64.347314 
5909.000000	64.246058 
5908.000000	64.204764 
5907.000000	64.232826 
5906.000000	64.330625 
5905.000000	64.488601 
5904.000000	64.688110 
5903.000000	64.904427 
5902.000000	65.109848 
5901.000000	65.278601 
5900.000000	65.390014 
5899.000000	65.432000 
5898.000000	65.403819 
5897.000000	65.315747 
5896.000000	65.186190 
5895.000000	65.038323 
5894.000000	64.896893 
5893.000000	64.782810 
5892.000000	64.711570 
5891.000000	64.689636 
5890.000000	64.715194 
5889.000000	64.778923 
5888.000000	64.868140 
5887.000000	64.968752 
5886.000000	65.067505 
5885.000000	65.154480 
5884.000000	65.223026 
5883.000000	65.270328 
5882.000000	65.295791 
5881.000000	65.300345 
5880.000000	65.285444 
5879.000000	65.251708 
5878.000000	65.199422 
5877.000000	65.128564 
5876.000000	65.040373 
5875.000000	64.936780 
5874.000000	64.821338 
5873.000000	64.698314 
5872.000000	64.573025 
5871.000000	64.450979 
5870.000000	64.338970 
5869.000000	64.242863 
5868.000000	64.169812 
5867.000000	64.128184 
5866.000000	64.127850 
5865.000000	64.177608 
5864.000000	64.283370 
5863.000000	64.445614 
5862.000000	64.656734 
5861.000000	64.900445 
5860.000000	65.152597 
5859.000000	65.384531 
5858.000000	65.567874 
5857.000000	65.680360 
5856.000000	65.709924 
5855.000000	65.657186 
5854.000000	65.535664 
5853.000000	65.369510 
5852.000000	65.187668 
5851.000000	65.018320 
5850.000000	64.883399 
5849.000000	64.795660 
5848.000000	64.756894 
5847.000000	64.759683 
5846.000000	64.790534 
5845.000000	64.834284 
5844.000000	64.877605 
5843.000000	64.911723 
5842.000000	64.932155 
5841.000000	64.938235 
5840.000000	64.930510 
5839.000000	64.909577 
5838.000000	64.874482 
5837.000000	64.823222 
5836.000000	64.752721 
5835.000000	64.662408 
5834.000000	64.555501 
5833.000000	64.441466 
5832.000000	64.335155 
5831.000000	64.255380 
5830.000000	64.220046 
5829.000000	64.243149 
5828.000000	64.330577 
5827.000000	64.477682 
5826.000000	64.668893 
5825.000000	64.881110 
5824.000000	65.088176 
5823.000000	65.265130 
5822.000000	65.392804 
5821.000000	65.459012 
5820.000000	65.459489 
5819.000000	65.397143 
5818.000000	65.280604 
5817.000000	65.121507 
5816.000000	64.933347 
5815.000000	64.730954 
5814.000000	64.529991 
5813.000000	64.347672 
5812.000000	64.201021 
5811.000000	64.105176 
5810.000000	64.070749 
5809.000000	64.101481 
5808.000000	64.193105 
5807.000000	64.331674 
5806.000000	64.497613 
5805.000000	64.667630 
5804.000000	64.820432 
5803.000000	64.939308 
5802.000000	65.015459 
5801.000000	65.047574 
5800.000000	65.041565 
5799.000000	65.007400 
5798.000000	64.957356 
5797.000000	64.903116 
5796.000000	64.854383 
5795.000000	64.817619 
5794.000000	64.796018 
5793.000000	64.789676 
5792.000000	64.795708 
5791.000000	64.809012 
5790.000000	64.822125 
5789.000000	64.826560 
5788.000000	64.814090 
5787.000000	64.778614 
5786.000000	64.716553 
5785.000000	64.628696 
5784.000000	64.521384 
5783.000000	64.404797 
5782.000000	64.290022 
5781.000000	64.187693 
5780.000000	64.105892 
5779.000000	64.049077 
5778.000000	64.017724 
5777.000000	64.008879 
5776.000000	64.017295 
5775.000000	64.036250 
5774.000000	64.058971 
5773.000000	64.078998 
5772.000000	64.089870 
5771.000000	64.087104 
5770.000000	64.068126 
5769.000000	64.033651 
5768.000000	63.987255 
5767.000000	63.936758 
5766.000000	63.893127 
5765.000000	63.868951 
5764.000000	63.875937 
5763.000000	63.922595 
5762.000000	64.012312 
5761.000000	64.141988 
5760.000000	64.302563 
5759.000000	64.481186 
5758.000000	64.663028 
5757.000000	64.834713 
5756.000000	64.984917 
5755.000000	65.105342 
5754.000000	65.190768 
5753.000000	65.238690 
5752.000000	65.249204 
5751.000000	65.224027 
5750.000000	65.167546 
5749.000000	65.088105 
5748.000000	64.996623 
5747.000000	64.906764 
5746.000000	64.831757 
5745.000000	64.783668 
5744.000000	64.768409 
5743.000000	64.785265 
5742.000000	64.824986 
5741.000000	64.872193 
5740.000000	64.908337 
5739.000000	64.916253 
5738.000000	64.884257 
5737.000000	64.809441 
5736.000000	64.698362 
5735.000000	64.565896 
5734.000000	64.430856 
5733.000000	64.312481 
5732.000000	64.225673 
5731.000000	64.178848 
5730.000000	64.172625 
5729.000000	64.201092 
5728.000000	64.254856 
5727.000000	64.323282 
5726.000000	64.396500 
5725.000000	64.467215 
5724.000000	64.530825 
5723.000000	64.585185 
5722.000000	64.627814 
5721.000000	64.656949 
5720.000000	64.670395 
5719.000000	64.667034 
5718.000000	64.647865 
5717.000000	64.616394 
5716.000000	64.578986 
5715.000000	64.543581 
5714.000000	64.518594 
5713.000000	64.508938 
5712.000000	64.515018 
5711.000000	64.531850 
5710.000000	64.550876 
5709.000000	64.562892 
5708.000000	64.561414 
5707.000000	64.544653 
5706.000000	64.516592 
5705.000000	64.485859 
5704.000000	64.463329 
5703.000000	64.458394 
5702.000000	64.476323 
5701.000000	64.515709 
5700.000000	64.569568 
5699.000000	64.627265 
5698.000000	64.677739 
5697.000000	64.712882 
5696.000000	64.729332 
5695.000000	64.729046 
5694.000000	64.718174 
5693.000000	64.704203 
5692.000000	64.694738 
5691.000000	64.694356 
5690.000000	64.705204 
5689.000000	64.726877 
5688.000000	64.757394 
5687.000000	64.794468 
5686.000000	64.834165 
5685.000000	64.871430 
5684.000000	64.899206 
5683.000000	64.909482 
5682.000000	64.893698 
5681.000000	64.845538 
5680.000000	64.763426 
5679.000000	64.652252 
5678.000000	64.524006 
5677.000000	64.395380 
5676.000000	64.284968 
5675.000000	64.208221 
5674.000000	64.173364 
5673.000000	64.179539 
5672.000000	64.215707 
5671.000000	64.265918 
5670.000000	64.312815 
5669.000000	64.344286 
5668.000000	64.356064 
5667.000000	64.353179 
5666.000000	64.347362 
5665.000000	64.353013 
5664.000000	64.381289 
5663.000000	64.436554 
5662.000000	64.513850 
5661.000000	64.601397 
5660.000000	64.684200 
5659.000000	64.748620 
5658.000000	64.786577 
5657.000000	64.798808 
5656.000000	64.794492 
5655.000000	64.787650 
5654.000000	64.792633 
5653.000000	64.819288 
5652.000000	64.869546 
5651.000000	64.937210 
5650.000000	65.008664 
5649.000000	65.068435 
5648.000000	65.101957 
5647.000000	65.100216 
5646.000000	65.061306 
5645.000000	64.990925 
5644.000000	64.901161 
5643.000000	64.806413 
5642.000000	64.721965 
5641.000000	64.659738 
5640.000000	64.628577 
5639.000000	64.633083 
5638.000000	64.674687 
5637.000000	64.751744 
5636.000000	64.861392 
5635.000000	64.999961 
5634.000000	65.162730 
5633.000000	65.343141 
5632.000000	65.532922 
5631.000000	65.721797 
5630.000000	65.898370 
5629.000000	66.051054 
5628.000000	66.170215 
5627.000000	66.249203 
5626.000000	66.285681 
5625.000000	66.281485 
5624.000000	66.243457 
5623.000000	66.181230 
5622.000000	66.106414 
5621.000000	66.029596 
5620.000000	65.960502 
5619.000000	65.904760 
5618.000000	65.865087 
5617.000000	65.839838 
5616.000000	65.825557 
5615.000000	65.816569 
5614.000000	65.806603 
5613.000000	65.790319 
5612.000000	65.764379 
5611.000000	65.728592 
5610.000000	65.684771 
5609.000000	65.638160 
5608.000000	65.595746 
5607.000000	65.565228 
5606.000000	65.553045 
5605.000000	65.563201 
5604.000000	65.595960 
5603.000000	65.647292 
5602.000000	65.709090 
5601.000000	65.770697 
5600.000000	65.820431 
5599.000000	65.847730 
5598.000000	65.844511 
5597.000000	65.807247 
5596.000000	65.736913 
5595.000000	65.638709 
5594.000000	65.520668 
5593.000000	65.392541 
5592.000000	65.263676 
5591.000000	65.142583 
5590.000000	65.034675 
5589.000000	64.942359 
5588.000000	64.864468 
5587.000000	64.797854 
5586.000000	64.737796 
5585.000000	64.679288 
5584.000000	64.618968 
5583.000000	64.554715 
5582.000000	64.488816 
5581.000000	64.426708 
5580.000000	64.377212 
5579.000000	64.349961 
5578.000000	64.354419 
5577.000000	64.397096 
5576.000000	64.479804 
5575.000000	64.598464 
5574.000000	64.743041 
5573.000000	64.898991 
5572.000000	65.049600 
5571.000000	65.178894 
5570.000000	65.274238 
5569.000000	65.328907 
5568.000000	65.342974 
5567.000000	65.322804 
5566.000000	65.279555 
5565.000000	65.225911 
5564.000000	65.174770 
5563.000000	65.134668 
5562.000000	65.110015 
5561.000000	65.098834 
5560.000000	65.096354 
5559.000000	65.093827 
5558.000000	65.081572 
5557.000000	65.051436 
5556.000000	64.999485 
5555.000000	64.926624 
5554.000000	64.838051 
5553.000000	64.743161 
5552.000000	64.652895 
5551.000000	64.577484 
5550.000000	64.524126 
5549.000000	64.495682 
5548.000000	64.490652 
5547.000000	64.504766 
5546.000000	64.532685 
5545.000000	64.568924 
5544.000000	64.609599 
5543.000000	64.653563 
5542.000000	64.701342 
5541.000000	64.752531 
5540.000000	64.805293 
5539.000000	64.855098 
5538.000000	64.896011 
5537.000000	64.920544 
5536.000000	64.923834 
5535.000000	64.905166 
5534.000000	64.870095 
5533.000000	64.830398 
5532.000000	64.800930 
5531.000000	64.795994 
5530.000000	64.825582 
5529.000000	64.892530 
5528.000000	64.991760 
5527.000000	65.111279 
5526.000000	65.235114 
5525.000000	65.347099 
5524.000000	65.433597 
5523.000000	65.485858 
5522.000000	65.500426 
5521.000000	65.478253 
5520.000000	65.422487 
5519.000000	65.336942 
5518.000000	65.225648 
5517.000000	65.092921 
5516.000000	64.944148 
5515.000000	64.786410 
5514.000000	64.630317 
5513.000000	64.488291 
5512.000000	64.373183 
5511.000000	64.295983 
5510.000000	64.262223 
5509.000000	64.272618 
5508.000000	64.322018 
5507.000000	64.401340 
5506.000000	64.498496 
5505.000000	64.601135 
5504.000000	64.697980 
5503.000000	64.780235 
5502.000000	64.841580 
5501.000000	64.878606 
5500.000000	64.890217 
5499.000000	64.877438 
5498.000000	64.842700 
5497.000000	64.790296 
5496.000000	64.726161 
5495.000000	64.657473 
5494.000000	64.592289 
5493.000000	64.539504 
5492.000000	64.507794 
5491.000000	64.504075 
5490.000000	64.532446 
5489.000000	64.593553 
5488.000000	64.683842 
5487.000000	64.796185 
5486.000000	64.919805 
5485.000000	65.040612 
5484.000000	65.144133 
5483.000000	65.217304 
5482.000000	65.251970 
5481.000000	65.245509 
5480.000000	65.202665 
5479.000000	65.135478 
5478.000000	65.059328 
5477.000000	64.989948 
5476.000000	64.938974 
5475.000000	64.912462 
5474.000000	64.908695 
5473.000000	64.920163 
5472.000000	64.934945 
5471.000000	64.940595 
5470.000000	64.926838 
5469.000000	64.888286 
5468.000000	64.824795 
5467.000000	64.741659 
5466.000000	64.648056 
5465.000000	64.555120 
5464.000000	64.473056 
5463.000000	64.409756 
5462.000000	64.369893 
5461.000000	64.354610 
5460.000000	64.362072 
5459.000000	64.388775 
5458.000000	64.429807 
5457.000000	64.481067 
5456.000000	64.538145 
5455.000000	64.598822 
5454.000000	64.661598 
5453.000000	64.726424 
5452.000000	64.793300 
5451.000000	64.861774 
5450.000000	64.929771 
5449.000000	64.993977 
5448.000000	65.050005 
5447.000000	65.093803 
5446.000000	65.122890 
5445.000000	65.136766 
5444.000000	65.137553 
5443.000000	65.128183 
5442.000000	65.111422 
5441.000000	65.088343 
5440.000000	65.057873 
5439.000000	65.017127 
5438.000000	64.962768 
5437.000000	64.892816 
5436.000000	64.808320 
5435.000000	64.713549 
5434.000000	64.616870 
5433.000000	64.529323 
5432.000000	64.463353 
5431.000000	64.428901 
5430.000000	64.432859 
5429.000000	64.477062 
5428.000000	64.558577 
5427.000000	64.670348 
5426.000000	64.802074 
5425.000000	64.942383 
5424.000000	65.079069 
5423.000000	65.200591 
5422.000000	65.296268 
5421.000000	65.356874 
5420.000000	65.375995 
5419.000000	65.351128 
5418.000000	65.283703 
5417.000000	65.179419 
5416.000000	65.047192 
5415.000000	64.898300 
5414.000000	64.744400 
5413.000000	64.596605 
5412.000000	64.465284 
5411.000000	64.359736 
5410.000000	64.287233 
5409.000000	64.253139 
5408.000000	64.259767 
5407.000000	64.307212 
5406.000000	64.391160 
5405.000000	64.505076 
5404.000000	64.639377 
5403.000000	64.784026 
5402.000000	64.928650 
5401.000000	65.064382 
5400.000000	65.184235 
5399.000000	65.283465 
5398.000000	65.359807 
5397.000000	65.412282 
5396.000000	65.441632 
5395.000000	65.448451 
5394.000000	65.433645 
5393.000000	65.397930 
5392.000000	65.343451 
5391.000000	65.272498 
5390.000000	65.188527 
5389.000000	65.094399 
5388.000000	64.992904 
5387.000000	64.885854 
5386.000000	64.774823 
5385.000000	64.661240 
5384.000000	64.547204 
5383.000000	64.436078 
5382.000000	64.332985 
5381.000000	64.243698 
5380.000000	64.174222 
5379.000000	64.128637 
5378.000000	64.109086 
5377.000000	64.114904 
5376.000000	64.142775 
5375.000000	64.186882 
5374.000000	64.239430 
5373.000000	64.291596 
5372.000000	64.334225 
5371.000000	64.358520 
5370.000000	64.357805 
5369.000000	64.328432 
5368.000000	64.270472 
5367.000000	64.187645 
5366.000000	64.087724 
5365.000000	63.981246 
5364.000000	63.880634 
5363.000000	63.797998 
5362.000000	63.743901 
5361.000000	63.725614 
5360.000000	63.744330 
5359.000000	63.794469 
5358.000000	63.864493 
5357.000000	63.938403 
5356.000000	63.997960 
5355.000000	64.026641 
5354.000000	64.011812 
5353.000000	63.949203 
5352.000000	63.843441 
5351.000000	63.708925 
5350.000000	63.566398 
5349.000000	63.439464 
5348.000000	63.350176 
5347.000000	63.313078 
5346.000000	63.331747 
5345.000000	63.398909 
5344.000000	63.498163 
5343.000000	63.609743 
5342.000000	63.716220 
5341.000000	63.805580 
5340.000000	63.874244 
5339.000000	63.922595 
5338.000000	63.952159 
5337.000000	63.961219 
5336.000000	63.943600 
5335.000000	63.885498 
5334.000000	63.768839 
5333.000000	63.580513 
5332.000000	63.318419 
5331.000000	62.994217 
5330.000000	62.634062 
5329.000000	62.276101 
5328.000000	61.963033 
5327.000000	61.731147 
5326.000000	61.604022 
5325.000000	61.585760 
5324.000000	61.663675 
5323.000000	61.811447 
5322.000000	61.997294 
5321.000000	62.192606 
5320.000000	62.375426 
5319.000000	62.531065 
5318.000000	62.653136 
5317.000000	62.737011 
5316.000000	62.783074 
5315.000000	62.790536 
5314.000000	62.764787 
5313.000000	62.714147 
5312.000000	62.659120 
5311.000000	62.630224 
5310.000000	62.665581 
5309.000000	62.802624 
5308.000000	63.070082 
5307.000000	63.479089 
5306.000000	64.014935 
5305.000000	64.636898 
5304.000000	65.283608 
5303.000000	65.885043 
5302.000000	66.377115 
5301.000000	66.715598 
5300.000000	66.883921 
5299.000000	66.897082 
5298.000000	66.798448 
5297.000000	66.647672 
5296.000000	66.507577 
5295.000000	66.427040 
5294.000000	66.438245 
5293.000000	66.542482 
5292.000000	66.718506 
5291.000000	66.922593 
5290.000000	67.107439 
5289.000000	67.227077 
5288.000000	67.251348 
5287.000000	67.167425 
5286.000000	66.981720 
5285.000000	66.714692 
5284.000000	66.394114 
5283.000000	66.047954 
5282.000000	65.698695 
5281.000000	65.361905 
5280.000000	65.047073 
5279.000000	64.760875 
5278.000000	64.510822 
5277.000000	64.307355 
5276.000000	64.164495 
5275.000000	64.093804 
5274.000000	64.103150 
5273.000000	64.193201 
5272.000000	64.357113 
5271.000000	64.573001 
5270.000000	64.813899 
5269.000000	65.052771 
5268.000000	65.269899 
5267.000000	65.452909 
5266.000000	65.601658 
5265.000000	65.725874 
5264.000000	65.840649 
5263.000000	65.961194 
5262.000000	66.095781 
5261.000000	66.242313 
5260.000000	66.388678 
5259.000000	66.517114 
5258.000000	66.609454 
5257.000000	66.654491 
5256.000000	66.652226 
5255.000000	66.615819 
5254.000000	66.568779 
5253.000000	66.538453 
5252.000000	66.549706 
5251.000000	66.616201 
5250.000000	66.734051 
5249.000000	66.879963 
5248.000000	67.017936 
5247.000000	67.105221 
5246.000000	67.103743 
5245.000000	66.988062 
5244.000000	66.752266 
5243.000000	66.411495 
5242.000000	65.997695 
5241.000000	65.554785 
5240.000000	65.127491 
5239.000000	64.756917 
5238.000000	64.474868 
5237.000000	64.300227 
5236.000000	64.238357 
5235.000000	64.281439 
5234.000000	64.412069 
5233.000000	64.604759 
5232.000000	64.828038 
5231.000000	65.051221 
5230.000000	65.246462 
5229.000000	65.393924 
5228.000000	65.481710 
5227.000000	65.509915 
5226.000000	65.487766 
5225.000000	65.431833 
5224.000000	65.360140 
5223.000000	65.287780 
5222.000000	65.222263 
5221.000000	65.163278 
5220.000000	65.102934 
5219.000000	65.029668 
5218.000000	64.932966 
5217.000000	64.808654 
5216.000000	64.661717 
5215.000000	64.505505 
5214.000000	64.360380 
5213.000000	64.247345 
5212.000000	64.184498 
5211.000000	64.180493 
5210.000000	64.233899 
5209.000000	64.333915 
5208.000000	64.461326 
5207.000000	64.592099 
5206.000000	64.703035 
5205.000000	64.776802 
5204.000000	64.803934 
5203.000000	64.783573 
5202.000000	64.723157 
5201.000000	64.635396 
5200.000000	64.536428 
5199.000000	64.442229 
5198.000000	64.366149 
5197.000000	64.316654 
5196.000000	64.296793 
5195.000000	64.304280 
5194.000000	64.332938 
5193.000000	64.374566 
5192.000000	64.420127 
5191.000000	64.462733 
5190.000000	64.497852 
5189.000000	64.525270 
5188.000000	64.547538 
5187.000000	64.569807 
5186.000000	64.597129 
5185.000000	64.633226 
5184.000000	64.678478 
5183.000000	64.730238 
5182.000000	64.783668 
5181.000000	64.833211 
5180.000000	64.874505 
5179.000000	64.905762 
5178.000000	64.928698 
5177.000000	64.947414 
5176.000000	64.967083 
5175.000000	64.991903 
5174.000000	65.023326 
5173.000000	65.060997 
5172.000000	65.103173 
5171.000000	65.147852 
5170.000000	65.193605 
5169.000000	65.240454 
5168.000000	65.289020 
5167.000000	65.340089 
5166.000000	65.392470 
5165.000000	65.441560 
5164.000000	65.479469 
5163.000000	65.496206 
5162.000000	65.482735 
5161.000000	65.434217 
5160.000000	65.351915 
5159.000000	65.245008 
5158.000000	65.127849 
5157.000000	65.018010 
5156.000000	64.931249 
5155.000000	64.877843 
5154.000000	64.860558 
5153.000000	64.874958 
5152.000000	64.910173 
5151.000000	64.952278 
5150.000000	64.987468 
5149.000000	65.005397 
5148.000000	65.000271 
5147.000000	64.971137 
5146.000000	64.921641 
5145.000000	64.858245 
5144.000000	64.788770 
5143.000000	64.720702 
5142.000000	64.660739 
5141.000000	64.613890 
5140.000000	64.583826 
5139.000000	64.572501 
5138.000000	64.580035 
5137.000000	64.604640 
5136.000000	64.642643 
5135.000000	64.689421 
5134.000000	64.740133 
5133.000000	64.790177 
5132.000000	64.836430 
5131.000000	64.876079 
5130.000000	64.906835 
5129.000000	64.925694 
5128.000000	64.929461 
5127.000000	64.914417 
5126.000000	64.877295 
5125.000000	64.816570 
5124.000000	64.734244 
5123.000000	64.635920 
5122.000000	64.530515 
5121.000000	64.429402 
5120.000000	64.344573 
5119.000000	64.286231 
5118.000000	64.260888 
5117.000000	64.269971 
5116.000000	64.309930 
5115.000000	64.373087 
5114.000000	64.449715 
5113.000000	64.530420 
5112.000000	64.607763 
5111.000000	64.676523 
5110.000000	64.734339 
5109.000000	64.780735 
5108.000000	64.816594 
5107.000000	64.843630 
5106.000000	64.863395 
5105.000000	64.877390 
5104.000000	64.886164 
5103.000000	64.890456 
5102.000000	64.890193 
5101.000000	64.885663 
5100.000000	64.877271 
5099.000000	64.866566 
5098.000000	64.855194 
5097.000000	64.845228 
5096.000000	64.838027 
5095.000000	64.834213 
5094.000000	64.833521 
5093.000000	64.835000 
5092.000000	64.837884 
5091.000000	64.842009 
5090.000000	64.848923 
5089.000000	64.861631 
5088.000000	64.884066 
5087.000000	64.919376 
5086.000000	64.969182 
5085.000000	65.031290 
5084.000000	65.099573 
5083.000000	65.164184 
5082.000000	65.213155 
5081.000000	65.235161 
5080.000000	65.223050 
5079.000000	65.175151 
5078.000000	65.096974 
5077.000000	64.999032 
5076.000000	64.895033 
5075.000000	64.798355 
5074.000000	64.719033 
5073.000000	64.661860 
5072.000000	64.626097 
5071.000000	64.606785 
5070.000000	64.597058 
5069.000000	64.590764 
5068.000000	64.584326 
5067.000000	64.577674 
5066.000000	64.573407 
5065.000000	64.575386 
5064.000000	64.586615 
5063.000000	64.607572 
5062.000000	64.635610 
5061.000000	64.665532 
5060.000000	64.690947 
5059.000000	64.706110 
5058.000000	64.707636 
5057.000000	64.695215 
5056.000000	64.671683 
5055.000000	64.641928 
5054.000000	64.611911 
5053.000000	64.587235 
5052.000000	64.572310 
5051.000000	64.569664 
5050.000000	64.579916 
5049.000000	64.602422 
5048.000000	64.634943 
5047.000000	64.674758 
5046.000000	64.718246 
5045.000000	64.761090 
5044.000000	64.799189 
5043.000000	64.828562 
5042.000000	64.846682 
5041.000000	64.852523 
5040.000000	64.847326 
5039.000000	64.834547 
5038.000000	64.819121 
5037.000000	64.806532 
5036.000000	64.801454 
5035.000000	64.806818 
5034.000000	64.822816 
5033.000000	64.847469 
5032.000000	64.877200 
5031.000000	64.908123 
5030.000000	64.936828 
5029.000000	64.961242 
5028.000000	64.980864 
5027.000000	64.996600 
5026.000000	65.010094 
5025.000000	65.022945 
5024.000000	65.035796 
5023.000000	65.048241 
5022.000000	65.059351 
5021.000000	65.067648 
5020.000000	65.072274 
5019.000000	65.072417 
5018.000000	65.068054 
5017.000000	65.059208 
5016.000000	65.045833 
5015.000000	65.027379 
5014.000000	65.002870 
5013.000000	64.971470 
5012.000000	64.933204 
5011.000000	64.889764 
5010.000000	64.844870 
5009.000000	64.804410 
5008.000000	64.775395 
5007.000000	64.764714 
5006.000000	64.777207 
5005.000000	64.814257 
5004.000000	64.872646 
5003.000000	64.944767 
5002.000000	65.019559 
5001.000000	65.084528 
5000.000000	65.128159 
4999.000000	65.142464 
4998.000000	65.124416 
4997.000000	65.075945 
4996.000000	65.003919 
4995.000000	64.918875 
4994.000000	64.832878 
4993.000000	64.756870 
4992.000000	64.699602 
4991.000000	64.666652 
4990.000000	64.660072 
4989.000000	64.679002 
4988.000000	64.720201 
4987.000000	64.779257 
4986.000000	64.850831 
4985.000000	64.929103 
4984.000000	65.008282 
4983.000000	65.082764 
4982.000000	65.147566 
4981.000000	65.198898 
4980.000000	65.234255 
4979.000000	65.252637 
4978.000000	65.256214 
4977.000000	65.248537 
4976.000000	65.234518 
4975.000000	65.217828 
4974.000000	65.201616 
4973.000000	65.185570 
4972.000000	65.166544 
4971.000000	65.138196 
4970.000000	65.093564 
4969.000000	65.026950 
4968.000000	64.936947 
4967.000000	64.827251 
4966.000000	64.706802 
4965.000000	64.588069 
4964.000000	64.484715 
4963.000000	64.407920 
4962.000000	64.363431 
4961.000000	64.350438 
4960.000000	64.361572 
4959.000000	64.385485 
4958.000000	64.409923 
4957.000000	64.426207 
4956.000000	64.431428 
4955.000000	64.429593 
4954.000000	64.430379 
4953.000000	64.446330 
4952.000000	64.489078 
4951.000000	64.565563 
4950.000000	64.675784 
4949.000000	64.812946 
4948.000000	64.964008 
4947.000000	65.113735 
4946.000000	65.246129 
4945.000000	65.348196 
4944.000000	65.410661 
4943.000000	65.429830 
4942.000000	65.406274 
4941.000000	65.344262 
4940.000000	65.250396 
4939.000000	65.133523 
4938.000000	65.002679 
4937.000000	64.867711 
4936.000000	64.737701 
4935.000000	64.621663 
4934.000000	64.526796 
4933.000000	64.458179 
4932.000000	64.418363 
4931.000000	64.407110 
4930.000000	64.422273 
4929.000000	64.460134 
4928.000000	64.516258 
4927.000000	64.586091 
4926.000000	64.665174 
4925.000000	64.749288 
4924.000000	64.833831 
4923.000000	64.913988 
4922.000000	64.985060 
4921.000000	65.043115 
4920.000000	65.085387 
4919.000000	65.110731 
4918.000000	65.120625 
4917.000000	65.117907 
4916.000000	65.106940 
4915.000000	65.091371 
4914.000000	65.074658 
4913.000000	65.057945 
4912.000000	65.040636 
4911.000000	65.020275 
4910.000000	64.994239 
4909.000000	64.960360 
4908.000000	64.918708 
4907.000000	64.871048 
4906.000000	64.820575 
4905.000000	64.771771 
4904.000000	64.729261 
4903.000000	64.697384 
4902.000000	64.679265 
4901.000000	64.676856 
4900.000000	64.690184 
4899.000000	64.717698 
4898.000000	64.756107 
4897.000000	64.800548 
4896.000000	64.845108 
4895.000000	64.883875 
4894.000000	64.911603 
4893.000000	64.924407 
4892.000000	64.920043 
4891.000000	64.898657 
4890.000000	64.862346 
4889.000000	64.814758 
4888.000000	64.760613 
4887.000000	64.704728 
4886.000000	64.651679 
4885.000000	64.605474 
4884.000000	64.569139 
4883.000000	64.544892 
4882.000000	64.533615 
4881.000000	64.535522 
4880.000000	64.548611 
4879.000000	64.568853 
4878.000000	64.590430 
4877.000000	64.606571 
4876.000000	64.611172 
4875.000000	64.599800 
4874.000000	64.571523 
4873.000000	64.529228 
4872.000000	64.478540 
4871.000000	64.426755 
4870.000000	64.381122 
4869.000000	64.347624 
4868.000000	64.330029 
4867.000000	64.329576 
4866.000000	64.344954 
4865.000000	64.373207 
4864.000000	64.410781 
4863.000000	64.454412 
4862.000000	64.501023 
4861.000000	64.548850 
4860.000000	64.596557 
4859.000000	64.643836 
4858.000000	64.690494 
4857.000000	64.736437 
4856.000000	64.781022 
4855.000000	64.823341 
4854.000000	64.862203 
4853.000000	64.896583 
4852.000000	64.925861 
4851.000000	64.950084 
4850.000000	64.970326 
4849.000000	64.988970 
4848.000000	65.009498 
4847.000000	65.035796 
4846.000000	65.070652 
4845.000000	65.114831 
4844.000000	65.165781 
4843.000000	65.217709 
4842.000000	65.262103 
4841.000000	65.289664 
4840.000000	65.292572 
4839.000000	65.266537 
4838.000000	65.212535 
4837.000000	65.136790 
4836.000000	65.050053 
4835.000000	64.965581 
4834.000000	64.896321 
4833.000000	64.852714 
4832.000000	64.839673 
4831.000000	64.856529 
4830.000000	64.895939 
4829.000000	64.946341 
4828.000000	64.993500 
4827.000000	65.023899 
4826.000000	65.027260 
4825.000000	64.998507 
4824.000000	64.938735 
4823.000000	64.854335 
4822.000000	64.755630 
4821.000000	64.654278 
4820.000000	64.561390 
4819.000000	64.485406 
4818.000000	64.431023 
4817.000000	64.398741 
4816.000000	64.385795 
4815.000000	64.387297 
4814.000000	64.397835 
4813.000000	64.412856 
4812.000000	64.428615 
4811.000000	64.443874 
4810.000000	64.458489 
4809.000000	64.474296 
4808.000000	64.492988 
4807.000000	64.516592 
4806.000000	64.546322 
4805.000000	64.582824 
4804.000000	64.625859 
4803.000000	64.674091 
4802.000000	64.724946 
4801.000000	64.775466 
4800.000000	64.822864 
4799.000000	64.865350 
4798.000000	64.902210 
4797.000000	64.934802 
4796.000000	64.966058 
4795.000000	65.000009 
4794.000000	65.040588 
4793.000000	65.090370 
4792.000000	65.149307 
4791.000000	65.214085 
4790.000000	65.278077 
4789.000000	65.332889 
4788.000000	65.369915 
4787.000000	65.382218 
4786.000000	65.366482 
4785.000000	65.324115 
4784.000000	65.261125 
4783.000000	65.187096 
4782.000000	65.113139 
4781.000000	65.049505 
4780.000000	65.003776 
4779.000000	64.980077 
4778.000000	64.978337 
4777.000000	64.994978 
4776.000000	65.024542 
4775.000000	65.061378 
4774.000000	65.100955 
4773.000000	65.140032 
4772.000000	65.177536 
4771.000000	65.213847 
4770.000000	65.249729 
4769.000000	65.285015 
4768.000000	65.318465 
4767.000000	65.347528 
4766.000000	65.368795 
4765.000000	65.378546 
4764.000000	65.373611 
4763.000000	65.352272 
4762.000000	65.315055 
4761.000000	65.264725 
4760.000000	65.206146 
4759.000000	65.145111 
4758.000000	65.087795 
4757.000000	65.039491 
4756.000000	65.003728 
4755.000000	64.981555 
4754.000000	64.971828 
4753.000000	64.971280 
4752.000000	64.975643 
4751.000000	64.980125 
4750.000000	64.980936 
4749.000000	64.975380 
4748.000000	64.962434 
4747.000000	64.942550 
4746.000000	64.916872 
4745.000000	64.887452 
4744.000000	64.856481 
4743.000000	64.826154 
4742.000000	64.798498 
4741.000000	64.775943 
4740.000000	64.761447 
4739.000000	64.758348 
4738.000000	64.769744 
4737.000000	64.797735 
4736.000000	64.842534 
4735.000000	64.901924 
4734.000000	64.971303 
4733.000000	65.043973 
4732.000000	65.112686 
4731.000000	65.170693 
4730.000000	65.213203 
4729.000000	65.238404 
4728.000000	65.247154 
4727.000000	65.243220 
4726.000000	65.231037 
4725.000000	65.214610 
4724.000000	65.195965 
4723.000000	65.175533 
4722.000000	65.151476 
4721.000000	65.121126 
4720.000000	65.082001 
4719.000000	65.033555 
4718.000000	64.977598 
4717.000000	64.918327 
4716.000000	64.861989 
4715.000000	64.815378 
4714.000000	64.784955 
4713.000000	64.775323 
4712.000000	64.788866 
4711.000000	64.825034 
4710.000000	64.880681 
4709.000000	64.950203 
4708.000000	65.026664 
4707.000000	65.102267 
4706.000000	65.169262 
4705.000000	65.220904 
4704.000000	65.251851 
4703.000000	65.259480 
4702.000000	65.244293 
4701.000000	65.210294 
4700.000000	65.163898 
4699.000000	65.113019 
4698.000000	65.066218 
4697.000000	65.030360 
4696.000000	65.010023 
4695.000000	65.006232 
4694.000000	65.017056 
4693.000000	65.038156 
4692.000000	65.064311 
4691.000000	65.090560 
4690.000000	65.113019 
4689.000000	65.129899 
4688.000000	65.141367 
4687.000000	65.149402 
4686.000000	65.156722 
4685.000000	65.166425 
4684.000000	65.180897 
4683.000000	65.201473 
4682.000000	65.228033 
4681.000000	65.259337 
4680.000000	65.293025 
4679.000000	65.326452 
4678.000000	65.356397 
4677.000000	65.379858 
4676.000000	65.393805 
4675.000000	65.396046 
4674.000000	65.385293 
4673.000000	65.361380 
4672.000000	65.325713 
4671.000000	65.281724 
4670.000000	65.234494 
4669.000000	65.189933 
4668.000000	65.153980 
4667.000000	65.131497 
4666.000000	65.125513 
4665.000000	65.136337 
4664.000000	65.161633 
4663.000000	65.196681 
4662.000000	65.235543 
4661.000000	65.272045 
4660.000000	65.301299 
4659.000000	65.320539 
4658.000000	65.329241 
4657.000000	65.328669 
4656.000000	65.320968 
4655.000000	65.308547 
4654.000000	65.293288 
4653.000000	65.276169 
4652.000000	65.257906 
4651.000000	65.238618 
4650.000000	65.218973 
4649.000000	65.199279 
4648.000000	65.179753 
4647.000000	65.159988 
4646.000000	65.138530 
4645.000000	65.113782 
4644.000000	65.084218 
4643.000000	65.049505 
4642.000000	65.010929 
4641.000000	64.971590 
4640.000000	64.936089 
4639.000000	64.909386 
4638.000000	64.895606 
4637.000000	64.896392 
4636.000000	64.910387 
4635.000000	64.933347 
4634.000000	64.959073 
4633.000000	64.981412 
4632.000000	64.995980 
4631.000000	65.001368 
4630.000000	64.999651 
4629.000000	64.995598 
4628.000000	64.995121 
4627.000000	65.003252 
4626.000000	65.022563 
4625.000000	65.052962 
4624.000000	65.091347 
4623.000000	65.133070 
4622.000000	65.172624 
4621.000000	65.205359 
4620.000000	65.228033 
4619.000000	65.239548 
4618.000000	65.240764 
4617.000000	65.233945 
4616.000000	65.222024 
4615.000000	65.207839 
4614.000000	65.193486 
4613.000000	65.179967 
4612.000000	65.167427 
4611.000000	65.155696 
4610.000000	65.144634 
4609.000000	65.134644 
4608.000000	65.126800 
4607.000000	65.122652 
4606.000000	65.123748 
4605.000000	65.131092 
4604.000000	65.144491 
4603.000000	65.162420 
4602.000000	65.181946 
4601.000000	65.199208 
4600.000000	65.210199 
4599.000000	65.211653 
4598.000000	65.202116 
4597.000000	65.181946 
4596.000000	65.153551 
4595.000000	65.120458 
4594.000000	65.086436 
4593.000000	65.054726 
4592.000000	65.027189 
4591.000000	65.004205 
4590.000000	64.985513 
4589.000000	64.970493 
4588.000000	64.958715 
4587.000000	64.950275 
4586.000000	64.945745 
4585.000000	64.945864 
4584.000000	64.950919 
4583.000000	64.960312 
4582.000000	64.972138 
4581.000000	64.983701 
4580.000000	64.992070 
4579.000000	64.995169 
4578.000000	64.992380 
4577.000000	64.984822 
4576.000000	64.975118 
4575.000000	64.966464 
4574.000000	64.961457 
4573.000000	64.961409 
4572.000000	64.965510 
4571.000000	64.971494 
4570.000000	64.975643 
4569.000000	64.974427 
4568.000000	64.964938 
4567.000000	64.945411 
4566.000000	64.915847 
4565.000000	64.877653 
4564.000000	64.834094 
4563.000000	64.789032 
4562.000000	64.747118 
4561.000000	64.713144 
4560.000000	64.691066 
4559.000000	64.683651 
4558.000000	64.691448 
4557.000000	64.712882 
4556.000000	64.743995 
4555.000000	64.779281 
4554.000000	64.812040 
4553.000000	64.835691 
4552.000000	64.845156 
4551.000000	64.837980 
4550.000000	64.814543 
4549.000000	64.777827 
4548.000000	64.732956 
4547.000000	64.686059 
4546.000000	64.642763 
4545.000000	64.607381 
4544.000000	64.582419 
4543.000000	64.568734 
4542.000000	64.565682 
4541.000000	64.571833 
4540.000000	64.585614 
4539.000000	64.605784 
4538.000000	64.631319 
4537.000000	64.661526 
4536.000000	64.695072 
4535.000000	64.730191 
4534.000000	64.764428 
4533.000000	64.794516 
4532.000000	64.816999 
4531.000000	64.828348 
4530.000000	64.826226 
4529.000000	64.808630 
4528.000000	64.774703 
4527.000000	64.724588 
4526.000000	64.659810 
4525.000000	64.583802 
4524.000000	64.501667 
4523.000000	64.419937 
4522.000000	64.345383 
4521.000000	64.284181 
4520.000000	64.240598 
4519.000000	64.215731 
4518.000000	64.207720 
4517.000000	64.211750 
4516.000000	64.222121 
4515.000000	64.232873 
4514.000000	64.240217 
4513.000000	64.242529 
4512.000000	64.241480 
4511.000000	64.240241 
4510.000000	64.243245 
4509.000000	64.254069 
4508.000000	64.274930 
4507.000000	64.305281 
4506.000000	64.342522 
4505.000000	64.382719 
4504.000000	64.421391 
4503.000000	64.455103 
4502.000000	64.480733 
4501.000000	64.496350 
4500.000000	64.500403 
4499.000000	64.491868 
4498.000000	64.469647 
4497.000000	64.432978 
4496.000000	64.382314 
4495.000000	64.319896 
4494.000000	64.249944 
4493.000000	64.178180 
4492.000000	64.111971 
4491.000000	64.058303 
4490.000000	64.022421 
4489.000000	64.006185 
4488.000000	64.007997 
4487.000000	64.022660 
4486.000000	64.042234 
4485.000000	64.058279 
4484.000000	64.063334 
4483.000000	64.053225 
4482.000000	64.027237 
4481.000000	63.988900 
4480.000000	63.943910 
4479.000000	63.899993 
4478.000000	63.864779 
4477.000000	63.844418 
4476.000000	63.842296 
4475.000000	63.858890 
4474.000000	63.891673 
4473.000000	63.935995 
4472.000000	63.986039 
4471.000000	64.036440 
4470.000000	64.083290 
4469.000000	64.124202 
4468.000000	64.158511 
4467.000000	64.186143 
4466.000000	64.207410 
4465.000000	64.222216 
4464.000000	64.230537 
4463.000000	64.233255 
4462.000000	64.232087 
4461.000000	64.230394 
4460.000000	64.231634 
4459.000000	64.238810 
4458.000000	64.252662 
4457.000000	64.271950 
4456.000000	64.292597 
4455.000000	64.308857 
4454.000000	64.314532 
4453.000000	64.305043 
4452.000000	64.278197 
4451.000000	64.235162 
4450.000000	64.179944 
4449.000000	64.118742 
4448.000000	64.058160 
4447.000000	64.003586 
4446.000000	63.958549 
4445.000000	63.924479 
4444.000000	63.901305 
4443.000000	63.888049 
4442.000000	63.883996 
4441.000000	63.888454 
4440.000000	63.898658 
4439.000000	63.909864 
4438.000000	63.915061 
4437.000000	63.907051 
4436.000000	63.880634 
4435.000000	63.834619 
4434.000000	63.772439 
4433.000000	63.701796 
4432.000000	63.634586 
4431.000000	63.583087 
4430.000000	63.553667 
4429.000000	63.549017 
4428.000000	63.568186 
4427.000000	63.606905 
4426.000000	63.662457 
4425.000000	63.729429 
4424.000000	63.794064 
4423.000000	63.846397 
4422.000000	63.889241 
4421.000000	63.922905 
4420.000000	63.936495 
4419.000000	63.930726 
4418.000000	63.920211 
4417.000000	63.922834 
4416.000000	63.957214 
4415.000000	64.030170 
4414.000000	64.135122 
4413.000000	64.270114 
4412.000000	64.432287 
4411.000000	64.629292 
4410.000000	64.860725 
4409.000000	65.104246 
4408.000000	65.315508 
4407.000000	65.406823 
4406.000000	65.292930 
4405.000000	64.943003 
4404.000000	64.375925 
4403.000000	63.683533 
4402.000000	62.987685 
4401.000000	62.353348 
4400.000000	61.863613 
4399.000000	61.505722 
4398.000000	61.375045 
4397.000000	61.687469 
4396.000000	62.763333 
4395.000000	65.008306 
4394.000000	68.646192 
4393.000000	73.609137 
4392.000000	79.431843 
4391.000000	85.282945 
4390.000000	90.240192 
4389.000000	93.502140 
4388.000000	94.661283 
4387.000000	93.787455 
4386.000000	91.318678 
4385.000000	87.921953 
4384.000000	84.232044 
4383.000000	80.720210 
4382.000000	77.655673 
4381.000000	75.077080 
4380.000000	72.970795 
4379.000000	71.244978 
4378.000000	69.833087 
4377.000000	68.685960 
4376.000000	67.741823 
4375.000000	66.971778 
4374.000000	66.332554 
4373.000000	65.808224 
4372.000000	65.373754 
4371.000000	65.022611 
4370.000000	64.741063 
4369.000000	64.525985 
4368.000000	64.365577 
4367.000000	64.257383 
4366.000000	64.203619 
4365.000000	64.202165 
4364.000000	64.238977 
4363.000000	64.294934 
4362.000000	64.347672 
4361.000000	64.373421 
4360.000000	64.351367 
4359.000000	64.282536 
4358.000000	64.186906 
4357.000000	64.081430 
4356.000000	63.981246 
4355.000000	63.897967 
4354.000000	63.838505 
4353.000000	63.815760 
4352.000000	63.839769 
4351.000000	63.903427 
4350.000000	63.993120 
4349.000000	64.100623 
4348.000000	64.217305 
4347.000000	64.329409 
4346.000000	64.426207 
4345.000000	64.503836 
4344.000000	64.561533 
4343.000000	64.598178 
4342.000000	64.615178 
4341.000000	64.616465 
4340.000000	64.606356 
4339.000000	64.588594 
4338.000000	64.567828 
4337.000000	64.549970 
4336.000000	64.539957 
4335.000000	64.541006 
4334.000000	64.554572 
4333.000000	64.579677 
4332.000000	64.611911 
4331.000000	64.644503 
4330.000000	64.669466 
4329.000000	64.679765 
4328.000000	64.671230 
4327.000000	64.643859 
4326.000000	64.602327 
4325.000000	64.554142 
4324.000000	64.507794 
4323.000000	64.469766 
4322.000000	64.443278 
4321.000000	64.426875 
4320.000000	64.415621 
4319.000000	64.402294 
4318.000000	64.379787 
4317.000000	64.343452 
4316.000000	64.292716 
4315.000000	64.231896 
4314.000000	64.168095 
4313.000000	64.111685 
4312.000000	64.073181 
4311.000000	64.061832 
4310.000000	64.083003 
4309.000000	64.137339 
4308.000000	64.220428 
4307.000000	64.323687 
4306.000000	64.435982 
4305.000000	64.545583 
4304.000000	64.642000 
4303.000000	64.717745 
4302.000000	64.768958 
4301.000000	64.795851 
4300.000000	64.801406 
4299.000000	64.790678 
4298.000000	64.768576 
4297.000000	64.739346 
4296.000000	64.705324 
4295.000000	64.667773 
4294.000000	64.626765 
4293.000000	64.582586 
4292.000000	64.536142 
4291.000000	64.490199 
4290.000000	64.448642 
4289.000000	64.415502 
4288.000000	64.394617 
4287.000000	64.388060 
4286.000000	64.396786 
4285.000000	64.419627 
4284.000000	64.454674 
4283.000000	64.499235 
4282.000000	64.550375 
4281.000000	64.605069 
4280.000000	64.660382 
4279.000000	64.713215 
4278.000000	64.760184 
4277.000000	64.797520 
4276.000000	64.821219 
4275.000000	64.827704 
4274.000000	64.815306 
4273.000000	64.784479 
4272.000000	64.737939 
4271.000000	64.680719 
4270.000000	64.619946 
4269.000000	64.563536 
4268.000000	64.518809 
4267.000000	64.491415 
4266.000000	64.484381 
4265.000000	64.497756 
4264.000000	64.529109 
4263.000000	64.573669 
4262.000000	64.625144 
4261.000000	64.677286 
4260.000000	64.724445 
4259.000000	64.763116 
4258.000000	64.791560 
4257.000000	64.810609 
4256.000000	64.822745 
4255.000000	64.831423 
4254.000000	64.839673 
4253.000000	64.849567 
4252.000000	64.861226 
4251.000000	64.872717 
4250.000000	64.880108 
4249.000000	64.878416 
4248.000000	64.862823 
4247.000000	64.830374 
4246.000000	64.780783 
4245.000000	64.716696 
4244.000000	64.643621 
4243.000000	64.568781 
4242.000000	64.500474 
4241.000000	64.445590 
4240.000000	64.409685 
4239.000000	64.395594 
4238.000000	64.403724 
4237.000000	64.431881 
4236.000000	64.476275 
4235.000000	64.531874 
4234.000000	64.593529 
4233.000000	64.655995 
4232.000000	64.715361 
4231.000000	64.768695 
4230.000000	64.815092 
4229.000000	64.854931 
4228.000000	64.889788 
4227.000000	64.921545 
4226.000000	64.951777 
4225.000000	64.980959 
4224.000000	65.007567 
4223.000000	65.028023 
4222.000000	65.037775 
4221.000000	65.032052 
4220.000000	65.007805 
4219.000000	64.964485 
4218.000000	64.905333 
4217.000000	64.836525 
4216.000000	64.766335 
4215.000000	64.702701 
4214.000000	64.651966 
4213.000000	64.616823 
4212.000000	64.595675 
4211.000000	64.583492 
4210.000000	64.573478 
4209.000000	64.559364 
4208.000000	64.537048 
4207.000000	64.506816 
4206.000000	64.472889 
4205.000000	64.443373 
4204.000000	64.427685 
4203.000000	64.434146 
4202.000000	64.467334 
4201.000000	64.527249 
4200.000000	64.609026 
4199.000000	64.703512 
4198.000000	64.799165 
4197.000000	64.884877 
4196.000000	64.952206 
4195.000000	64.996385 
4194.000000	65.017032 
4193.000000	65.017366 
4192.000000	65.003037 
4191.000000	64.980506 
4190.000000	64.955377 
4189.000000	64.931511 
4188.000000	64.910697 
4187.000000	64.893722 
4186.000000	64.880633 
4185.000000	64.871501 
4184.000000	64.867115 
4183.000000	64.869475 
4182.000000	64.881181 
4181.000000	64.904618 
4180.000000	64.941024 
4179.000000	64.989733 
4178.000000	65.046977 
4177.000000	65.106487 
4176.000000	65.159749 
4175.000000	65.197825 
4174.000000	65.212869 
4173.000000	65.200090 
4172.000000	65.158677 
4171.000000	65.092086 
4170.000000	65.007543 
4169.000000	64.914584 
4168.000000	64.823269 
4167.000000	64.742684 
4166.000000	64.680075 
4165.000000	64.640069 
4164.000000	64.624381 
4163.000000	64.632153 
4162.000000	64.660668 
4161.000000	64.705920 
4160.000000	64.762806 
4159.000000	64.825916 
4158.000000	64.888906 
4157.000000	64.946055 
4156.000000	64.991927 
4155.000000	65.023064 
4154.000000	65.037894 
4153.000000	65.037369 
4152.000000	65.024971 
4151.000000	65.005064 
4150.000000	64.982318 
4149.000000	64.960169 
4148.000000	64.940404 
4147.000000	64.923048 
4146.000000	64.906787 
4145.000000	64.889955 
4144.000000	64.871454 
4143.000000	64.851236 
4142.000000	64.830708 
4141.000000	64.812111 
4140.000000	64.798450 
4139.000000	64.792060 
4138.000000	64.794683 
4137.000000	64.806842 
4136.000000	64.828062 
4135.000000	64.856505 
4134.000000	64.890122 
4133.000000	64.926481 
4132.000000	64.963769 
4131.000000	65.000534 
4130.000000	65.036058 
4129.000000	65.069699 
4128.000000	65.101385 
4127.000000	65.131306 
4126.000000	65.159773 
4125.000000	65.186882 
4124.000000	65.212416 
4123.000000	65.236043 
4122.000000	65.256977 
4121.000000	65.274214 
4120.000000	65.286970 
4119.000000	65.295147 
4118.000000	65.299510 
4117.000000	65.301704 
4116.000000	65.303850 
4115.000000	65.307855 
4114.000000	65.315246 
4113.000000	65.326428 
4112.000000	65.340638 
4111.000000	65.355896 
4110.000000	65.369486 
4109.000000	65.378618 
4108.000000	65.381050 
4107.000000	65.375614 
4106.000000	65.362501 
4105.000000	65.343451 
4104.000000	65.321493 
4103.000000	65.300178 
4102.000000	65.282964 
4101.000000	65.272140 
4100.000000	65.268826 
4099.000000	65.272188 
4098.000000	65.279960 
4097.000000	65.288686 
4096.000000	65.294718 
4095.000000	65.295028 
4094.000000	65.287828 
4093.000000	65.273404 
4092.000000	65.254068 
4091.000000	65.233707 
4090.000000	65.216588 
4089.000000	65.206599 
4088.000000	65.206074 
4087.000000	65.215158 
4086.000000	65.231752 
4085.000000	65.251755 
4084.000000	65.269899 
4083.000000	65.281295 
4082.000000	65.282225 
4081.000000	65.270757 
4080.000000	65.247321 
4079.000000	65.214180 
4078.000000	65.174961 
4077.000000	65.133976 
4076.000000	65.095663 
4075.000000	65.063595 
4074.000000	65.040612 
4073.000000	65.028381 
4072.000000	65.027546 
4071.000000	65.037798 
4070.000000	65.057849 
4069.000000	65.085625 
4068.000000	65.117859 
4067.000000	65.150547 
4066.000000	65.179276 
4065.000000	65.200161 
4064.000000	65.210366 
4063.000000	65.208983 
4062.000000	65.197849 
4061.000000	65.181326 
4060.000000	65.165805 
4059.000000	65.157961 
4058.000000	65.163516 
4057.000000	65.185308 
4056.000000	65.222787 
4055.000000	65.271854 
4054.000000	65.325856 
4053.000000	65.377211 
4052.000000	65.419149 
4051.000000	65.447497 
4050.000000	65.461540 
4049.000000	65.463733 
4048.000000	65.458965 
4047.000000	65.452623 
4046.000000	65.449070 
4045.000000	65.450143 
4044.000000	65.455269 
4043.000000	65.461206 
4042.000000	65.463662 
4041.000000	65.458416 
4040.000000	65.443134 
4039.000000	65.417504 
4038.000000	65.383481 
4037.000000	65.344524 
4036.000000	65.304732 
4035.000000	65.267968 
4034.000000	65.236949 
4033.000000	65.212965 
4032.000000	65.196037 
4031.000000	65.185475 
4030.000000	65.180397 
4029.000000	65.179800 
4028.000000	65.183162 
4027.000000	65.189981 
4026.000000	65.200281 
4025.000000	65.213370 
4024.000000	65.228605 
4023.000000	65.245246 
4022.000000	65.262436 
4021.000000	65.279269 
4020.000000	65.294909 
4019.000000	65.308833 
4018.000000	65.320706 
4017.000000	65.329933 
4016.000000	65.336155 
4015.000000	65.339112 
4014.000000	65.338993 
4013.000000	65.336561 
4012.000000	65.333271 
4011.000000	65.330839 
4010.000000	65.331172 
4009.000000	65.335679 
4008.000000	65.344476 
4007.000000	65.356016 
4006.000000	65.367436 
4005.000000	65.374875 
4004.000000	65.374088 
4003.000000	65.361523 
4002.000000	65.335464 
4001.000000	65.296554 
4000.000000	65.247654 
3999.000000	65.193295 
3998.000000	65.138816 
3997.000000	65.088868 
3996.000000	65.046858 
3995.000000	65.014052 
3994.000000	64.989686 
3993.000000	64.971446 
3992.000000	64.956378 
3991.000000	64.941811 
3990.000000	64.926218 
3989.000000	64.909791 
3988.000000	64.894127 
3987.000000	64.882159 
3986.000000	64.876842 
3985.000000	64.881205 
3984.000000	64.897227 
3983.000000	64.925694 
3982.000000	64.965796 
3981.000000	65.015363 
3980.000000	65.071177 
3979.000000	65.129256 
3978.000000	65.185093 
3977.000000	65.234231 
3976.000000	65.272498 
3975.000000	65.296936 
3974.000000	65.305876 
3973.000000	65.299320 
3972.000000	65.279221 
3971.000000	65.249586 
3970.000000	65.215730 
3969.000000	65.183639 
3968.000000	65.158867 
3967.000000	65.146112 
3966.000000	65.147805 
3965.000000	65.164160 
3964.000000	65.192675 
3963.000000	65.229177 
3962.000000	65.267896 
3961.000000	65.302705 
3960.000000	65.327906 
3959.000000	65.339207 
3958.000000	65.334010 
3957.000000	65.311765 
3956.000000	65.274024 
3955.000000	65.224075 
3954.000000	65.166735 
3953.000000	65.107440 
3952.000000	65.051770 
3951.000000	65.004682 
3950.000000	64.970207 
3949.000000	64.950966 
3948.000000	64.947533 
3947.000000	64.958786 
3946.000000	64.982390 
3945.000000	65.015316 
3944.000000	65.053629 
3943.000000	65.093421 
3942.000000	65.130925 
3941.000000	65.162849 
3940.000000	65.186429 
3939.000000	65.199804 
3938.000000	65.201973 
3937.000000	65.193295 
3936.000000	65.175342 
3935.000000	65.150856 
3934.000000	65.123581 
3933.000000	65.097689 
3932.000000	65.077209 
3931.000000	65.065312 
3930.000000	65.063905 
3929.000000	65.073251 
3928.000000	65.091753 
3927.000000	65.116333 
3926.000000	65.142560 
3925.000000	65.165829 
3924.000000	65.181851 
3923.000000	65.187287 
3922.000000	65.180349 
3921.000000	65.161037 
3920.000000	65.131139 
3919.000000	65.093755 
3918.000000	65.052676 
3917.000000	65.012288 
3916.000000	64.976549 
3915.000000	64.948630 
3914.000000	64.930391 
3913.000000	64.922261 
3912.000000	64.923048 
3911.000000	64.930343 
3910.000000	64.940857 
3909.000000	64.950752 
3908.000000	64.956974 
3907.000000	64.957666 
3906.000000	64.952945 
3905.000000	64.944529 
3904.000000	64.935827 
3903.000000	64.931011 
3902.000000	64.934039 
3901.000000	64.947557 
3900.000000	64.972162 
3899.000000	65.005779 
3898.000000	65.044307 
3897.000000	65.082192 
3896.000000	65.113663 
3895.000000	65.134239 
3894.000000	65.141320 
3893.000000	65.135216 
3892.000000	65.118646 
3891.000000	65.096330 
3890.000000	65.073847 
3889.000000	65.056252 
3888.000000	65.047168 
3887.000000	65.048003 
3886.000000	65.058207 
3885.000000	65.075254 
3884.000000	65.095400 
3883.000000	65.114760 
3882.000000	65.130114 
3881.000000	65.139436 
3880.000000	65.142083 
3879.000000	65.138721 
3878.000000	65.130925 
3877.000000	65.120959 
3876.000000	65.110826 
3875.000000	65.102267 
3874.000000	65.096187 
3873.000000	65.092658 
3872.000000	65.091204 
3871.000000	65.090847 
3870.000000	65.090465 
3869.000000	65.089201 
3868.000000	65.086746 
3867.000000	65.083169 
3866.000000	65.078997 
3865.000000	65.074944 
3864.000000	65.071487 
3863.000000	65.068745 
3862.000000	65.066313 
3861.000000	65.063405 
3860.000000	65.059280 
3859.000000	65.053367 
3858.000000	65.045833 
3857.000000	65.037393 
3856.000000	65.029859 
3855.000000	65.025568 
3854.000000	65.027022 
3853.000000	65.036153 
3852.000000	65.053772 
3851.000000	65.079259 
3850.000000	65.110516 
3849.000000	65.144181 
3848.000000	65.176177 
3847.000000	65.202426 
3846.000000	65.219640 
3845.000000	65.226078 
3844.000000	65.221667 
3843.000000	65.208292 
3842.000000	65.189456 
3841.000000	65.169596 
3840.000000	65.153312 
3839.000000	65.144014 
3838.000000	65.143418 
3837.000000	65.150976 
3836.000000	65.164089 
3835.000000	65.178823 
3834.000000	65.190982 
3833.000000	65.197205 
3832.000000	65.195965 
3831.000000	65.188121 
3830.000000	65.176248 
3829.000000	65.164256 
3828.000000	65.156149 
3827.000000	65.155124 
3826.000000	65.162539 
3825.000000	65.177726 
3824.000000	65.198111 
3823.000000	65.219616 
3822.000000	65.237712 
3821.000000	65.248203 
3820.000000	65.248155 
3819.000000	65.236234 
3818.000000	65.212869 
3817.000000	65.179920 
3816.000000	65.140223 
3815.000000	65.096902 
3814.000000	65.053200 
3813.000000	65.011882 
3812.000000	64.975285 
3811.000000	64.945268 
3810.000000	64.923477 
3809.000000	64.911198 
3808.000000	64.909410 
3807.000000	64.918565 
3806.000000	64.938497 
3805.000000	64.967656 
3804.000000	65.003800 
3803.000000	65.043354 
3802.000000	65.082335 
3801.000000	65.116453 
3800.000000	65.142416 
3799.000000	65.158462 
3798.000000	65.164637 
3797.000000	65.162754 
3796.000000	65.155863 
3795.000000	65.147376 
3794.000000	65.140318 
3793.000000	65.136814 
3792.000000	65.137887 
3791.000000	65.143370 
3790.000000	65.152382 
3789.000000	65.163540 
3788.000000	65.175294 
3787.000000	65.186119 
3786.000000	65.194702 
3785.000000	65.199875 
3784.000000	65.200662 
3783.000000	65.196418 
3782.000000	65.187168 
3781.000000	65.173482 
3780.000000	65.156626 
3779.000000	65.138196 
3778.000000	65.120339 
3777.000000	65.104913 
3776.000000	65.093064 
3775.000000	65.085029 
3774.000000	65.080070 
3773.000000	65.077066 
3772.000000	65.074753 
3771.000000	65.072369 
3770.000000	65.069627 
3769.000000	65.066862 
3768.000000	65.064835 
3767.000000	65.064334 
3766.000000	65.065622 
3765.000000	65.068507 
3764.000000	65.072345 
3763.000000	65.076375 
3762.000000	65.079927 
3761.000000	65.082573 
3760.000000	65.084409 
3759.000000	65.085911 
3758.000000	65.087795 
3757.000000	65.090894 
3756.000000	65.095996 
3755.000000	65.103554 
3754.000000	65.113663 
3753.000000	65.125942 
3752.000000	65.139651 
3751.000000	65.153813 
3750.000000	65.167045 
3749.000000	65.177869 
3748.000000	65.184664 
3747.000000	65.185880 
3746.000000	65.180706 
3745.000000	65.169191 
3744.000000	65.152502 
3743.000000	65.132904 
3742.000000	65.113329 
3741.000000	65.096855 
3740.000000	65.085887 
3739.000000	65.081930 
3738.000000	65.084886 
3737.000000	65.093326 
3736.000000	65.104746 
3735.000000	65.116143 
3734.000000	65.124750 
3733.000000	65.128588 
3732.000000	65.126991 
3731.000000	65.120744 
3730.000000	65.111994 
3729.000000	65.103435 
3728.000000	65.098214 
3727.000000	65.098357 
3726.000000	65.104842 
3725.000000	65.116667 
3724.000000	65.131592 
3723.000000	65.146064 
3722.000000	65.156102 
3721.000000	65.158152 
3720.000000	65.150046 
3719.000000	65.131473 
3718.000000	65.104103 
3717.000000	65.071320 
3716.000000	65.037393 
3715.000000	65.006828 
3714.000000	64.983320 
3713.000000	64.969277 
3712.000000	64.965176 
3711.000000	64.969825 
3710.000000	64.980816 
3709.000000	64.995026 
3708.000000	65.009808 
3707.000000	65.023064 
3706.000000	65.034079 
3705.000000	65.043139 
3704.000000	65.051579 
3703.000000	65.060949 
3702.000000	65.073108 
3701.000000	65.088915 
3700.000000	65.108752 
3699.000000	65.132498 
3698.000000	65.159440 
3697.000000	65.188646 
3696.000000	65.218758 
3695.000000	65.248465 
3694.000000	65.276193 
3693.000000	65.300369 
3692.000000	65.319228 
3691.000000	65.331339 
3690.000000	65.335702 
3689.000000	65.331983 
3688.000000	65.320730 
3687.000000	65.303325 
3686.000000	65.282082 
3685.000000	65.259695 
3684.000000	65.239071 
3683.000000	65.222620 
3682.000000	65.212321 
3681.000000	65.209245 
3680.000000	65.213513 
3679.000000	65.224170 
3678.000000	65.239548 
3677.000000	65.257382 
3676.000000	65.274906 
3675.000000	65.289378 
3674.000000	65.298104 
3673.000000	65.299081 
3672.000000	65.291261 
3671.000000	65.274810 
3670.000000	65.251016 
3669.000000	65.222144 
3668.000000	65.191054 
3667.000000	65.160632 
3666.000000	65.133428 
3665.000000	65.111231 
3664.000000	65.095019 
3663.000000	65.084862 
3662.000000	65.080261 
3661.000000	65.080332 
3660.000000	65.083980 
3659.000000	65.090131 
3658.000000	65.097832 
3657.000000	65.106391 
3656.000000	65.115380 
3655.000000	65.124607 
3654.000000	65.134286 
3653.000000	65.144729 
3652.000000	65.156388 
3651.000000	65.169835 
3650.000000	65.185260 
3649.000000	65.202355 
3648.000000	65.219974 
3647.000000	65.236330 
3646.000000	65.249228 
3645.000000	65.256905 
3644.000000	65.258264 
3643.000000	65.253281 
3642.000000	65.243411 
3641.000000	65.231251 
3640.000000	65.220117 
3639.000000	65.213370 
3638.000000	65.213608 
3637.000000	65.222167 
3636.000000	65.238785 
3635.000000	65.261697 
3634.000000	65.287923 
3633.000000	65.313863 
3632.000000	65.336060 
3631.000000	65.351915 
3630.000000	65.360093 
3629.000000	65.360641 
3628.000000	65.354990 
3627.000000	65.345525 
3626.000000	65.335154 
3625.000000	65.326571 
3624.000000	65.321922 
3623.000000	65.321850 
3622.000000	65.325975 
3621.000000	65.332388 
3620.000000	65.338468 
3619.000000	65.341258 
3618.000000	65.338444 
3617.000000	65.328955 
3616.000000	65.313124 
3615.000000	65.292906 
3614.000000	65.271186 
3613.000000	65.251374 
3612.000000	65.236473 
3611.000000	65.228366 
3610.000000	65.227365 
3609.000000	65.232276 
3608.000000	65.240907 
3607.000000	65.250515 
3606.000000	65.258669 
3605.000000	65.263581 
3604.000000	65.264606 
3603.000000	65.262079 
3602.000000	65.257072 
3601.000000	65.250658 
3600.000000	65.243649 
3599.000000	65.236425 
3598.000000	65.228843 
3597.000000	65.220451 
3596.000000	65.210747 
3595.000000	65.199708 
3594.000000	65.187716 
3593.000000	65.175795 
3592.000000	65.165424 
3591.000000	65.158081 
3590.000000	65.155363 
3589.000000	65.158343 
3588.000000	65.167713 
3587.000000	65.183520 
3586.000000	65.205383 
3585.000000	65.232443 
3584.000000	65.263295 
3583.000000	65.296006 
3582.000000	65.328097 
3581.000000	65.356898 
3580.000000	65.379595 
3579.000000	65.393686 
3578.000000	65.397548 
3577.000000	65.390682 
3576.000000	65.373921 
3575.000000	65.349125 
3574.000000	65.319061 
3573.000000	65.286588 
3572.000000	65.254306 
3571.000000	65.224003 
3570.000000	65.196371 
3569.000000	65.171504 
3568.000000	65.149092 
3567.000000	65.129041 
3566.000000	65.111565 
3565.000000	65.097856 
3564.000000	65.089654 
3563.000000	65.089178 
3562.000000	65.097832 
3561.000000	65.116238 
3560.000000	65.143489 
3559.000000	65.177273 
3558.000000	65.213918 
3557.000000	65.249252 
3556.000000	65.279340 
3555.000000	65.301227 
3554.000000	65.313363 
3553.000000	65.316033 
3552.000000	65.311169 
3551.000000	65.301728 
3550.000000	65.290808 
3549.000000	65.280985 
3548.000000	65.273809 
3547.000000	65.269684 
3546.000000	65.267586 
3545.000000	65.265798 
3544.000000	65.262079 
3543.000000	65.254807 
3542.000000	65.243005 
3541.000000	65.226173 
3540.000000	65.204691 
3539.000000	65.179705 
3538.000000	65.153050 
3537.000000	65.126705 
3536.000000	65.102720 
3535.000000	65.083146 
3534.000000	65.069413 
3533.000000	65.062403 
3532.000000	65.061807 
3531.000000	65.066313 
3530.000000	65.073537 
3529.000000	65.080571 
3528.000000	65.084457 
3527.000000	65.082669 
3526.000000	65.073800 
3525.000000	65.057921 
3524.000000	65.036630 
3523.000000	65.012621 
3522.000000	64.989280 
3521.000000	64.970350 
3520.000000	64.958882 
3519.000000	64.957237 
3518.000000	64.966511 
3517.000000	64.986872 
3516.000000	65.017724 
3515.000000	65.057682 
3514.000000	65.104556 
3513.000000	65.155363 
3512.000000	65.206551 
3511.000000	65.253877 
3510.000000	65.292739 
3509.000000	65.318632 
3508.000000	65.327930 
3507.000000	65.318441 
3506.000000	65.290021 
3505.000000	65.245056 
3504.000000	65.188455 
3503.000000	65.126752 
3502.000000	65.067195 
3501.000000	65.016508 
3500.000000	64.979839 
3499.000000	64.959669 
3498.000000	64.955568 
3497.000000	64.964485 
3496.000000	64.981627 
3495.000000	65.001559 
3494.000000	65.019702 
3493.000000	65.032887 
3492.000000	65.040302 
3491.000000	65.043306 
3490.000000	65.044856 
3489.000000	65.048480 
3488.000000	65.056920 
3487.000000	65.071177 
3486.000000	65.090155 
3485.000000	65.110850 
3484.000000	65.129399 
3483.000000	65.142083 
3482.000000	65.146398 
3481.000000	65.141987 
3480.000000	65.130376 
3479.000000	65.114498 
3478.000000	65.098071 
3477.000000	65.084290 
3476.000000	65.075397 
3475.000000	65.072154 
3474.000000	65.074229 
3473.000000	65.080809 
3472.000000	65.090537 
3471.000000	65.102219 
3470.000000	65.114688 
3469.000000	65.127182 
3468.000000	65.138602 
3467.000000	65.147662 
3466.000000	65.152692 
3465.000000	65.152478 
3464.000000	65.146636 
3463.000000	65.136051 
3462.000000	65.122938 
3461.000000	65.110492 
3460.000000	65.102529 
3459.000000	65.102386 
3458.000000	65.111732 
3457.000000	65.130662 
3456.000000	65.157485 
3455.000000	65.189456 
3454.000000	65.223288 
3453.000000	65.256094 
3452.000000	65.286207 
3451.000000	65.313029 
3450.000000	65.336823 
3449.000000	65.358471 
3448.000000	65.378808 
3447.000000	65.398168 
3446.000000	65.416216 
3445.000000	65.432095 
3444.000000	65.444874 
3443.000000	65.453934 
3442.000000	65.459346 
3441.000000	65.461850 
3440.000000	65.462470 
3439.000000	65.462160 
3438.000000	65.461230 
3437.000000	65.459179 
3436.000000	65.454554 
3435.000000	65.445351 
3434.000000	65.429544 
3433.000000	65.405750 
3432.000000	65.373587 
3431.000000	65.334391 
3430.000000	65.290522 
3429.000000	65.245199 
3428.000000	65.201854 
3427.000000	65.163493 
3426.000000	65.131902 
3425.000000	65.107464 
3424.000000	65.089201 
3423.000000	65.075159 
3422.000000	65.062904 
3421.000000	65.050339 
3420.000000	65.036201 
3419.000000	65.019869 
3418.000000	65.002155 
3417.000000	64.984703 
3416.000000	64.969563 
3415.000000	64.958477 
3414.000000	64.952492 
3413.000000	64.951586 
3412.000000	64.954566 
3411.000000	64.959311 
3410.000000	64.963221 
3409.000000	64.964127 
3408.000000	64.960432 
3407.000000	64.952087 
3406.000000	64.940166 
3405.000000	64.927244 
3404.000000	64.916443 
3403.000000	64.911389 
3402.000000	64.914917 
3401.000000	64.929103 
3400.000000	64.954614 
3399.000000	64.990425 
3398.000000	65.034174 
3397.000000	65.082240 
3396.000000	65.130591 
3395.000000	65.175104 
3394.000000	65.212154 
3393.000000	65.239000 
3392.000000	65.254330 
3391.000000	65.258097 
3390.000000	65.251517 
3389.000000	65.236830 
3388.000000	65.216803 
3387.000000	65.194034 
3386.000000	65.170502 
3385.000000	65.147614 
3384.000000	65.126252 
3383.000000	65.106821 
3382.000000	65.089559 
3381.000000	65.074849 
3380.000000	65.063476 
3379.000000	65.056180 
3378.000000	65.053701 
3377.000000	65.056109 
3376.000000	65.063023 
3375.000000	65.073299 
3374.000000	65.085363 
3373.000000	65.097284 
3372.000000	65.107250 
3371.000000	65.113902 
3370.000000	65.116405 
3369.000000	65.114498 
3368.000000	65.108561 
3367.000000	65.099310 
3366.000000	65.087699 
3365.000000	65.074586 
3364.000000	65.061306 
3363.000000	65.049648 
3362.000000	65.041494 
3361.000000	65.038704 
3360.000000	65.042901 
3359.000000	65.054965 
3358.000000	65.074658 
3357.000000	65.100383 
3356.000000	65.129399 
3355.000000	65.158200 
3354.000000	65.183329 
3353.000000	65.201807 
3352.000000	65.211725 
3351.000000	65.212488 
3350.000000	65.205001 
3349.000000	65.191316 
3348.000000	65.174031 
3347.000000	65.155911 
3346.000000	65.139412 
3345.000000	65.126371 
3344.000000	65.117812 
3343.000000	65.113925 
3342.000000	65.114426 
3341.000000	65.118384 
3340.000000	65.124392 
3339.000000	65.130710 
3338.000000	65.135431 
3337.000000	65.136766 
3336.000000	65.133261 
3335.000000	65.123987 
3334.000000	65.108823 
3333.000000	65.088391 
3332.000000	65.064215 
3331.000000	65.038275 
3330.000000	65.012812 
3329.000000	64.990258 
3328.000000	64.972829 
3327.000000	64.961981 
3326.000000	64.958643 
3325.000000	64.963006 
3324.000000	64.974665 
3323.000000	64.992284 
3322.000000	65.014314 
3321.000000	65.038990 
3320.000000	65.064883 
3319.000000	65.090537 
3318.000000	65.115380 
3317.000000	65.139245 
3316.000000	65.162611 
3315.000000	65.186285 
3314.000000	65.210866 
3313.000000	65.236234 
3312.000000	65.261387 
3311.000000	65.284633 
3310.000000	65.303564 
3309.000000	65.315651 
3308.000000	65.318846 
3307.000000	65.312170 
3306.000000	65.295863 
3305.000000	65.271401 
3304.000000	65.241432 
3303.000000	65.209174 
3302.000000	65.177750 
3301.000000	65.149521 
3300.000000	65.126061 
3299.000000	65.107750 
3298.000000	65.093874 
3297.000000	65.082955 
3296.000000	65.073251 
3295.000000	65.063405 
3294.000000	65.052175 
3293.000000	65.039443 
3292.000000	65.025591 
3291.000000	65.012097 
3290.000000	65.000653 
3289.000000	64.993166 
3288.000000	64.991044 
3287.000000	64.994764 
3286.000000	65.003824 
3285.000000	65.016436 
3284.000000	65.029907 
3283.000000	65.041375 
3282.000000	65.048623 
3281.000000	65.050339 
3280.000000	65.046691 
3279.000000	65.039157 
3278.000000	65.030431 
3277.000000	65.023469 
3276.000000	65.021038 
3275.000000	65.024900 
3274.000000	65.035557 
3273.000000	65.052556 
3272.000000	65.074563 
3271.000000	65.099740 
3270.000000	65.126347 
3269.000000	65.153098 
3268.000000	65.179276 
3267.000000	65.204429 
3266.000000	65.227913 
3265.000000	65.249204 
3264.000000	65.267014 
3263.000000	65.280008 
3262.000000	65.286469 
3261.000000	65.285277 
3260.000000	65.275645 
3259.000000	65.257740 
3258.000000	65.232539 
3257.000000	65.201926 
3256.000000	65.168380 
3255.000000	65.134692 
3254.000000	65.103626 
3253.000000	65.077781 
3252.000000	65.059256 
3251.000000	65.049600 
3250.000000	65.049576 
3249.000000	65.059232 
3248.000000	65.077733 
3247.000000	65.103530 
3246.000000	65.134263 
3245.000000	65.167140 
3244.000000	65.198922 
3243.000000	65.226602 
3242.000000	65.247464 
3241.000000	65.259623 
3240.000000	65.262222 
3239.000000	65.255308 
3238.000000	65.239977 
3237.000000	65.217828 
3236.000000	65.191102 
3235.000000	65.161848 
3234.000000	65.132188 
3233.000000	65.103888 
3232.000000	65.078377 
3231.000000	65.056896 
3230.000000	65.040278 
3229.000000	65.028977 
3228.000000	65.023255 
3227.000000	65.022850 
3226.000000	65.027141 
3225.000000	65.035152 
3224.000000	65.045714 
3223.000000	65.057444 
3222.000000	65.069317 
3221.000000	65.080642 
3220.000000	65.091252 
3219.000000	65.101265 
3218.000000	65.111017 
3217.000000	65.120625 
3216.000000	65.129876 
3215.000000	65.138125 
3214.000000	65.144491 
3213.000000	65.148496 
3212.000000	65.150117 
3211.000000	65.149998 
3210.000000	65.149283 
3209.000000	65.149450 
3208.000000	65.151810 
3207.000000	65.157055 
3206.000000	65.165066 
3205.000000	65.174651 
3204.000000	65.184092 
3203.000000	65.191531 
3202.000000	65.195369 
3201.000000	65.194559 
3200.000000	65.188884 
3199.000000	65.179061 
3198.000000	65.166211 
3197.000000	65.151691 
3196.000000	65.136694 
3195.000000	65.122127 
3194.000000	65.108799 
3193.000000	65.097308 
3192.000000	65.088129 
3191.000000	65.081667 
3190.000000	65.077948 
3189.000000	65.076875 
3188.000000	65.077757 
3187.000000	65.079879 
3186.000000	65.082263 
3185.000000	65.084528 
3184.000000	65.086579 
3183.000000	65.088891 
3182.000000	65.092206 
3181.000000	65.097308 
3180.000000	65.104603 
3179.000000	65.113830 
3178.000000	65.123963 
3177.000000	65.133309 
3176.000000	65.139961 
3175.000000	65.142345 
3174.000000	65.139627 
3173.000000	65.131878 
3172.000000	65.120100 
3171.000000	65.105676 
3170.000000	65.090131 
3169.000000	65.074658 
3168.000000	65.059804 
3167.000000	65.045881 
3166.000000	65.032863 
3165.000000	65.021133 
3164.000000	65.011429 
3163.000000	65.004873 
3162.000000	65.002679 
3161.000000	65.005588 
3160.000000	65.013790 
3159.000000	65.026140 
3158.000000	65.040802 
3157.000000	65.055274 
3156.000000	65.067338 
3155.000000	65.075659 
3154.000000	65.080237 
3153.000000	65.082430 
3152.000000	65.084171 
3151.000000	65.087461 
3150.000000	65.093398 
3149.000000	65.101766 
3148.000000	65.110969 
3147.000000	65.118598 
3146.000000	65.122270 
3145.000000	65.120530 
3144.000000	65.113306 
3143.000000	65.102362 
3142.000000	65.090703 
3141.000000	65.082073 
3140.000000	65.079808 
3139.000000	65.086078 
3138.000000	65.101408 
3137.000000	65.124559 
3136.000000	65.152835 
3135.000000	65.182709 
3134.000000	65.210795 
3133.000000	65.234375 
3132.000000	65.251851 
3131.000000	65.262746 
3130.000000	65.267705 
3129.000000	65.268087 
3128.000000	65.265321 
3127.000000	65.260648 
3126.000000	65.254950 
3125.000000	65.248537 
3124.000000	65.241527 
3123.000000	65.233755 
3122.000000	65.225291 
3121.000000	65.216398 
3120.000000	65.207695 
3119.000000	65.200257 
3118.000000	65.195322 
3117.000000	65.194344 
3116.000000	65.198397 
3115.000000	65.208172 
3114.000000	65.223503 
3113.000000	65.242934 
3112.000000	65.264272 
3111.000000	65.284276 
3110.000000	65.300035 
3109.000000	65.309500 
3108.000000	65.312123 
3107.000000	65.309166 
3106.000000	65.303158 
3105.000000	65.297412 
3104.000000	65.294837 
3103.000000	65.297198 
3102.000000	65.304493 
3101.000000	65.315151 
3100.000000	65.326261 
3099.000000	65.334868 
3098.000000	65.338611 
3097.000000	65.336370 
3096.000000	65.328931 
3095.000000	65.318512 
3094.000000	65.308475 
3093.000000	65.302109 
3092.000000	65.302157 
3091.000000	65.309810 
3090.000000	65.324687 
3089.000000	65.344738 
3088.000000	65.366983 
3087.000000	65.387821 
3086.000000	65.403819 
3085.000000	65.411972 
3084.000000	65.410304 
3083.000000	65.397882 
3082.000000	65.375065 
3081.000000	65.343427 
3080.000000	65.305328 
3079.000000	65.263962 
3078.000000	65.222930 
3077.000000	65.186142 
3076.000000	65.156984 
3075.000000	65.138339 
3074.000000	65.132141 
3073.000000	65.139102 
3072.000000	65.158319 
3071.000000	65.187430 
3070.000000	65.222835 
3069.000000	65.260028 
3068.000000	65.294218 
3067.000000	65.321254 
3066.000000	65.338325 
3065.000000	65.344500 
3064.000000	65.340614 
3063.000000	65.329337 
3062.000000	65.314269 
3061.000000	65.299391 
3060.000000	65.287876 
3059.000000	65.281581 
3058.000000	65.280437 
3057.000000	65.282797 
3056.000000	65.285778 
3055.000000	65.286278 
3054.000000	65.281748 
3053.000000	65.270924 
3052.000000	65.253949 
3051.000000	65.232419 
3050.000000	65.208792 
3049.000000	65.185952 
3048.000000	65.166449 
3047.000000	65.151929 
3046.000000	65.142917 
3045.000000	65.139055 
3044.000000	65.138983 
3043.000000	65.140891 
3042.000000	65.142869 
3041.000000	65.143275 
3040.000000	65.141153 
3039.000000	65.136432 
3038.000000	65.129756 
3037.000000	65.122246 
3036.000000	65.115642 
3035.000000	65.111804 
3034.000000	65.112471 
3033.000000	65.118789 
3032.000000	65.131044 
3031.000000	65.148806 
3030.000000	65.170788 
3029.000000	65.195155 
3028.000000	65.219759 
3027.000000	65.242528 
3026.000000	65.261888 
3025.000000	65.276789 
3024.000000	65.286922 
3023.000000	65.292263 
3022.000000	65.293264 
3021.000000	65.290427 
3020.000000	65.284323 
3019.000000	65.275287 
3018.000000	65.263962 
3017.000000	65.250778 
3016.000000	65.236210 
3015.000000	65.220713 
3014.000000	65.204858 
3013.000000	65.189075 
3012.000000	65.173673 
3011.000000	65.158700 
3010.000000	65.144324 
3009.000000	65.130853 
3008.000000	65.118932 
3007.000000	65.109658 
3006.000000	65.104198 
3005.000000	65.103816 
3004.000000	65.109395 
3003.000000	65.121150 
3002.000000	65.138077 
3001.000000	65.158319 
3000.000000	65.179133 
2999.000000	65.197515 
2998.000000	65.210700 
2997.000000	65.216875 
2996.000000	65.215563 
2995.000000	65.207386 
2994.000000	65.194296 
2993.000000	65.178823 
2992.000000	65.163540 
2991.000000	65.150547 
2990.000000	65.140986 
2989.000000	65.135359 
2988.000000	65.133213 
2987.000000	65.133595 
2986.000000	65.135192 
2985.000000	65.136957 
2984.000000	65.137672 
2983.000000	65.136599 
2982.000000	65.133094 
2981.000000	65.126991 
2980.000000	65.118503 
2979.000000	65.108060 
2978.000000	65.096640 
2977.000000	65.085482 
2976.000000	65.076112 
2975.000000	65.069794 
2974.000000	65.067434 
2973.000000	65.069270 
2972.000000	65.074491 
2971.000000	65.081810 
2970.000000	65.089631 
2969.000000	65.096354 
2968.000000	65.100789 
2967.000000	65.102148 
2966.000000	65.100264 
2965.000000	65.095210 
2964.000000	65.087175 
2963.000000	65.076231 
2962.000000	65.062189 
2961.000000	65.044736 
2960.000000	65.023779 
2959.000000	64.999675 
2958.000000	64.973449 
2957.000000	64.946770 
2956.000000	64.921927 
2955.000000	64.901423 
2954.000000	64.887428 
2953.000000	64.881396 
2952.000000	64.883565 
2951.000000	64.893150 
2950.000000	64.908218 
2949.000000	64.926195 
2948.000000	64.944195 
2947.000000	64.959335 
2946.000000	64.969444 
2945.000000	64.973068 
2944.000000	64.970159 
2943.000000	64.961814 
2942.000000	64.950561 
2941.000000	64.939737 
2940.000000	64.933013 
2939.000000	64.933824 
2938.000000	64.944338 
2937.000000	64.965081 
2936.000000	64.994406 
2935.000000	65.028786 
2934.000000	65.063285 
2933.000000	65.092587 
2932.000000	65.111947 
2931.000000	65.118145 
2930.000000	65.110421 
2929.000000	65.090274 
2928.000000	65.060830 
2927.000000	65.026283 
2926.000000	64.990854 
2925.000000	64.958119 
2924.000000	64.930415 
2923.000000	64.908742 
2922.000000	64.893221 
2921.000000	64.883542 
2920.000000	64.879179 
2919.000000	64.879703 
2918.000000	64.884901 
2917.000000	64.894485 
2916.000000	64.907979 
2915.000000	64.924621 
2914.000000	64.942908 
2913.000000	64.961123 
2912.000000	64.977359 
2911.000000	64.989995 
2910.000000	64.997935 
2909.000000	65.000534 
2908.000000	64.997673 
2907.000000	64.989805 
2906.000000	64.977765 
2905.000000	64.962887 
2904.000000	64.946699 
2903.000000	64.931154 
2902.000000	64.918327 
2901.000000	64.910364 
2900.000000	64.909124 
2899.000000	64.915871 
2898.000000	64.930748 
2897.000000	64.952778 
2896.000000	64.979743 
2895.000000	65.008759 
2894.000000	65.036606 
2893.000000	65.060162 
2892.000000	65.077066 
2891.000000	65.086460 
2890.000000	65.088653 
2889.000000	65.085005 
2888.000000	65.077805 
2887.000000	65.069365 
2886.000000	65.061879 
2885.000000	65.056991 
2884.000000	65.055561 
2883.000000	65.057635 
2882.000000	65.062665 
2881.000000	65.069913 
2880.000000	65.078449 
2879.000000	65.087270 
2878.000000	65.095639 
2877.000000	65.102958 
2876.000000	65.108799 
2875.000000	65.112876 
2874.000000	65.114903 
2873.000000	65.114760 
2872.000000	65.112686 
2871.000000	65.109205 
2870.000000	65.105247 
2869.000000	65.101909 
2868.000000	65.100479 
2867.000000	65.102076 
2866.000000	65.107297 
2865.000000	65.115761 
2864.000000	65.126562 
2863.000000	65.137791 
2862.000000	65.147352 
2861.000000	65.152692 
2860.000000	65.151810 
2859.000000	65.143418 
2858.000000	65.127086 
2857.000000	65.103435 
2856.000000	65.074014 
2855.000000	65.040779 
2854.000000	65.005803 
2853.000000	64.971137 
2852.000000	64.938640 
2851.000000	64.910030 
2850.000000	64.886927 
2849.000000	64.870858 
2848.000000	64.863204 
2847.000000	64.864802 
2846.000000	64.875912 
2845.000000	64.895701 
2844.000000	64.922666 
2843.000000	64.954352 
2842.000000	64.988279 
2841.000000	65.022039 
2840.000000	65.053868 
2839.000000	65.082740 
2838.000000	65.108442 
2837.000000	65.131187 
2836.000000	65.151500 
2835.000000	65.169763 
2834.000000	65.186071 
2833.000000	65.200209 
2832.000000	65.211725 
2831.000000	65.220475 
2830.000000	65.226483 
2829.000000	65.230321 
2828.000000	65.232586 
2827.000000	65.233993 
2826.000000	65.234827 
2825.000000	65.235137 
2824.000000	65.234541 
2823.000000	65.232586 
2822.000000	65.229058 
2821.000000	65.224337 
2820.000000	65.219330 
2819.000000	65.215182 
2818.000000	65.213465 
2817.000000	65.215444 
2816.000000	65.222001 
2815.000000	65.233278 
2814.000000	65.248608 
2813.000000	65.266609 
2812.000000	65.285634 
2811.000000	65.303516 
2810.000000	65.318322 
2809.000000	65.328311 
2808.000000	65.332174 
2807.000000	65.329217 
2806.000000	65.319418 
2805.000000	65.303564 
2804.000000	65.283131 
2803.000000	65.260291 
2802.000000	65.237569 
2801.000000	65.217280 
2800.000000	65.201306 
2799.000000	65.190601 
2798.000000	65.185189 
2797.000000	65.184259 
2796.000000	65.186548 
2795.000000	65.190529 
2794.000000	65.194988 
2793.000000	65.198945 
2792.000000	65.201878 
2791.000000	65.203332 
2790.000000	65.203142 
2789.000000	65.201163 
2788.000000	65.197348 
2787.000000	65.191841 
2786.000000	65.185070 
2785.000000	65.177798 
2784.000000	65.171122 
2783.000000	65.166425 
2782.000000	65.164899 
2781.000000	65.167331 
2780.000000	65.173745 
2779.000000	65.183448 
2778.000000	65.195059 
2777.000000	65.206980 
2776.000000	65.217804 
2775.000000	65.226602 
2774.000000	65.233159 
2773.000000	65.237736 
2772.000000	65.241026 
2771.000000	65.243840 
2770.000000	65.246629 
2769.000000	65.249395 
2768.000000	65.251708 
2767.000000	65.252828 
2766.000000	65.251779 
2765.000000	65.247559 
2764.000000	65.239548 
2763.000000	65.227723 
2762.000000	65.212631 
2761.000000	65.195655 
2760.000000	65.178465 
2759.000000	65.163159 
2758.000000	65.151715 
2757.000000	65.145659 
2756.000000	65.145802 
2755.000000	65.152168 
2754.000000	65.163993 
2753.000000	65.180039 
2752.000000	65.198397 
2751.000000	65.217280 
2750.000000	65.234947 
2749.000000	65.250325 
2748.000000	65.262627 
2747.000000	65.271806 
2746.000000	65.278196 
2745.000000	65.282440 
2744.000000	65.285253 
2743.000000	65.287303 
2742.000000	65.289092 
2741.000000	65.290975 
2740.000000	65.293264 
2739.000000	65.296244 
2738.000000	65.300202 
2737.000000	65.305399 
2736.000000	65.312170 
2735.000000	65.320682 
2734.000000	65.330648 
2733.000000	65.341520 
2732.000000	65.352392 
2731.000000	65.362143 
2730.000000	65.369772 
2729.000000	65.374445 
2728.000000	65.375542 
2727.000000	65.372848 
2726.000000	65.366220 
2725.000000	65.355730 
2724.000000	65.341711 
2723.000000	65.324687 
2722.000000	65.305638 
2721.000000	65.285801 
2720.000000	65.267014 
2719.000000	65.251541 
2718.000000	65.241789 
2717.000000	65.239763 
2716.000000	65.246725 
2715.000000	65.262866 
2714.000000	65.286922 
2713.000000	65.316295 
2712.000000	65.347456 
2711.000000	65.376520 
2710.000000	65.399813 
2709.000000	65.414690 
2708.000000	65.419793 
2707.000000	65.415334 
2706.000000	65.402746 
2705.000000	65.384602 
2704.000000	65.363812 
2703.000000	65.343117 
2702.000000	65.325045 
2701.000000	65.310859 
2700.000000	65.301108 
2699.000000	65.295147 
2698.000000	65.291786 
2697.000000	65.289235 
2696.000000	65.285730 
2695.000000	65.279746 
2694.000000	65.270209 
2693.000000	65.256881 
2692.000000	65.240144 
2691.000000	65.221166 
2690.000000	65.201568 
2689.000000	65.183186 
2688.000000	65.167832 
2687.000000	65.156817 
2686.000000	65.150809 
2685.000000	65.149688 
2684.000000	65.152716 
2683.000000	65.158510 
2682.000000	65.165543 
2681.000000	65.172386 
2680.000000	65.178132 
2679.000000	65.182304 
2678.000000	65.185093 
2677.000000	65.187215 
2676.000000	65.189766 
2675.000000	65.193819 
2674.000000	65.200161 
2673.000000	65.208983 
2672.000000	65.219807 
2671.000000	65.231871 
2670.000000	65.243983 
2669.000000	65.255045 
2668.000000	65.263938 
2667.000000	65.269947 
2666.000000	65.272665 
2665.000000	65.271735 
2664.000000	65.267086 
2663.000000	65.258836 
2662.000000	65.247535 
2661.000000	65.234041 
2660.000000	65.219783 
2659.000000	65.206480 
2658.000000	65.195822 
2657.000000	65.189099 
2656.000000	65.186715 
2655.000000	65.188264 
2654.000000	65.192413 
2653.000000	65.197348 
2652.000000	65.201163 
2651.000000	65.202498 
2650.000000	65.200924 
2649.000000	65.197253 
2648.000000	65.192937 
2647.000000	65.190052 
2646.000000	65.190267 
2645.000000	65.194487 
2644.000000	65.202379 
2643.000000	65.212750 
2642.000000	65.223693 
2641.000000	65.233349 
2640.000000	65.240359 
2639.000000	65.244221 
2638.000000	65.245342 
2637.000000	65.244865 
2636.000000	65.244150 
2635.000000	65.244531 
2634.000000	65.246868 
2633.000000	65.251350 
2632.000000	65.257477 
2631.000000	65.264272 
2630.000000	65.270471 
2629.000000	65.274834 
2628.000000	65.276598 
2627.000000	65.275502 
2626.000000	65.271902 
2625.000000	65.266823 
2624.000000	65.261793 
2623.000000	65.258502 
2622.000000	65.258264 
2621.000000	65.262174 
2620.000000	65.270256 
2619.000000	65.281653 
2618.000000	65.294551 
2617.000000	65.306639 
2616.000000	65.315508 
2615.000000	65.319442 
2614.000000	65.317726 
2613.000000	65.310859 
2612.000000	65.300321 
2611.000000	65.288186 
2610.000000	65.276479 
2609.000000	65.266609 
2608.000000	65.259194 
2607.000000	65.254044 
2606.000000	65.250468 
2605.000000	65.247511 
2604.000000	65.244460 
2603.000000	65.240859 
2602.000000	65.236854 
2601.000000	65.233016 
2600.000000	65.229916 
2599.000000	65.228152 
2598.000000	65.227890 
2597.000000	65.229058 
2596.000000	65.231347 
2595.000000	65.234327 
2594.000000	65.237784 
2593.000000	65.241551 
2592.000000	65.245580 
2591.000000	65.249919 
2590.000000	65.254378 
2589.000000	65.258717 
2588.000000	65.262603 
2587.000000	65.265655 
2586.000000	65.267682 
2585.000000	65.268516 
2584.000000	65.268135 
2583.000000	65.266776 
2582.000000	65.264654 
2581.000000	65.262103 
2580.000000	65.259432 
2579.000000	65.257120 
2578.000000	65.255689 
2577.000000	65.255665 
2576.000000	65.257430 
2575.000000	65.261292 
2574.000000	65.267038 
2573.000000	65.274214 
2572.000000	65.281963 
2571.000000	65.289044 
2570.000000	65.294098 
2569.000000	65.296125 
2568.000000	65.294551 
2567.000000	65.289473 
2566.000000	65.281724 
2565.000000	65.272569 
2564.000000	65.263605 
2563.000000	65.256094 
2562.000000	65.251159 
2561.000000	65.249419 
2560.000000	65.251040 
2559.000000	65.255713 
2558.000000	65.263032 
2557.000000	65.272450 
2556.000000	65.283370 
2555.000000	65.295290 
2554.000000	65.307736 
2553.000000	65.320467 
2552.000000	65.332961 
2551.000000	65.344595 
2550.000000	65.354371 
2549.000000	65.360975 
2548.000000	65.362930 
2547.000000	65.358972 
2546.000000	65.348315 
2545.000000	65.331196 
2544.000000	65.308880 
2543.000000	65.283894 
2542.000000	65.259361 
2541.000000	65.238785 
2540.000000	65.225172 
2539.000000	65.220355 
2538.000000	65.225005 
2537.000000	65.238022 
2536.000000	65.256881 
2535.000000	65.278077 
2534.000000	65.297651 
2533.000000	65.312075 
2532.000000	65.318799 
2531.000000	65.317034 
2530.000000	65.307402 
2529.000000	65.292096 
2528.000000	65.274119 
2527.000000	65.256476 
2526.000000	65.241456 
2525.000000	65.230154 
2524.000000	65.222406 
2523.000000	65.217137 
2522.000000	65.213179 
2521.000000	65.209531 
2520.000000	65.206074 
2519.000000	65.203547 
2518.000000	65.203166 
2517.000000	65.206289 
2516.000000	65.213489 
2515.000000	65.224361 
2514.000000	65.237140 
2513.000000	65.249300 
2512.000000	65.257930 
2511.000000	65.260744 
2510.000000	65.256524 
2509.000000	65.245819 
2508.000000	65.230774 
2507.000000	65.214490 
2506.000000	65.200352 
2505.000000	65.191078 
2504.000000	65.188074 
2503.000000	65.191340 
2502.000000	65.199398 
2501.000000	65.209817 
2500.000000	65.219974 
2499.000000	65.227723 
2498.000000	65.231800 
2497.000000	65.232086 
2496.000000	65.229368 
2495.000000	65.225005 
2494.000000	65.220594 
2493.000000	65.217471 
2492.000000	65.216422 
2491.000000	65.217709 
2490.000000	65.221166 
2489.000000	65.226316 
2488.000000	65.232634 
2487.000000	65.239691 
2486.000000	65.247154 
2485.000000	65.254783 
2484.000000	65.262293 
2483.000000	65.269494 
2482.000000	65.275955 
2481.000000	65.281343 
2480.000000	65.285444 
2479.000000	65.288281 
2478.000000	65.290069 
2477.000000	65.291190 
2476.000000	65.291953 
2475.000000	65.292692 
2474.000000	65.293574 
2473.000000	65.294694 
2472.000000	65.295982 
2471.000000	65.297412 
2470.000000	65.299272 
2469.000000	65.301966 
2468.000000	65.306091 
2467.000000	65.312314 
2466.000000	65.320944 
2465.000000	65.332031 
2464.000000	65.345048 
2463.000000	65.358901 
2462.000000	65.372014 
2461.000000	65.382623 
2460.000000	65.388894 
2459.000000	65.389490 
2458.000000	65.383648 
2457.000000	65.371251 
2456.000000	65.353035 
2455.000000	65.330410 
2454.000000	65.305328 
2453.000000	65.280103 
2452.000000	65.257167 
2451.000000	65.238523 
2450.000000	65.225577 
2449.000000	65.218806 
2448.000000	65.217804 
2447.000000	65.221405 
2446.000000	65.228152 
2445.000000	65.236544 
2444.000000	65.245628 
2443.000000	65.254878 
2442.000000	65.264296 
2441.000000	65.274167 
2440.000000	65.284514 
2439.000000	65.295028 
2438.000000	65.304899 
2437.000000	65.312957 
2436.000000	65.317964 
2435.000000	65.319013 
2434.000000	65.316009 
2433.000000	65.309667 
2432.000000	65.301585 
2431.000000	65.293455 
2430.000000	65.287065 
2429.000000	65.283441 
2428.000000	65.282726 
2427.000000	65.284299 
2426.000000	65.286827 
2425.000000	65.289020 
2424.000000	65.290021 
2423.000000	65.289783 
2422.000000	65.289092 
2421.000000	65.289235 
2420.000000	65.291690 
2419.000000	65.297436 
2418.000000	65.306520 
2417.000000	65.318036 
2416.000000	65.330266 
2415.000000	65.341114 
2414.000000	65.348672 
2413.000000	65.351867 
2412.000000	65.350413 
2411.000000	65.345001 
2410.000000	65.336728 
2409.000000	65.326786 
2408.000000	65.315961 
2407.000000	65.304660 
2406.000000	65.292668 
2405.000000	65.279698 
2404.000000	65.265297 
2403.000000	65.249514 
2402.000000	65.233016 
2401.000000	65.216803 
2400.000000	65.202236 
2399.000000	65.190505 
2398.000000	65.182542 
2397.000000	65.178775 
2396.000000	65.179038 
2395.000000	65.182828 
2394.000000	65.189409 
2393.000000	65.198111 
2392.000000	65.208458 
2391.000000	65.220236 
2390.000000	65.233182 
2389.000000	65.246987 
2388.000000	65.261125 
2387.000000	65.274810 
2386.000000	65.287137 
2385.000000	65.297007 
2384.000000	65.303564 
2383.000000	65.306138 
2382.000000	65.304660 
2381.000000	65.299439 
2380.000000	65.291285 
2379.000000	65.281128 
2378.000000	65.270113 
2377.000000	65.259218 
2376.000000	65.249300 
2375.000000	65.240979 
2374.000000	65.234684 
2373.000000	65.230512 
2372.000000	65.228343 
2371.000000	65.227723 
2370.000000	65.228199 
2369.000000	65.229177 
2368.000000	65.229845 
2367.000000	65.229654 
2366.000000	65.228104 
2365.000000	65.225028 
2364.000000	65.220689 
2363.000000	65.215587 
2362.000000	65.210533 
2361.000000	65.206718 
2360.000000	65.205407 
2359.000000	65.207839 
2358.000000	65.214824 
2357.000000	65.226602 
2356.000000	65.242552 
2355.000000	65.261292 
2354.000000	65.280628 
2353.000000	65.297937 
2352.000000	65.310525 
2351.000000	65.316390 
2350.000000	65.314459 
2349.000000	65.305161 
2348.000000	65.290474 
2347.000000	65.273618 
2346.000000	65.258598 
2345.000000	65.249276 
2344.000000	65.248775 
2343.000000	65.258598 
2342.000000	65.278315 
2341.000000	65.305781 
2340.000000	65.337395 
2339.000000	65.368843 
2338.000000	65.396046 
2337.000000	65.415906 
2336.000000	65.426731 
2335.000000	65.428423 
2334.000000	65.422320 
2333.000000	65.410852 
2332.000000	65.396881 
2331.000000	65.383124 
2330.000000	65.372014 
2329.000000	65.365195 
2328.000000	65.363836 
2327.000000	65.368223 
2326.000000	65.378284 
2325.000000	65.393090 
2324.000000	65.411472 
2323.000000	65.431571 
2322.000000	65.451169 
2321.000000	65.467953 
2320.000000	65.479540 
2319.000000	65.484285 
2318.000000	65.481495 
2317.000000	65.471673 
2316.000000	65.456438 
2315.000000	65.438103 
2314.000000	65.419173 
2313.000000	65.401649 
2312.000000	65.386700 
2311.000000	65.374422 
2310.000000	65.364074 
2309.000000	65.354251 
2308.000000	65.343618 
2307.000000	65.331292 
2306.000000	65.317320 
2305.000000	65.302467 
2304.000000	65.288209 
2303.000000	65.276050 
2302.000000	65.267515 
2301.000000	65.263605 
2300.000000	65.264534 
2299.000000	65.269804 
2298.000000	65.278434 
2297.000000	65.289211 
2296.000000	65.300607 
2295.000000	65.311217 
2294.000000	65.319705 
2293.000000	65.324759 
2292.000000	65.325498 
2291.000000	65.321421 
2290.000000	65.312671 
2289.000000	65.299916 
2288.000000	65.284299 
2287.000000	65.267372 
2286.000000	65.250825 
2285.000000	65.236282 
2284.000000	65.225052 
2283.000000	65.217947 
2282.000000	65.215420 
2281.000000	65.217733 
2280.000000	65.224695 
2279.000000	65.235757 
2278.000000	65.250325 
2277.000000	65.267467 
2276.000000	65.285849 
2275.000000	65.303921 
2274.000000	65.319991 
2273.000000	65.332508 
2272.000000	65.340209 
2271.000000	65.342450 
2270.000000	65.339469 
2269.000000	65.331983 
2268.000000	65.321302 
2267.000000	65.308642 
2266.000000	65.295147 
2265.000000	65.281605 
2264.000000	65.268588 
2263.000000	65.256452 
2262.000000	65.245580 
2261.000000	65.236568 
2260.000000	65.230393 
2259.000000	65.228176 
2258.000000	65.230989 
2257.000000	65.239477 
2256.000000	65.253639 
2255.000000	65.272688 
2254.000000	65.295171 
2253.000000	65.319132 
2252.000000	65.342545 
2251.000000	65.363717 
2250.000000	65.381550 
2249.000000	65.395522 
2248.000000	65.405750 
2247.000000	65.412545 
2246.000000	65.416502 
2245.000000	65.418124 
2244.000000	65.417695 
2243.000000	65.415525 
2242.000000	65.411710 
2241.000000	65.406441 
2240.000000	65.399813 
2239.000000	65.392136 
2238.000000	65.383458 
2237.000000	65.373945 
2236.000000	65.363621 
2235.000000	65.352511 
2234.000000	65.340852 
2233.000000	65.329098 
2232.000000	65.318179 
2231.000000	65.309166 
2230.000000	65.303373 
2229.000000	65.301728 
2228.000000	65.304732 
2227.000000	65.312194 
2226.000000	65.323328 
2225.000000	65.336751 
2224.000000	65.350842 
2223.000000	65.363979 
2222.000000	65.375089 
2221.000000	65.383625 
2220.000000	65.389561 
2219.000000	65.393304 
2218.000000	65.395450 
2217.000000	65.396547 
2216.000000	65.396904 
2215.000000	65.396356 
2214.000000	65.394616 
2213.000000	65.391182 
2212.000000	65.385723 
2211.000000	65.378189 
2210.000000	65.369009 
2209.000000	65.359020 
2208.000000	65.349531 
2207.000000	65.341949 
2206.000000	65.337657 
2205.000000	65.337800 
2204.000000	65.342807 
2203.000000	65.352535 
2202.000000	65.365815 
2201.000000	65.380978 
2200.000000	65.395903 
2199.000000	65.408492 
2198.000000	65.417265 
2197.000000	65.421509 
2196.000000	65.421390 
2195.000000	65.417981 
2194.000000	65.412926 
2193.000000	65.407967 
2192.000000	65.404272 
2191.000000	65.402317 
2190.000000	65.401387 
2189.000000	65.400195 
2188.000000	65.396833 
2187.000000	65.389847 
2186.000000	65.378379 
2185.000000	65.362715 
2184.000000	65.344285 
2183.000000	65.325236 
2182.000000	65.308141 
2181.000000	65.295147 
2180.000000	65.287685 
2179.000000	65.286183 
2178.000000	65.290045 
2177.000000	65.297842 
2176.000000	65.307497 
2175.000000	65.316915 
2174.000000	65.324187 
2173.000000	65.328001 
2172.000000	65.327668 
2171.000000	65.323257 
2170.000000	65.315485 
2169.000000	65.305471 
2168.000000	65.294718 
2167.000000	65.285015 
2166.000000	65.278100 
2165.000000	65.275287 
2164.000000	65.277457 
2163.000000	65.284752 
2162.000000	65.296697 
2161.000000	65.312051 
2160.000000	65.329027 
2159.000000	65.345549 
2158.000000	65.359640 
2157.000000	65.369629 
2156.000000	65.374255 
2155.000000	65.372967 
2154.000000	65.365958 
2153.000000	65.354275 
2152.000000	65.339612 
2151.000000	65.324091 
2150.000000	65.310120 
2149.000000	65.299439 
2148.000000	65.293169 
2147.000000	65.291333 
2146.000000	65.292978 
2145.000000	65.296459 
2144.000000	65.299725 
2143.000000	65.300989 
2142.000000	65.299057 
2141.000000	65.293550 
2140.000000	65.285205 
2139.000000	65.275430 
2138.000000	65.265870 
2137.000000	65.258097 
2136.000000	65.253400 
2135.000000	65.252089 
2134.000000	65.253996 
2133.000000	65.258574 
2132.000000	65.265011 
2131.000000	65.272545 
2130.000000	65.280628 
2129.000000	65.288925 
2128.000000	65.297341 
2127.000000	65.305614 
2126.000000	65.313529 
2125.000000	65.320730 
2124.000000	65.326905 
2123.000000	65.331768 
2122.000000	65.335083 
2121.000000	65.336775 
2120.000000	65.336942 
2119.000000	65.335798 
2118.000000	65.333628 
2117.000000	65.330648 
2116.000000	65.327024 
2115.000000	65.322899 
2114.000000	65.318250 
2113.000000	65.312981 
2112.000000	65.307092 
2111.000000	65.300536 
2110.000000	65.293240 
2109.000000	65.285277 
2108.000000	65.276670 
2107.000000	65.267443 
2106.000000	65.257596 
2105.000000	65.247201 
2104.000000	65.236449 
2103.000000	65.225887 
2102.000000	65.216112 
2101.000000	65.208148 
2100.000000	65.202999 
2099.000000	65.201663 
2098.000000	65.204858 
2097.000000	65.212798 
2096.000000	65.224933 
2095.000000	65.240240 
2094.000000	65.257287 
2093.000000	65.274310 
2092.000000	65.289592 
2091.000000	65.301704 
2090.000000	65.309882 
2089.000000	65.313863 
2088.000000	65.314006 
2087.000000	65.311169 
2086.000000	65.306496 
2085.000000	65.301179 
2084.000000	65.296220 
2083.000000	65.292429 
2082.000000	65.290474 
2081.000000	65.290665 
2080.000000	65.293407 
2079.000000	65.298891 
2078.000000	65.307569 
2077.000000	65.319919 
2076.000000	65.336370 
2075.000000	65.357232 
2074.000000	65.382194 
2073.000000	65.410399 
2072.000000	65.439820 
2071.000000	65.467596 
2070.000000	65.490221 
2069.000000	65.504240 
2068.000000	65.506935 
2067.000000	65.497183 
2066.000000	65.475678 
2065.000000	65.445065 
2064.000000	65.409469 
2063.000000	65.373539 
2062.000000	65.341544 
2061.000000	65.316414 
2060.000000	65.299367 
2059.000000	65.289902 
2058.000000	65.286111 
2057.000000	65.285634 
2056.000000	65.286159 
2055.000000	65.286564 
2054.000000	65.286421 
2053.000000	65.286540 
2052.000000	65.287828 
2051.000000	65.291285 
2050.000000	65.296888 
2049.000000	65.304136 
2048.000000	65.311813 
2047.000000	65.318417 
2046.000000	65.322875 
2045.000000	65.324687 
2044.000000	65.324234 
2043.000000	65.322422 
2042.000000	65.320301 
2041.000000	65.318775 
2040.000000	65.318155 
2039.000000	65.318107 
2038.000000	65.317654 
2037.000000	65.315747 
2036.000000	65.311574 
2035.000000	65.305018 
2034.000000	65.296554 
2033.000000	65.287327 
2032.000000	65.278697 
2031.000000	65.271830 
2030.000000	65.267658 
2029.000000	65.266418 
2028.000000	65.267753 
2027.000000	65.271091 
2026.000000	65.275645 
2025.000000	65.280818 
2024.000000	65.286326 
2023.000000	65.291905 
2022.000000	65.297508 
2021.000000	65.303206 
2020.000000	65.309023 
2019.000000	65.314793 
2018.000000	65.320372 
2017.000000	65.325498 
2016.000000	65.329790 
2015.000000	65.333032 
2014.000000	65.334939 
2013.000000	65.335154 
2012.000000	65.333294 
2011.000000	65.329098 
2010.000000	65.322256 
2009.000000	65.312600 
2008.000000	65.300369 
2007.000000	65.286231 
2006.000000	65.271186 
2005.000000	65.256381 
2004.000000	65.243053 
2003.000000	65.232038 
2002.000000	65.223670 
2001.000000	65.217542 
2000.000000	65.212631 
1999.000000	65.207695 
1998.000000	65.201473 
1997.000000	65.193271 
1996.000000	65.182971 
1995.000000	65.171456 
1994.000000	65.160059 
1993.000000	65.150761 
1992.000000	65.145230 
1991.000000	65.144729 
1990.000000	65.149879 
1989.000000	65.160584 
1988.000000	65.176081 
1987.000000	65.195155 
1986.000000	65.216350 
1985.000000	65.238356 
1984.000000	65.260004 
1983.000000	65.280413 
1982.000000	65.298914 
1981.000000	65.315103 
1980.000000	65.328669 
1979.000000	65.339279 
1978.000000	65.346527 
1977.000000	65.350341 
1976.000000	65.350747 
1975.000000	65.348100 
1974.000000	65.342974 
1973.000000	65.336251 
1972.000000	65.328931 
1971.000000	65.321731 
1970.000000	65.315198 
1969.000000	65.309524 
1968.000000	65.304684 
1967.000000	65.300464 
1966.000000	65.296673 
1965.000000	65.293169 
1964.000000	65.290117 
1963.000000	65.287780 
1962.000000	65.286588 
1961.000000	65.286850 
1960.000000	65.288782 
1959.000000	65.292286 
1958.000000	65.297174 
1957.000000	65.302920 
1956.000000	65.309190 
1955.000000	65.315723 
1954.000000	65.322494 
1953.000000	65.329551 
1952.000000	65.337038 
1951.000000	65.345191 
1950.000000	65.353870 
1949.000000	65.362787 
1948.000000	65.371489 
1947.000000	65.379428 
1946.000000	65.386128 
1945.000000	65.391159 
1944.000000	65.394425 
1943.000000	65.395808 
1942.000000	65.395498 
1941.000000	65.393662 
1940.000000	65.390419 
1939.000000	65.385723 
1938.000000	65.379619 
1937.000000	65.372014 
1936.000000	65.362858 
1935.000000	65.352082 
1934.000000	65.339779 
1933.000000	65.326070 
1932.000000	65.311098 
1931.000000	65.295076 
1930.000000	65.278291 
1929.000000	65.261077 
1928.000000	65.244078 
1927.000000	65.228056 
1926.000000	65.213894 
1925.000000	65.202474 
1924.000000	65.194511 
1923.000000	65.190386 
1922.000000	65.190172 
1921.000000	65.193653 
1920.000000	65.200567 
1919.000000	65.210247 
1918.000000	65.222358 
1917.000000	65.236473 
1916.000000	65.252089 
1915.000000	65.268802 
1914.000000	65.285778 
1913.000000	65.302014 
1912.000000	65.316152 
1911.000000	65.326857 
1910.000000	65.333008 
1909.000000	65.333819 
1908.000000	65.329313 
1907.000000	65.320181 
1906.000000	65.307664 
1905.000000	65.293383 
1904.000000	65.278935 
1903.000000	65.265727 
1902.000000	65.254807 
1901.000000	65.246725 
1900.000000	65.241742 
1899.000000	65.239810 
1898.000000	65.240788 
1897.000000	65.244364 
1896.000000	65.250039 
1895.000000	65.257334 
1894.000000	65.265583 
1893.000000	65.274190 
1892.000000	65.282511 
1891.000000	65.290021 
1890.000000	65.296721 
1889.000000	65.302705 
1888.000000	65.308499 
1887.000000	65.314626 
1886.000000	65.321469 
1885.000000	65.329027 
1884.000000	65.336918 
1883.000000	65.344285 
1882.000000	65.350341 
1881.000000	65.354299 
1880.000000	65.355730 
1879.000000	65.354466 
1878.000000	65.350890 
1877.000000	65.345597 
1876.000000	65.339255 
1875.000000	65.332365 
1874.000000	65.325212 
1873.000000	65.317916 
1872.000000	65.310335 
1871.000000	65.302205 
1870.000000	65.293240 
1869.000000	65.283155 
1868.000000	65.272235 
1867.000000	65.260744 
1866.000000	65.249657 
1865.000000	65.239977 
1864.000000	65.233016 
1863.000000	65.229988 
1862.000000	65.231990 
1861.000000	65.239453 
1860.000000	65.252208 
1859.000000	65.269231 
1858.000000	65.288829 
1857.000000	65.308642 
1856.000000	65.326237 
1855.000000	65.339565 
1854.000000	65.347456 
1853.000000	65.349626 
1852.000000	65.346908 
1851.000000	65.341019 
1850.000000	65.334129 
1849.000000	65.328311 
1848.000000	65.325093 
1847.000000	65.324997 
1846.000000	65.327715 
1845.000000	65.332126 
1844.000000	65.336561 
1843.000000	65.339350 
1842.000000	65.339207 
1841.000000	65.335583 
1840.000000	65.328645 
1839.000000	65.319180 
1838.000000	65.308308 
1837.000000	65.297150 
1836.000000	65.286397 
1835.000000	65.276527 
1834.000000	65.267491 
1833.000000	65.258932 
1832.000000	65.250682 
1831.000000	65.242600 
1830.000000	65.234875 
1829.000000	65.227985 
1828.000000	65.222525 
1827.000000	65.219092 
1826.000000	65.217852 
1825.000000	65.218830 
1824.000000	65.221691 
1823.000000	65.225982 
1822.000000	65.231156 
1821.000000	65.237045 
1820.000000	65.243935 
1819.000000	65.252304 
1818.000000	65.262699 
1817.000000	65.275454 
1816.000000	65.290284 
1815.000000	65.306258 
1814.000000	65.321779 
1813.000000	65.335035 
1812.000000	65.344309 
1811.000000	65.348458 
1810.000000	65.346956 
1809.000000	65.340042 
1808.000000	65.328407 
1807.000000	65.313243 
1806.000000	65.295886 
1805.000000	65.277695 
1804.000000	65.260100 
1803.000000	65.244388 
1802.000000	65.231680 
1801.000000	65.222811 
1800.000000	65.218138 
1799.000000	65.217661 
1798.000000	65.221142 
1797.000000	65.228056 
1796.000000	65.237641 
1795.000000	65.248990 
1794.000000	65.260910 
1793.000000	65.272235 
1792.000000	65.281510 
1791.000000	65.287566 
1790.000000	65.289759 
1789.000000	65.288138 
1788.000000	65.283513 
1787.000000	65.277266 
1786.000000	65.271329 
1785.000000	65.267586 
1784.000000	65.267276 
1783.000000	65.270709 
1782.000000	65.277266 
1781.000000	65.285754 
1780.000000	65.294241 
1779.000000	65.300989 
1778.000000	65.304851 
1777.000000	65.305542 
1776.000000	65.303683 
1775.000000	65.300345 
1774.000000	65.296792 
1773.000000	65.293955 
1772.000000	65.292191 
1771.000000	65.291142 
1770.000000	65.289926 
1769.000000	65.287661 
1768.000000	65.283727 
1767.000000	65.278124 
1766.000000	65.271568 
1765.000000	65.264987 
1764.000000	65.259385 
1763.000000	65.255165 
1762.000000	65.251803 
1761.000000	65.248036 
1760.000000	65.242004 
1759.000000	65.231871 
1758.000000	65.216302 
1757.000000	65.195155 
1756.000000	65.169548 
1755.000000	65.141725 
1754.000000	65.114545 
1753.000000	65.090799 
1752.000000	65.072703 
1751.000000	65.061354 
1750.000000	65.056610 
1749.000000	65.057301 
1748.000000	65.061521 
1747.000000	65.067291 
1746.000000	65.072774 
1745.000000	65.076661 
1744.000000	65.077924 
1743.000000	65.075969 
1742.000000	65.070486 
1741.000000	65.061402 
1740.000000	65.049028 
1739.000000	65.034079 
1738.000000	65.017962 
1737.000000	65.002679 
1736.000000	64.990639 
1735.000000	64.984178 
1734.000000	64.985156 
1733.000000	64.994406 
1732.000000	65.011453 
1731.000000	65.034627 
1730.000000	65.061378 
1729.000000	65.088820 
1728.000000	65.114235 
1727.000000	65.135550 
1726.000000	65.151739 
1725.000000	65.162849 
1724.000000	65.169429 
1723.000000	65.172386 
1722.000000	65.172719 
1721.000000	65.171456 
1720.000000	65.169477 
1719.000000	65.167665 
1718.000000	65.167212 
1717.000000	65.169262 
1716.000000	65.174889 
1715.000000	65.184593 
1714.000000	65.198063 
1713.000000	65.214180 
1712.000000	65.230941 
1711.000000	65.245795 
1710.000000	65.256214 
1709.000000	65.260410 
1708.000000	65.257811 
1707.000000	65.249323 
1706.000000	65.237069 
1705.000000	65.224075 
1704.000000	65.213274 
1703.000000	65.207123 
1702.000000	65.206813 
1701.000000	65.212082 
1700.000000	65.221309 
1699.000000	65.231895 
1698.000000	65.241098 
1697.000000	65.246582 
1696.000000	65.247011 
1695.000000	65.242099 
1694.000000	65.232872 
1693.000000	65.221357 
1692.000000	65.209984 
1691.000000	65.200972 
1690.000000	65.195870 
1689.000000	65.195155 
1688.000000	65.198254 
1687.000000	65.203547 
1686.000000	65.208840 
1685.000000	65.211772 
1684.000000	65.210342 
1683.000000	65.203547 
1682.000000	65.191149 
1681.000000	65.174221 
1680.000000	65.154814 
1679.000000	65.135478 
1678.000000	65.119051 
1677.000000	65.108132 
1676.000000	65.104603 
1675.000000	65.109229 
1674.000000	65.121698 
1673.000000	65.140295 
1672.000000	65.162420 
1671.000000	65.184712 
1670.000000	65.203809 
1669.000000	65.216708 
1668.000000	65.221285 
1667.000000	65.216851 
1666.000000	65.204071 
1665.000000	65.185093 
1664.000000	65.162944 
1663.000000	65.141201 
1662.000000	65.122961 
1661.000000	65.110611 
1660.000000	65.105342 
1659.000000	65.106916 
1658.000000	65.114068 
1657.000000	65.124607 
1656.000000	65.136313 
1655.000000	65.147256 
1654.000000	65.156269 
1653.000000	65.162992 
1652.000000	65.168023 
1651.000000	65.172290 
1650.000000	65.176820 
1649.000000	65.182375 
1648.000000	65.188956 
1647.000000	65.195751 
1646.000000	65.201187 
1645.000000	65.203547 
1644.000000	65.201377 
1643.000000	65.193891 
1642.000000	65.181469 
1641.000000	65.165638 
1640.000000	65.148806 
1639.000000	65.133905 
1638.000000	65.123462 
1637.000000	65.119242 
1636.000000	65.121817 
1635.000000	65.130233 
1634.000000	65.142536 
1633.000000	65.156221 
1632.000000	65.168786 
1631.000000	65.178656 
1630.000000	65.185260 
1629.000000	65.189552 
1628.000000	65.193510 
1627.000000	65.199637 
1626.000000	65.210223 
1625.000000	65.226531 
1624.000000	65.248703 
1623.000000	65.275239 
1622.000000	65.303611 
1621.000000	65.330147 
1620.000000	65.351200 
1619.000000	65.363502 
1618.000000	65.365052 
1617.000000	65.355300 
1616.000000	65.335297 
1615.000000	65.307641 
1614.000000	65.275907 
1613.000000	65.244126 
1612.000000	65.216135 
1611.000000	65.195012 
1610.000000	65.182638 
1609.000000	65.179491 
1608.000000	65.184712 
1607.000000	65.196251 
1606.000000	65.211081 
1605.000000	65.225934 
1604.000000	65.237593 
1603.000000	65.243363 
1602.000000	65.241456 
1601.000000	65.231251 
1600.000000	65.213441 
1599.000000	65.189790 
1598.000000	65.162849 
1597.000000	65.135765 
1596.000000	65.111660 
1595.000000	65.093207 
1594.000000	65.082120 
1593.000000	65.078973 
1592.000000	65.083122 
1591.000000	65.092730 
1590.000000	65.105772 
1589.000000	65.120077 
1588.000000	65.134119 
1587.000000	65.146803 
1586.000000	65.157699 
1585.000000	65.166616 
1584.000000	65.173292 
1583.000000	65.177154 
1582.000000	65.177345 
1581.000000	65.172839 
1580.000000	65.162944 
1579.000000	65.147590 
1578.000000	65.127372 
1577.000000	65.103673 
1576.000000	65.078306 
1575.000000	65.053510 
1574.000000	65.031576 
1573.000000	65.014576 
1572.000000	65.004014 
1571.000000	65.000629 
1570.000000	65.004467 
1569.000000	65.014767 
1568.000000	65.030074 
1567.000000	65.048551 
1566.000000	65.067982 
1565.000000	65.086126 
1564.000000	65.100932 
1563.000000	65.110731 
1562.000000	65.114212 
1561.000000	65.110778 
1560.000000	65.100502 
1559.000000	65.084242 
1558.000000	65.063691 
1557.000000	65.041112 
1556.000000	65.019226 
1555.000000	65.000557 
1554.000000	64.987206 
1553.000000	64.980387 
1552.000000	64.980363 
1551.000000	64.986205 
1550.000000	64.996051 
1549.000000	65.007615 
1548.000000	65.018534 
1547.000000	65.026497 
1546.000000	65.030002 
1545.000000	65.028500 
1544.000000	65.022540 
1543.000000	65.013360 
1542.000000	65.002894 
1541.000000	64.993286 
1540.000000	64.986586 
1539.000000	64.984154 
1538.000000	64.986348 
1537.000000	64.992570 
1536.000000	65.001463 
1535.000000	65.011334 
1534.000000	65.020537 
1533.000000	65.027761 
1532.000000	65.032649 
1531.000000	65.035772 
1530.000000	65.038490 
1529.000000	65.042328 
1528.000000	65.048646 
1527.000000	65.058016 
1526.000000	65.070128 
1525.000000	65.083694 
1524.000000	65.096688 
1523.000000	65.106868 
1522.000000	65.112709 
1521.000000	65.113806 
1520.000000	65.111207 
1519.000000	65.107250 
1518.000000	65.105104 
1517.000000	65.107727 
1516.000000	65.117430 
1515.000000	65.134787 
1514.000000	65.158677 
1513.000000	65.186071 
1512.000000	65.213251 
1511.000000	65.236115 
1510.000000	65.251493 
1509.000000	65.257644 
1508.000000	65.254616 
1507.000000	65.243983 
1506.000000	65.228414 
1505.000000	65.210771 
1504.000000	65.193486 
1503.000000	65.178155 
1502.000000	65.165519 
1501.000000	65.155887 
1500.000000	65.149617 
1499.000000	65.147233 
1498.000000	65.149521 
1497.000000	65.157103 
1496.000000	65.169858 
1495.000000	65.186309 
1494.000000	65.203809 
1493.000000	65.218663 
1492.000000	65.227007 
1491.000000	65.225601 
1490.000000	65.212631 
1489.000000	65.188527 
1488.000000	65.155625 
1487.000000	65.117788 
1486.000000	65.079355 
1485.000000	65.044569 
1484.000000	65.016460 
1483.000000	64.996552 
1482.000000	64.984869 
1481.000000	64.980316 
1480.000000	64.981293 
1479.000000	64.986276 
1478.000000	64.994311 
1477.000000	65.004873 
1476.000000	65.018010 
1475.000000	65.033555 
1474.000000	65.051174 
1473.000000	65.069842 
1472.000000	65.088224 
1471.000000	65.104675 
1470.000000	65.117835 
1469.000000	65.126729 
1468.000000	65.131163 
1467.000000	65.131473 
1466.000000	65.128350 
1465.000000	65.122413 
1464.000000	65.113854 
1463.000000	65.102553 
1462.000000	65.087819 
1461.000000	65.068912 
1460.000000	65.045642 
1459.000000	65.018558 
1458.000000	64.989471 
1457.000000	64.961171 
1456.000000	64.936995 
1455.000000	64.920449 
1454.000000	64.914107 
1453.000000	64.919257 
1452.000000	64.935326 
1451.000000	64.960169 
1450.000000	64.990401 
1449.000000	65.022039 
1448.000000	65.051126 
1447.000000	65.074515 
1446.000000	65.090179 
1445.000000	65.097379 
1444.000000	65.096592 
1443.000000	65.089440 
1442.000000	65.078282 
1441.000000	65.065813 
1440.000000	65.054655 
1439.000000	65.047001 
1438.000000	65.044260 
1437.000000	65.047049 
1436.000000	65.054845 
1435.000000	65.066480 
1434.000000	65.079951 
1433.000000	65.093064 
1432.000000	65.103530 
1431.000000	65.109109 
1430.000000	65.108036 
1429.000000	65.099310 
1428.000000	65.082859 
1427.000000	65.059399 
1426.000000	65.030694 
1425.000000	64.999389 
1424.000000	64.968657 
1423.000000	64.941859 
1422.000000	64.921998 
1421.000000	64.911365 
1420.000000	64.910936 
1419.000000	64.920330 
1418.000000	64.937806 
1417.000000	64.960384 
1416.000000	64.984583 
1415.000000	65.007138 
1414.000000	65.025448 
1413.000000	65.037989 
1412.000000	65.044331 
1411.000000	65.045380 
1410.000000	65.042614 
1409.000000	65.038061 
1408.000000	65.033888 
1407.000000	65.031886 
1406.000000	65.033626 
1405.000000	65.039634 
1404.000000	65.049886 
1403.000000	65.063476 
1402.000000	65.078878 
1401.000000	65.093946 
1400.000000	65.106511 
1399.000000	65.114450 
1398.000000	65.116333 
1397.000000	65.111374 
1396.000000	65.099644 
1395.000000	65.082168 
1394.000000	65.060901 
1393.000000	65.038204 
1392.000000	65.016508 
1391.000000	64.997935 
1390.000000	64.984226 
1389.000000	64.976096 
1388.000000	64.973306 
1387.000000	64.974784 
1386.000000	64.978623 
1385.000000	64.982414 
1384.000000	64.983797 
1383.000000	64.980483 
1382.000000	64.971184 
1381.000000	64.955449 
1380.000000	64.934206 
1379.000000	64.909195 
1378.000000	64.883089 
1377.000000	64.858770 
1376.000000	64.839029 
1375.000000	64.826011 
1374.000000	64.821076 
1373.000000	64.824485 
1372.000000	64.835691 
1371.000000	64.853429 
1370.000000	64.876031 
1369.000000	64.901614 
1368.000000	64.928245 
1367.000000	64.954090 
1366.000000	64.977359 
1365.000000	64.996314 
1364.000000	65.009522 
1363.000000	65.016126 
1362.000000	65.015983 
1361.000000	65.009880 
1360.000000	64.999723 
1359.000000	64.988064 
1358.000000	64.977765 
1357.000000	64.971256 
1356.000000	64.970207 
1355.000000	64.974880 
1354.000000	64.984345 
1353.000000	64.996623 
1352.000000	65.009260 
1351.000000	65.019869 
1350.000000	65.026879 
1349.000000	65.029549 
1348.000000	65.028452 
1347.000000	65.024709 
1346.000000	65.019536 
1345.000000	65.014100 
1344.000000	65.009188 
1343.000000	65.005326 
1342.000000	65.002775 
1341.000000	65.001845 
1340.000000	65.002989 
1339.000000	65.006732 
1338.000000	65.013480 
1337.000000	65.023064 
1336.000000	65.034532 
1335.000000	65.046310 
1334.000000	65.056467 
1333.000000	65.062999 
1332.000000	65.064287 
1331.000000	65.059828 
1330.000000	65.050053 
1329.000000	65.036368 
1328.000000	65.020608 
1327.000000	65.004706 
1326.000000	64.990329 
1325.000000	64.978408 
1324.000000	64.969611 
1323.000000	64.964485 
1322.000000	64.963769 
1321.000000	64.968562 
1320.000000	64.979863 
1319.000000	64.998435 
1318.000000	65.023899 
1317.000000	65.054512 
1316.000000	65.087080 
1315.000000	65.117359 
1314.000000	65.140938 
1313.000000	65.154099 
1312.000000	65.154671 
1311.000000	65.142607 
1310.000000	65.119934 
1309.000000	65.090250 
1308.000000	65.057802 
1307.000000	65.026521 
1306.000000	64.999103 
1305.000000	64.976501 
1304.000000	64.958095 
1303.000000	64.942193 
1302.000000	64.926695 
1301.000000	64.910149 
1300.000000	64.891958 
1299.000000	64.873266 
1298.000000	64.855933 
1297.000000	64.842796 
1296.000000	64.836382 
1295.000000	64.838647 
1294.000000	64.850163 
1293.000000	64.870095 
1292.000000	64.896082 
1291.000000	64.924740 
1290.000000	64.952325 
1289.000000	64.975333 
1288.000000	64.991188 
1287.000000	64.998531 
1286.000000	64.997220 
1285.000000	64.988398 
1284.000000	64.973831 
1283.000000	64.955639 
1282.000000	64.935755 
1281.000000	64.915585 
1280.000000	64.896082 
1279.000000	64.877533 
1278.000000	64.860057 
1277.000000	64.843511 
1276.000000	64.827823 
1275.000000	64.813232 
1274.000000	64.800548 
1273.000000	64.790511 
1272.000000	64.784049 
1271.000000	64.781880 
1270.000000	64.784669 
1269.000000	64.792561 
1268.000000	64.805388 
1267.000000	64.822554 
1266.000000	64.843153 
1265.000000	64.866113 
1264.000000	64.890098 
1263.000000	64.913773 
1262.000000	64.935803 
1261.000000	64.954972 
1260.000000	64.970207 
1259.000000	64.980530 
1258.000000	64.985346 
1257.000000	64.984440 
1256.000000	64.977908 
1255.000000	64.966487 
1254.000000	64.951133 
1253.000000	64.933419 
1252.000000	64.915132 
1251.000000	64.898228 
1250.000000	64.884662 
1249.000000	64.876031 
1248.000000	64.873480 
1247.000000	64.877557 
1246.000000	64.887952 
1245.000000	64.903712 
1244.000000	64.923286 
1243.000000	64.944553 
1242.000000	64.965510 
1241.000000	64.984130 
1240.000000	64.998865 
1239.000000	65.008616 
1238.000000	65.012741 
1237.000000	65.010952 
1236.000000	65.003347 
1235.000000	64.990544 
1234.000000	64.973688 
1233.000000	64.954328 
1232.000000	64.934444 
1231.000000	64.916300 
1230.000000	64.902305 
1229.000000	64.894556 
1228.000000	64.894294 
1227.000000	64.901685 
1226.000000	64.915823 
1225.000000	64.934563 
1224.000000	64.955043 
1223.000000	64.974141 
1222.000000	64.989161 
1221.000000	64.998292 
1220.000000	65.001010 
1219.000000	64.998149 
1218.000000	64.991688 
1217.000000	64.984321 
1216.000000	64.978694 
1215.000000	64.977049 
1214.000000	64.980554 
1213.000000	64.989328 
1212.000000	65.002012 
1211.000000	65.016531 
1210.000000	65.030002 
1209.000000	65.039515 
1208.000000	65.042662 
1207.000000	65.037918 
1206.000000	65.025043 
1205.000000	65.005040 
1204.000000	64.980149 
1203.000000	64.953255 
1202.000000	64.927673 
1201.000000	64.906382 
1200.000000	64.891719 
1199.000000	64.884829 
1198.000000	64.885544 
1197.000000	64.892458 
1196.000000	64.903306 
1195.000000	64.915418 
1194.000000	64.926147 
1193.000000	64.933466 
1192.000000	64.936542 
1191.000000	64.935660 
1190.000000	64.931821 
1189.000000	64.926624 
1188.000000	64.921808 
1187.000000	64.918780 
1186.000000	64.918184 
1185.000000	64.919972 
1184.000000	64.923405 
1183.000000	64.927768 
1182.000000	64.932322 
1181.000000	64.937114 
1180.000000	64.942669 
1179.000000	64.949965 
1178.000000	64.959931 
1177.000000	64.972925 
1176.000000	64.988350 
1175.000000	65.004491 
1174.000000	65.018820 
1173.000000	65.028309 
1172.000000	65.030193 
1171.000000	65.022850 
1170.000000	65.005898 
1169.000000	64.980483 
1168.000000	64.948749 
1167.000000	64.913392 
1166.000000	64.877033 
1165.000000	64.841604 
1164.000000	64.808320 
1163.000000	64.777398 
1162.000000	64.748883 
1161.000000	64.722943 
1160.000000	64.700198 
1159.000000	64.681816 
1158.000000	64.669299 
1157.000000	64.664053 
1156.000000	64.666819 
1155.000000	64.677047 
1154.000000	64.693164 
1153.000000	64.712429 
1152.000000	64.731836 
1151.000000	64.748549 
1150.000000	64.760708 
1149.000000	64.767742 
1148.000000	64.770293 
1147.000000	64.769911 
1146.000000	64.768385 
1145.000000	64.767217 
1144.000000	64.767026 
1143.000000	64.767551 
1142.000000	64.767813 
1141.000000	64.766359 
1140.000000	64.762210 
1139.000000	64.754772 
1138.000000	64.744329 
1137.000000	64.731764 
1136.000000	64.718532 
1135.000000	64.706015 
1134.000000	64.695024 
1133.000000	64.685654 
1132.000000	64.677619 
1131.000000	64.670348 
1130.000000	64.663004 
1129.000000	64.655160 
1128.000000	64.646768 
1127.000000	64.638447 
1126.000000	64.631295 
1125.000000	64.626502 
1124.000000	64.624977 
1123.000000	64.627242 
1122.000000	64.633154 
1121.000000	64.642000 
1120.000000	64.652562 
1119.000000	64.663600 
1118.000000	64.674091 
1117.000000	64.683365 
1116.000000	64.691257 
1115.000000	64.697861 
1114.000000	64.703583 
1113.000000	64.708852 
1112.000000	64.714097 
1111.000000	64.719867 
1110.000000	64.726710 
1109.000000	64.735388 
1108.000000	64.746260 
1107.000000	64.759659 
1106.000000	64.774990 
1105.000000	64.791250 
1104.000000	64.806413 
1103.000000	64.817929 
1102.000000	64.823198 
1101.000000	64.820218 
1100.000000	64.807963 
1099.000000	64.786911 
1098.000000	64.759159 
1097.000000	64.728116 
1096.000000	64.697837 
1095.000000	64.672207 
1094.000000	64.654254 
1093.000000	64.645576 
1092.000000	64.646244 
1091.000000	64.654850 
1090.000000	64.668846 
1089.000000	64.685058 
1088.000000	64.700317 
1087.000000	64.711785 
1086.000000	64.717149 
1085.000000	64.714908 
1084.000000	64.704370 
1083.000000	64.685988 
1082.000000	64.660930 
1081.000000	64.631414 
1080.000000	64.600348 
1079.000000	64.571070 
1078.000000	64.547085 
1077.000000	64.531278 
1076.000000	64.525389 
1075.000000	64.529919 
1074.000000	64.543771 
1073.000000	64.565086 
1072.000000	64.591622 
1071.000000	64.621067 
1070.000000	64.651584 
1069.000000	64.681363 
1068.000000	64.708900 
1067.000000	64.732456 
1066.000000	64.750337 
1065.000000	64.761090 
1064.000000	64.763736 
1063.000000	64.758396 
1062.000000	64.746260 
1061.000000	64.729619 
1060.000000	64.711213 
1059.000000	64.693832 
1058.000000	64.679694 
1057.000000	64.670133 
1056.000000	64.665603 
1055.000000	64.665579 
1054.000000	64.669299 
1053.000000	64.676260 
1052.000000	64.686250 
1051.000000	64.699602 
1050.000000	64.716601 
1049.000000	64.736771 
1048.000000	64.758920 
1047.000000	64.780712 
1046.000000	64.799499 
1045.000000	64.812684 
1044.000000	64.818501 
1043.000000	64.816689 
1042.000000	64.808225 
1041.000000	64.794993 
1040.000000	64.779067 
1039.000000	64.761972 
1038.000000	64.744544 
1037.000000	64.726877 
1036.000000	64.708495 
1035.000000	64.688730 
1034.000000	64.667272 
1033.000000	64.644336 
1032.000000	64.620876 
1031.000000	64.598417 
1030.000000	64.578175 
1029.000000	64.561605 
1028.000000	64.549350 
1027.000000	64.541935 
1026.000000	64.539599 
1025.000000	64.542651 
1024.000000	64.551329 
1023.000000	64.565896 
1022.000000	64.586067 
1021.000000	64.610886 
1020.000000	64.638328 
1019.000000	64.665651 
1018.000000	64.689826 
1017.000000	64.707803 
1016.000000	64.717364 
1015.000000	64.717507 
1014.000000	64.708662 
1013.000000	64.692497 
1012.000000	64.671587 
1011.000000	64.649081 
1010.000000	64.628243 
1009.000000	64.611887 
1008.000000	64.602255 
1007.000000	64.601016 
1006.000000	64.608883 
1005.000000	64.625906 
1004.000000	64.651036 
1003.000000	64.682269 
1002.000000	64.716744 
1001.000000	64.750742 
1000.000000	64.780473 
999.000000	 64.802861 
998.000000	 64.816021 
997.000000	 64.819717 
996.000000	 64.815282 
995.000000	 64.805173 
994.000000	 64.792203 
993.000000	 64.779019 
992.000000	 64.767289 
991.000000	 64.757442 
990.000000	 64.748716 
989.000000	 64.739632 
988.000000	 64.728474 
987.000000	 64.714121 
986.000000	 64.696240 
985.000000	 64.675736 
984.000000	 64.654064 
983.000000	 64.633154 
982.000000	 64.614677 
981.000000	 64.599752 
980.000000	 64.588832 
979.000000	 64.581727 
978.000000	 64.577794 
977.000000	 64.576172 
976.000000	 64.575648 
975.000000	 64.575409 
974.000000	 64.574384 
973.000000	 64.572334 
972.000000	 64.569830 
971.000000	 64.568305 
970.000000	 64.569473 
969.000000	 64.575028 
968.000000	 64.585876 
967.000000	 64.601898 
966.000000	 64.621424 
965.000000	 64.641952 
964.000000	 64.660620 
963.000000	 64.675211 
962.000000	 64.684629 
961.000000	 64.689588 
960.000000	 64.692354 
959.000000	 64.696002 
958.000000	 64.703583 
957.000000	 64.716815 
956.000000	 64.735388 
955.000000	 64.757251 
954.000000	 64.778876 
953.000000	 64.796471 
952.000000	 64.806509 
951.000000	 64.807724 
950.000000	 64.800238 
949.000000	 64.785218 
948.000000	 64.764070 
947.000000	 64.737653 
946.000000	 64.706206 
945.000000	 64.669966 
944.000000	 64.629173 
943.000000	 64.585041 
942.000000	 64.539599 
941.000000	 64.496016 
940.000000	 64.457464 
939.000000	 64.426302 
938.000000	 64.403533 
937.000000	 64.388418 
936.000000	 64.378619 
935.000000	 64.370656 
934.000000	 64.361381 
933.000000	 64.348888 
932.000000	 64.333391 
931.000000	 64.317536 
930.000000	 64.306259 
929.000000	 64.305591 
928.000000	 64.321112 
927.000000	 64.356446 
926.000000	 64.412617 
925.000000	 64.487147 
924.000000	 64.574241 
923.000000	 64.665174 
922.000000	 64.750242 
921.000000	 64.819383 
920.000000	 64.864444 
919.000000	 64.880108 
918.000000	 64.865088 
917.000000	 64.821743 
916.000000	 64.756488 
915.000000	 64.677357 
914.000000	 64.592814 
913.000000	 64.510273 
912.000000	 64.435744 
911.000000	 64.373135 
910.000000	 64.324784 
909.000000	 64.291906 
908.000000	 64.275479 
907.000000	 64.275622 
906.000000	 64.291405 
905.000000	 64.320492 
904.000000	 64.358949 
903.000000	 64.401030 
902.000000	 64.439868 
901.000000	 64.468550 
900.000000	 64.481234 
899.000000	 64.474081 
898.000000	 64.446258 
897.000000	 64.399957 
896.000000	 64.340162 
895.000000	 64.273643 
894.000000	 64.207792 
893.000000	 64.148902 
892.000000	 64.102053 
891.000000	 64.070916 
890.000000	 64.057326 
889.000000	 64.060783 
888.000000	 64.079594 
887.000000	 64.110994 
886.000000	 64.151573 
885.000000	 64.196920 
884.000000	 64.243316 
883.000000	 64.287376 
882.000000	 64.327192 
881.000000	 64.362239 
880.000000	 64.393091 
879.000000	 64.420533 
878.000000	 64.445781 
877.000000	 64.469957 
876.000000	 64.494061 
875.000000	 64.518547 
874.000000	 64.544010 
873.000000	 64.570760 
872.000000	 64.598846 
871.000000	 64.627194 
870.000000	 64.654326 
869.000000	 64.677262 
868.000000	 64.692568 
867.000000	 64.695596 
866.000000	 64.682531 
865.000000	 64.649796 
864.000000	 64.595437 
863.000000	 64.519047 
862.000000	 64.422893 
861.000000	 64.311504 
860.000000	 64.191484 
859.000000	 64.070820 
858.000000	 63.957834 
857.000000	 63.860845 
856.000000	 63.786864 
855.000000	 63.740754 
854.000000	 63.724207 
853.000000	 63.735818 
852.000000	 63.771462 
851.000000	 63.824343 
850.000000	 63.886022 
849.000000	 63.947916 
848.000000	 64.002633 
847.000000	 64.044880 
846.000000	 64.072227 
845.000000	 64.085006 
844.000000	 64.086008 
843.000000	 64.079570 
842.000000	 64.070224 
841.000000	 64.062476 
840.000000	 64.059138 
839.000000	 64.061760 
838.000000	 64.069724 
837.000000	 64.081573 
836.000000	 64.094471 
835.000000	 64.105725 
834.000000	 64.112424 
833.000000	 64.112544 
832.000000	 64.104747 
831.000000	 64.088773 
830.000000	 64.064931 
829.000000	 64.033699 
828.000000	 63.996481 
827.000000	 63.955545 
826.000000	 63.914155 
825.000000	 63.876175 
824.000000	 63.846373 
823.000000	 63.829588 
822.000000	 63.829636 
821.000000	 63.848090 
820.000000	 63.883447 
819.000000	 63.931083 
818.000000	 63.984012 
817.000000	 64.033699 
816.000000	 64.071726 
815.000000	 64.091300 
814.000000	 64.088559 
813.000000	 64.063239 
812.000000	 64.018416 
811.000000	 63.959670 
810.000000	 63.893938 
809.000000	 63.828158 
808.000000	 63.768196 
807.000000	 63.718175 
806.000000	 63.680362 
805.000000	 63.655519 
804.000000	 63.643217 
803.000000	 63.642907 
802.000000	 63.654041 
801.000000	 63.676166 
800.000000	 63.708496 
799.000000	 63.749599 
798.000000	 63.796925 
797.000000	 63.846755 
796.000000	 63.894224 
795.000000	 63.934230 
794.000000	 63.962125 
793.000000	 63.974905 
792.000000	 63.971710 
791.000000	 63.954186 
790.000000	 63.925862 
789.000000	 63.891792 
788.000000	 63.857197 
787.000000	 63.826918 
786.000000	 63.804006 
785.000000	 63.789939 
784.000000	 63.783717 
783.000000	 63.783240 
782.000000	 63.785362 
781.000000	 63.786911 
780.000000	 63.785409 
779.000000	 63.779592 
778.000000	 63.769674 
777.000000	 63.756990 
776.000000	 63.743591 
775.000000	 63.731288 
774.000000	 63.721585 
773.000000	 63.715004 
772.000000	 63.711547 
771.000000	 63.710737 
770.000000	 63.711810 
769.000000	 63.714075 
768.000000	 63.716793 
767.000000	 63.719058 
766.000000	 63.719677 
765.000000	 63.717198 
764.000000	 63.710165 
763.000000	 63.697457 
762.000000	 63.678789 
761.000000	 63.654851 
760.000000	 63.627409 
759.000000	 63.599061 
758.000000	 63.572835 
757.000000	 63.551092 
756.000000	 63.535284 
755.000000	 63.525056 
754.000000	 63.518810 
753.000000	 63.513636 
752.000000	 63.506174 
751.000000	 63.493537 
750.000000	 63.474106 
749.000000	 63.447999 
748.000000	 63.416981 
747.000000	 63.384318 
746.000000	 63.353681 
745.000000	 63.328814 
744.000000	 63.312697 
743.000000	 63.306832 
742.000000	 63.311028 
741.000000	 63.323712 
740.000000	 63.342285 
739.000000	 63.363575 
738.000000	 63.384628 
737.000000	 63.403201 
736.000000	 63.418269 
735.000000	 63.429808 
734.000000	 63.438582 
733.000000	 63.445830 
732.000000	 63.452696 
731.000000	 63.459968 
730.000000	 63.467717 
729.000000	 63.475251 
728.000000	 63.481521 
727.000000	 63.485813 
726.000000	 63.488030 
725.000000	 63.488984 
724.000000	 63.490104 
723.000000	 63.493299 
722.000000	 63.499808 
721.000000	 63.509869 
720.000000	 63.521647 
719.000000	 63.531637 
718.000000	 63.535451 
717.000000	 63.529276 
716.000000	 63.510513 
715.000000	 63.478517 
714.000000	 63.435077 
713.000000	 63.383936 
712.000000	 63.329672 
711.000000	 63.276529 
710.000000	 63.227510 
709.000000	 63.183832 
708.000000	 63.144993 
707.000000	 63.109827 
706.000000	 63.077473 
705.000000	 63.048577 
704.000000	 63.025164 
703.000000	 63.010931 
702.000000	 63.009619 
701.000000	 63.024353 
700.000000	 63.055992 
699.000000	 63.102412 
698.000000	 63.158583 
697.000000	 63.216614 
696.000000	 63.267898 
695.000000	 63.303112 
694.000000	 63.314414 
693.000000	 63.295984 
692.000000	 63.245129 
691.000000	 63.162803 
690.000000	 63.053584 
689.000000	 62.925362 
688.000000	 62.788295 
687.000000	 62.653660 
686.000000	 62.532567 
685.000000	 62.434411 
684.000000	 62.365674 
683.000000	 62.328863 
682.000000	 62.322616 
681.000000	 62.341976 
680.000000	 62.380027 
679.000000	 62.428331 
678.000000	 62.479782 
677.000000	 62.528514 
676.000000	 62.571930 
675.000000	 62.609624 
674.000000	 62.643575 
673.000000	 62.676429 
672.000000	 62.710332 
671.000000	 62.746429 
670.000000	 62.783455 
669.000000	 62.818694 
668.000000	 62.847280 
667.000000	 62.864303 
666.000000	 62.864804 
665.000000	 62.845873 
664.000000	 62.806582 
663.000000	 62.748599 
662.000000	 62.676143 
661.000000	 62.595510 
660.000000	 62.514257 
659.000000	 62.440133 
658.000000	 62.380409 
657.000000	 62.341022 
656.000000	 62.325048 
655.000000	 62.332463 
654.000000	 62.360644 
653.000000	 62.404465 
652.000000	 62.456965 
651.000000	 62.510251 
650.000000	 62.556672 
649.000000	 62.589502 
648.000000	 62.604403 
647.000000	 62.599182 
646.000000	 62.573719 
645.000000	 62.529993 
644.000000	 62.471938 
643.000000	 62.404918 
642.000000	 62.334966 
641.000000	 62.268519 
640.000000	 62.211847 
639.000000	 62.170100 
638.000000	 62.146806 
637.000000	 62.142920 
636.000000	 62.156748 
635.000000	 62.184119 
634.000000	 62.219214 
633.000000	 62.256312 
632.000000	 62.291145 
631.000000	 62.321996 
630.000000	 62.349557 
629.000000	 62.376260 
628.000000	 62.404441 
627.000000	 62.435507 
626.000000	 62.468147 
625.000000	 62.498044 
624.000000	 62.518334 
623.000000	 62.521743 
622.000000	 62.502145 
621.000000	 62.457180 
620.000000	 62.388920 
619.000000	 62.304377 
618.000000	 62.213993 
617.000000	 62.129616 
616.000000	 62.061810 
615.000000	 62.017750 
614.000000	 61.999487 
613.000000	 62.004375 
612.000000	 62.025523 
611.000000	 62.054347 
610.000000	 62.081408 
609.000000	 62.098598 
608.000000	 62.100434 
607.000000	 62.084913 
606.000000	 62.053894 
605.000000	 62.012505 
604.000000	 61.967968 
603.000000	 61.927676 
602.000000	 61.898231 
601.000000	 61.883592 
600.000000	 61.884355 
599.000000	 61.897850 
598.000000	 61.920094 
597.000000	 61.946296 
596.000000	 61.972117 
595.000000	 61.994266 
594.000000	 62.010836 
593.000000	 62.021374 
592.000000	 62.025547 
591.000000	 62.024283 
590.000000	 62.018752 
589.000000	 62.010908 
588.000000	 62.003469 
587.000000	 61.998963 
586.000000	 61.999273 
585.000000	 62.005186 
584.000000	 62.016534 
583.000000	 62.031579 
582.000000	 62.047266 
581.000000	 62.059998 
580.000000	 62.066221 
579.000000	 62.062263 
578.000000	 62.044978 
577.000000	 62.012195 
576.000000	 61.963009 
575.000000	 61.898088 
574.000000	 61.819505 
573.000000	 61.731147 
572.000000	 61.637449 
571.000000	 61.543107 
570.000000	 61.452174 
569.000000	 61.367607 
568.000000	 61.291670 
567.000000	 61.225938 
566.000000	 61.171984 
565.000000	 61.130475 
564.000000	 61.102437 
563.000000	 61.088490 
562.000000	 61.088967 
561.000000	 61.102247 
560.000000	 61.126208 
559.000000	 61.157536 
558.000000	 61.192846 
557.000000	 61.228299 
556.000000	 61.261701 
555.000000	 61.292171 
554.000000	 61.320638 
553.000000	 61.349129 
552.000000	 61.379599 
551.000000	 61.413025 
550.000000	 61.449050 
549.000000	 61.485838 
548.000000	 61.520695 
547.000000	 61.550092 
546.000000	 61.572098 
545.000000	 61.584877 
544.000000	 61.586785 
543.000000	 61.575460 
542.000000	 61.549353 
541.000000	 61.506557 
540.000000	 61.446094 
539.000000	 61.368060 
538.000000	 61.275720 
537.000000	 61.173582 
536.000000	 61.067271 
535.000000	 60.962343 
534.000000	 60.863256 
533.000000	 60.773372 
532.000000	 60.694551 
531.000000	 60.627746 
530.000000	 60.572886 
529.000000	 60.530495 
528.000000	 60.502052 
527.000000	 60.488986 
526.000000	 60.491895 
525.000000	 60.511255 
524.000000	 60.547018 
523.000000	 60.597205 
522.000000	 60.658860 
521.000000	 60.728836 
520.000000	 60.804581 
519.000000	 60.883927 
518.000000	 60.965561 
517.000000	 61.048984 
516.000000	 61.133670 
515.000000	 61.218357 
514.000000	 61.300230 
513.000000	 61.375832 
512.000000	 61.440372 
511.000000	 61.489439 
510.000000	 61.519002 
509.000000	 61.527895 
508.000000	 61.515903 
507.000000	 61.485815 
506.000000	 61.439299 
505.000000	 61.377382 
504.000000	 61.299014 
503.000000	 61.202669 
502.000000	 61.086273 
501.000000	 60.948967 
500.000000	 60.792922 
499.000000	 60.624384 
498.000000	 60.452103 
497.000000	 60.286641 
496.000000	 60.137510 
495.000000	 60.011887 
494.000000	 59.913921 
493.000000	 59.844374 
492.000000	 59.800386 
491.000000	 59.776663 
490.000000	 59.766983 
489.000000	 59.764480 
488.000000	 59.760999 
487.000000	 59.748816 
486.000000	 59.720849 
485.000000	 59.672307 
484.000000	 59.599542 
483.000000	 59.503531 
482.000000	 59.389162 
481.000000	 59.266710 
480.000000	 59.149217 
479.000000	 59.052276 
478.000000	 58.991408 
477.000000	 58.977937 
476.000000	 59.016180 
475.000000	 59.101724 
474.000000	 59.221935 
473.000000	 59.357547 
472.000000	 59.486556 
471.000000	 59.588932 
470.000000	 59.650254 
469.000000	 59.664654 
468.000000	 59.634590 
467.000000	 59.568476 
466.000000	 59.477400 
465.000000	 59.372234 
464.000000	 59.260582 
463.000000	 59.146237 
462.000000	 59.029674 
461.000000	 58.911561 
460.000000	 58.793282 
459.000000	 58.680057 
458.000000	 58.578872 
457.000000	 58.499002 
456.000000	 58.446860 
455.000000	 58.422803 
454.000000	 58.420109 
453.000000	 58.425641 
452.000000	 58.422684 
451.000000	 58.394479 
450.000000	 58.329558 
449.000000	 58.224773 
448.000000	 58.086419 
447.000000	 57.928562 
446.000000	 57.768869 
445.000000	 57.623648 
444.000000	 57.505440 
443.000000	 57.420325 
442.000000	 57.365441 
441.000000	 57.330894 
440.000000	 57.305288 
439.000000	 57.278370 
438.000000	 57.242274 
437.000000	 57.194066 
436.000000	 57.132506 
435.000000	 57.061767 
434.000000	 56.986451 
433.000000	 56.916570 
432.000000	 56.862878 
431.000000	 56.839609 
430.000000	 56.864857 
429.000000	 56.952500 
428.000000	 57.103967 
427.000000	 57.310223 
426.000000	 57.556223 
425.000000	 57.815647 
424.000000	 58.054113 
423.000000	 58.237767 
422.000000	 58.341336 
421.000000	 58.349013 
420.000000	 58.258986 
419.000000	 58.072566 
418.000000	 57.792639 
417.000000	 57.425999 
416.000000	 56.984210 
415.000000	 56.483244 
414.000000	 55.946850 
413.000000	 55.405187 
412.000000	 54.895401 
411.000000	 54.464673 
410.000000	 54.160928 
409.000000	 54.009604 
408.000000	 54.021763 
407.000000	 54.182767 
406.000000	 54.473185 
405.000000	 54.861235 
404.000000	 55.336689 
403.000000	 55.877828 
402.000000	 56.504774 
401.000000	 57.286715 
400.000000	 58.299541 
399.000000	 59.602904 
398.000000	 61.183571 
397.000000	 62.948751 
396.000000	 64.696693 
395.000000	 66.149377 
394.000000	 67.021250 
393.000000	 67.095661 
392.000000	 66.278934 
391.000000	 64.640188 
390.000000	 62.378358 
389.000000	 59.802794 
388.000000	 57.245850 
387.000000	 55.035066 
386.000000	 53.491973 
385.000000	 52.873778 
384.000000	 53.410553 
383.000000	 55.182743 
382.000000	 58.073067 
381.000000	 61.725091 
380.000000	 65.591382 
379.000000	 69.001770 
378.000000	 71.291136 
377.000000	 71.920466 
376.000000	 70.659255 
375.000000	 67.536664 
374.000000	 62.814211 
373.000000	 56.941533 
372.000000	 50.403022 
371.000000	 43.772625 
370.000000	 37.678503 

