PE IR       SPECTRUM    SPECTRUM    ASCII       PEDS        1.60        
  -1
C-9AEF~1.ASC
17/05/02
13:11:19.00
17/05/02
13:11:19.00
tln
$C-4040-8_t0027$<tbV0>[2.5,7.0,8.0,0.0,22,1,0]
370.000000
64









2002,4.07    
MIRTGS : RIGHTBACK : INTERNAL 2
MIR : ON : INTERNAL 2
OPTKBR

0.200000
8
8.000000
FILLER
RATIO
SPECTRUM
UNLOCKED 256

DOUBLE
64
COMBINED
1
0
0


1.000000
RATIO


1
0
TRUE
51149
0
LEFT NOT FITTED RIGHT NOT FITTED 0
NONE
NONE
15600
12.000000
4.427000
51148
TRUE
1 0 8 72 0 0 0 0 

15798.010000






#HDR
-1
-1
#GR
CM-1
%T
0.00002384185791015625
0.0
7800.000000
-1.000000
7431
8
87.697434
36.415362
#DATA
7800.000000	87.236022 
7799.000000	87.697434 
7798.000000	87.182784 
7797.000000	85.562729 
7796.000000	82.889604 
7795.000000	79.403734 
7794.000000	75.479078 
7793.000000	71.550059 
7792.000000	68.020057 
7791.000000	65.187883 
7790.000000	63.200950 
7789.000000	62.051439 
7788.000000	61.617136 
7787.000000	61.710786 
7786.000000	62.136220 
7785.000000	62.731742 
7784.000000	63.367509 
7783.000000	63.970208 
7782.000000	64.462161 
7781.000000	64.802575 
7780.000000	64.944362 
7779.000000	64.879584 
7778.000000	64.631223 
7777.000000	64.266300 
7776.000000	63.892626 
7775.000000	63.627099 
7774.000000	63.578772 
7773.000000	63.803672 
7772.000000	64.295125 
7771.000000	64.968276 
7770.000000	65.683174 
7769.000000	66.269373 
7768.000000	66.569519 
7767.000000	66.482520 
7766.000000	65.994000 
7765.000000	65.176916 
7764.000000	64.178895 
7763.000000	63.197731 
7762.000000	62.441420 
7761.000000	62.075591 
7760.000000	62.195897 
7759.000000	62.830042 
7758.000000	63.926982 
7757.000000	65.377449 
7756.000000	67.024540 
7755.000000	68.695092 
7754.000000	70.216155 
7753.000000	71.440601 
7752.000000	72.258019 
7751.000000	72.598409 
7750.000000	72.444057 
7749.000000	71.825003 
7748.000000	70.823812 
7747.000000	69.568157 
7746.000000	68.216490 
7745.000000	66.944026 
7744.000000	65.912532 
7743.000000	65.253162 
7742.000000	65.040278 
7741.000000	65.285062 
7740.000000	65.933442 
7739.000000	66.879630 
7738.000000	67.991757 
7737.000000	69.133973 
7736.000000	70.188927 
7735.000000	71.065974 
7734.000000	71.699428 
7733.000000	72.043490 
7732.000000	72.066807 
7731.000000	71.750950 
7730.000000	71.088576 
7729.000000	70.097279 
7728.000000	68.835115 
7727.000000	67.403006 
7726.000000	65.948081 
7725.000000	64.637923 
7724.000000	63.637542 
7723.000000	63.071751 
7722.000000	63.008046 
7721.000000	63.425087 
7720.000000	64.210844 
7719.000000	65.187931 
7718.000000	66.147208 
7717.000000	66.898155 
7716.000000	67.303347 
7715.000000	67.314147 
7714.000000	66.968894 
7713.000000	66.391110 
7712.000000	65.751695 
7711.000000	65.228962 
7710.000000	64.963436 
7709.000000	65.037727 
7708.000000	65.459752 
7707.000000	66.167545 
7706.000000	67.049360 
7705.000000	67.978048 
7704.000000	68.839859 
7703.000000	69.559836 
7702.000000	70.108342 
7701.000000	70.497298 
7700.000000	70.759916 
7699.000000	70.929026 
7698.000000	71.018314 
7697.000000	71.017503 
7696.000000	70.893883 
7695.000000	70.613670 
7694.000000	70.155358 
7693.000000	69.536375 
7692.000000	68.809938 
7691.000000	68.062853 
7690.000000	67.398881 
7689.000000	66.914296 
7688.000000	66.684389 
7687.000000	66.746258 
7686.000000	67.096948 
7685.000000	67.695522 
7684.000000	68.484377 
7683.000000	69.404244 
7682.000000	70.405483 
7681.000000	71.454906 
7680.000000	72.534322 
7679.000000	73.631739 
7678.000000	74.732899 
7677.000000	75.805807 
7676.000000	76.804161 
7675.000000	77.657032 
7674.000000	78.290295 
7673.000000	78.625321 
7672.000000	78.616046 
7671.000000	78.240132 
7670.000000	77.520012 
7669.000000	76.509928 
7668.000000	75.299549 
7667.000000	73.993730 
7666.000000	72.702741 
7665.000000	71.527004 
7664.000000	70.550036 
7663.000000	69.827675 
7662.000000	69.386601 
7661.000000	69.223427 
7660.000000	69.309306 
7659.000000	69.595456 
7658.000000	70.020222 
7657.000000	70.523309 
7656.000000	71.052074 
7655.000000	71.566319 
7654.000000	72.036623 
7653.000000	72.445201 
7652.000000	72.777032 
7651.000000	73.012280 
7650.000000	73.123240 
7649.000000	73.084807 
7648.000000	72.873544 
7647.000000	72.481012 
7646.000000	71.913933 
7645.000000	71.204495 
7644.000000	70.401787 
7643.000000	69.572019 
7642.000000	68.781208 
7641.000000	68.088006 
7640.000000	67.529225 
7639.000000	67.117166 
7638.000000	66.837954 
7637.000000	66.656255 
7636.000000	66.529512 
7635.000000	66.418862 
7634.000000	66.297483 
7633.000000	66.152024 
7632.000000	65.988087 
7631.000000	65.823292 
7630.000000	65.679931 
7629.000000	65.574955 
7628.000000	65.514373 
7627.000000	65.490460 
7626.000000	65.479278 
7625.000000	65.451884 
7624.000000	65.381574 
7623.000000	65.259933 
7622.000000	65.100288 
7621.000000	64.942479 
7620.000000	64.843297 
7619.000000	64.863252 
7618.000000	65.052127 
7617.000000	65.428233 
7616.000000	65.968394 
7615.000000	66.608405 
7614.000000	67.256879 
7613.000000	67.812895 
7612.000000	68.190026 
7611.000000	68.335938 
7610.000000	68.243885 
7609.000000	67.953419 
7608.000000	67.542648 
7607.000000	67.097592 
7606.000000	66.688752 
7605.000000	66.362977 
7604.000000	66.139507 
7603.000000	66.013360 
7602.000000	65.968823 
7601.000000	66.002583 
7600.000000	66.131067 
7599.000000	66.389322 
7598.000000	66.816663 
7597.000000	67.438316 
7596.000000	68.242597 
7595.000000	69.175601 
7594.000000	70.132374 
7593.000000	70.976376 
7592.000000	71.555900 
7591.000000	71.746277 
7590.000000	71.467185 
7589.000000	70.707798 
7588.000000	69.528055 
7587.000000	68.048071 
7586.000000	66.433191 
7585.000000	64.858031 
7584.000000	63.494443 
7583.000000	62.481164 
7582.000000	61.921596 
7581.000000	61.870050 
7580.000000	62.341809 
7579.000000	63.313150 
7578.000000	64.724230 
7577.000000	66.479563 
7576.000000	68.456101 
7575.000000	70.507717 
7574.000000	72.471737 
7573.000000	74.181509 
7572.000000	75.489425 
7571.000000	76.280570 
7570.000000	76.496148 
7569.000000	76.133847 
7568.000000	75.255823 
7567.000000	73.970079 
7566.000000	72.427535 
7565.000000	70.788216 
7564.000000	69.212961 
7563.000000	67.832446 
7562.000000	66.745996 
7561.000000	66.006040 
7560.000000	65.622520 
7559.000000	65.569710 
7558.000000	65.791988 
7557.000000	66.225862 
7556.000000	66.804385 
7555.000000	67.469596 
7554.000000	68.169188 
7553.000000	68.851375 
7552.000000	69.456720 
7551.000000	69.917416 
7550.000000	70.160293 
7549.000000	70.120429 
7548.000000	69.756507 
7547.000000	69.065189 
7546.000000	68.090295 
7545.000000	66.928362 
7544.000000	65.714287 
7543.000000	64.595818 
7542.000000	63.707137 
7541.000000	63.147783 
7540.000000	62.962841 
7539.000000	63.131785 
7538.000000	63.582181 
7537.000000	64.206528 
7536.000000	64.892315 
7535.000000	65.541052 
7534.000000	66.089439 
7533.000000	66.506457 
7532.000000	66.796803 
7531.000000	66.985106 
7530.000000	67.099475 
7529.000000	67.154979 
7528.000000	67.147231 
7527.000000	67.057228 
7526.000000	66.855168 
7525.000000	66.517972 
7524.000000	66.039466 
7523.000000	65.442919 
7522.000000	64.778017 
7521.000000	64.116072 
7520.000000	63.537740 
7519.000000	63.117694 
7518.000000	62.908840 
7517.000000	62.930655 
7516.000000	63.168621 
7515.000000	63.573718 
7514.000000	64.069151 
7513.000000	64.565801 
7512.000000	64.976954 
7511.000000	65.236186 
7510.000000	65.305352 
7509.000000	65.181207 
7508.000000	64.894795 
7507.000000	64.496064 
7506.000000	64.040923 
7505.000000	63.575696 
7504.000000	63.128352 
7503.000000	62.709283 
7502.000000	62.318468 
7501.000000	61.954617 
7500.000000	61.624193 
7499.000000	61.349391 
7498.000000	61.165714 
7497.000000	61.120700 
7496.000000	61.260318 
7495.000000	61.620354 
7494.000000	62.211465 
7493.000000	63.015699 
7492.000000	63.980674 
7491.000000	65.022993 
7490.000000	66.037321 
7489.000000	66.913461 
7488.000000	67.554092 
7487.000000	67.890572 
7486.000000	67.897105 
7485.000000	67.596077 
7484.000000	67.054057 
7483.000000	66.372513 
7482.000000	65.664744 
7481.000000	65.041375 
7480.000000	64.583754 
7479.000000	64.337611 
7478.000000	64.303302 
7477.000000	64.445948 
7476.000000	64.707565 
7475.000000	65.024256 
7474.000000	65.345740 
7473.000000	65.642309 
7472.000000	65.913963 
7471.000000	66.180729 
7470.000000	66.473984 
7469.000000	66.818428 
7468.000000	67.221951 
7467.000000	67.666363 
7466.000000	68.111705 
7465.000000	68.501377 
7464.000000	68.777489 
7463.000000	68.891334 
7462.000000	68.817758 
7461.000000	68.558573 
7460.000000	68.142247 
7459.000000	67.619323 
7458.000000	67.048311 
7457.000000	66.491675 
7456.000000	66.009378 
7455.000000	65.649819 
7454.000000	65.449976 
7453.000000	65.423607 
7452.000000	65.564131 
7451.000000	65.838050 
7450.000000	66.193079 
7449.000000	66.560411 
7448.000000	66.863632 
7447.000000	67.035841 
7446.000000	67.029452 
7445.000000	66.831660 
7444.000000	66.465425 
7443.000000	65.988445 
7442.000000	65.479278 
7441.000000	65.026593 
7440.000000	64.709973 
7439.000000	64.582180 
7438.000000	64.658951 
7437.000000	64.920878 
7436.000000	65.319705 
7435.000000	65.788125 
7434.000000	66.257715 
7433.000000	66.672945 
7432.000000	67.002868 
7431.000000	67.238688 
7430.000000	67.394661 
7429.000000	67.495393 
7428.000000	67.569255 
7427.000000	67.639088 
7426.000000	67.716073 
7425.000000	67.801237 
7424.000000	67.884802 
7423.000000	67.958068 
7422.000000	68.010258 
7421.000000	68.036413 
7420.000000	68.034672 
7419.000000	68.008995 
7418.000000	67.963480 
7417.000000	67.900943 
7416.000000	67.820453 
7415.000000	67.717671 
7414.000000	67.581868 
7413.000000	67.399024 
7412.000000	67.155003 
7411.000000	66.841411 
7410.000000	66.459870 
7409.000000	66.026329 
7408.000000	65.569853 
7407.000000	65.130019 
7406.000000	64.751434 
7405.000000	64.473724 
7404.000000	64.321541 
7403.000000	64.298200 
7402.000000	64.386677 
7401.000000	64.549446 
7400.000000	64.732837 
7399.000000	64.882040 
7398.000000	64.949131 
7397.000000	64.909529 
7396.000000	64.760351 
7395.000000	64.531350 
7394.000000	64.272856 
7393.000000	64.051747 
7392.000000	63.933706 
7391.000000	63.970232 
7390.000000	64.185333 
7389.000000	64.570498 
7388.000000	65.085983 
7387.000000	65.662217 
7386.000000	66.213202 
7385.000000	66.653418 
7384.000000	66.914105 
7383.000000	66.953420 
7382.000000	66.763830 
7381.000000	66.372966 
7380.000000	65.835738 
7379.000000	65.222668 
7378.000000	64.605283 
7377.000000	64.046263 
7376.000000	63.588023 
7375.000000	63.254380 
7374.000000	63.046717 
7373.000000	62.950754 
7372.000000	62.942647 
7371.000000	62.996125 
7370.000000	63.089728 
7369.000000	63.200521 
7368.000000	63.319945 
7367.000000	63.446497 
7366.000000	63.591957 
7365.000000	63.769221 
7364.000000	63.998317 
7363.000000	64.296627 
7362.000000	64.677524 
7361.000000	65.143775 
7360.000000	65.680742 
7359.000000	66.254806 
7358.000000	66.820430 
7357.000000	67.325377 
7356.000000	67.720103 
7355.000000	67.963886 
7354.000000	68.038272 
7353.000000	67.942070 
7352.000000	67.694234 
7351.000000	67.319774 
7350.000000	66.850948 
7349.000000	66.311097 
7348.000000	65.718579 
7347.000000	65.079069 
7346.000000	64.400386 
7345.000000	63.686394 
7344.000000	62.945318 
7343.000000	62.191772 
7342.000000	61.447620 
7341.000000	60.744571 
7340.000000	60.115718 
7339.000000	59.598946 
7338.000000	59.223341 
7337.000000	59.017729 
7336.000000	59.001708 
7335.000000	59.187102 
7334.000000	59.570980 
7333.000000	60.143518 
7332.000000	60.884094 
7331.000000	61.758041 
7330.000000	62.715625 
7329.000000	63.695764 
7328.000000	64.629340 
7327.000000	65.445017 
7326.000000	66.078233 
7325.000000	66.484355 
7324.000000	66.642785 
7323.000000	66.567373 
7322.000000	66.297245 
7321.000000	65.891003 
7320.000000	65.414142 
7319.000000	64.938759 
7318.000000	64.523434 
7317.000000	64.208054 
7316.000000	64.010262 
7315.000000	63.937568 
7314.000000	63.977432 
7313.000000	64.104986 
7312.000000	64.284920 
7311.000000	64.479732 
7310.000000	64.649248 
7309.000000	64.754819 
7308.000000	64.765238 
7307.000000	64.660263 
7306.000000	64.436078 
7305.000000	64.106249 
7304.000000	63.699674 
7303.000000	63.256263 
7302.000000	62.822198 
7301.000000	62.444043 
7300.000000	62.153410 
7299.000000	61.971569 
7298.000000	61.909151 
7297.000000	61.975073 
7296.000000	62.167453 
7295.000000	62.489628 
7294.000000	62.946867 
7293.000000	63.547492 
7292.000000	64.290070 
7291.000000	65.161180 
7290.000000	66.127777 
7289.000000	67.135620 
7288.000000	68.113708 
7287.000000	68.981742 
7286.000000	69.665884 
7285.000000	70.109200 
7284.000000	70.287442 
7283.000000	70.207238 
7282.000000	69.907093 
7281.000000	69.446945 
7280.000000	68.898272 
7279.000000	68.327045 
7278.000000	67.782902 
7277.000000	67.295002 
7276.000000	66.870141 
7275.000000	66.495275 
7274.000000	66.146397 
7273.000000	65.798115 
7272.000000	65.435528 
7271.000000	65.056228 
7270.000000	64.677119 
7269.000000	64.326667 
7268.000000	64.040875 
7267.000000	63.849592 
7266.000000	63.769006 
7265.000000	63.794732 
7264.000000	63.899517 
7263.000000	64.038228 
7262.000000	64.155793 
7261.000000	64.198064 
7260.000000	64.126133 
7259.000000	63.922429 
7258.000000	63.599753 
7257.000000	63.194608 
7256.000000	62.767338 
7255.000000	62.387800 
7254.000000	62.121486 
7253.000000	62.014269 
7252.000000	62.085270 
7251.000000	62.323021 
7250.000000	62.686347 
7249.000000	63.114762 
7248.000000	63.541388 
7247.000000	63.908863 
7246.000000	64.178514 
7245.000000	64.339232 
7244.000000	64.403104 
7243.000000	64.403080 
7242.000000	64.379143 
7241.000000	64.371752 
7240.000000	64.409732 
7239.000000	64.510107 
7238.000000	64.677143 
7237.000000	64.908051 
7236.000000	65.196037 
7235.000000	65.537071 
7234.000000	65.933537 
7233.000000	66.388511 
7232.000000	66.900992 
7231.000000	67.458987 
7230.000000	68.037509 
7229.000000	68.594098 
7228.000000	69.074940 
7227.000000	69.420981 
7226.000000	69.580817 
7225.000000	69.518828 
7224.000000	69.224143 
7223.000000	68.714451 
7222.000000	68.033123 
7221.000000	67.241954 
7220.000000	66.409516 
7219.000000	65.602898 
7218.000000	64.876151 
7217.000000	64.265799 
7216.000000	63.788604 
7215.000000	63.441777 
7214.000000	63.212776 
7213.000000	63.082742 
7212.000000	63.039278 
7211.000000	63.067054 
7210.000000	63.164305 
7209.000000	63.332891 
7208.000000	63.581776 
7207.000000	63.912010 
7206.000000	64.318299 
7205.000000	64.783334 
7204.000000	65.274882 
7203.000000	65.748381 
7202.000000	66.151118 
7201.000000	66.432380 
7200.000000	66.550707 
7199.000000	66.484093 
7198.000000	66.233801 
7197.000000	65.827393 
7196.000000	65.316987 
7195.000000	64.772105 
7194.000000	64.270162 
7193.000000	63.882160 
7192.000000	63.665437 
7191.000000	63.648748 
7190.000000	63.827896 
7189.000000	64.162874 
7188.000000	64.590096 
7187.000000	65.029764 
7186.000000	65.397787 
7185.000000	65.624165 
7184.000000	65.663886 
7183.000000	65.506529 
7182.000000	65.171861 
7181.000000	64.709353 
7180.000000	64.183831 
7179.000000	63.665986 
7178.000000	63.218927 
7177.000000	62.889361 
7176.000000	62.701582 
7175.000000	62.661504 
7174.000000	62.761688 
7173.000000	62.984442 
7172.000000	63.306641 
7171.000000	63.704657 
7170.000000	64.155626 
7169.000000	64.634180 
7168.000000	65.112185 
7167.000000	65.559339 
7166.000000	65.945196 
7165.000000	66.242957 
7164.000000	66.433525 
7163.000000	66.509914 
7162.000000	66.478419 
7161.000000	66.362500 
7160.000000	66.195297 
7159.000000	66.015529 
7158.000000	65.857768 
7157.000000	65.751123 
7156.000000	65.708851 
7155.000000	65.733146 
7154.000000	65.808057 
7153.000000	65.908122 
7152.000000	65.998721 
7151.000000	66.045784 
7150.000000	66.020345 
7149.000000	65.904283 
7148.000000	65.695571 
7147.000000	65.407705 
7146.000000	65.071535 
7145.000000	64.728546 
7144.000000	64.423418 
7143.000000	64.193916 
7142.000000	64.061474 
7141.000000	64.026212 
7140.000000	64.067673 
7139.000000	64.151000 
7138.000000	64.231538 
7137.000000	64.270806 
7136.000000	64.246582 
7135.000000	64.160799 
7134.000000	64.036035 
7133.000000	63.910293 
7132.000000	63.825893 
7131.000000	63.814520 
7130.000000	63.888454 
7129.000000	64.032936 
7128.000000	64.208269 
7127.000000	64.361310 
7126.000000	64.440751 
7125.000000	64.412236 
7124.000000	64.268612 
7123.000000	64.033508 
7122.000000	63.755917 
7121.000000	63.494062 
7120.000000	63.298654 
7119.000000	63.198184 
7118.000000	63.191199 
7117.000000	63.248324 
7116.000000	63.321423 
7115.000000	63.359999 
7114.000000	63.325953 
7113.000000	63.200449 
7112.000000	62.990140 
7111.000000	62.722587 
7110.000000	62.440967 
7109.000000	62.186980 
7108.000000	61.996698 
7107.000000	61.891436 
7106.000000	61.878824 
7105.000000	61.954259 
7104.000000	62.104821 
7103.000000	62.315654 
7102.000000	62.570714 
7101.000000	62.852931 
7100.000000	63.146209 
7099.000000	63.430333 
7098.000000	63.688731 
7097.000000	63.908457 
7096.000000	64.081978 
7095.000000	64.207601 
7094.000000	64.287447 
7093.000000	64.327168 
7092.000000	64.331650 
7091.000000	64.305305 
7090.000000	64.252972 
7089.000000	64.182162 
7088.000000	64.107275 
7087.000000	64.049720 
7086.000000	64.035558 
7085.000000	64.090967 
7084.000000	64.234948 
7083.000000	64.474773 
7082.000000	64.803361 
7081.000000	65.198993 
7080.000000	65.628194 
7079.000000	66.051363 
7078.000000	66.432547 
7077.000000	66.740798 
7076.000000	66.960287 
7075.000000	67.081022 
7074.000000	67.101573 
7073.000000	67.019581 
7072.000000	66.832351 
7071.000000	66.537332 
7070.000000	66.138887 
7069.000000	65.651154 
7068.000000	65.102767 
7067.000000	64.537310 
7066.000000	64.010405 
7065.000000	63.578939 
7064.000000	63.290619 
7063.000000	63.172912 
7062.000000	63.225865 
7061.000000	63.420772 
7060.000000	63.705015 
7059.000000	64.008522 
7058.000000	64.260053 
7057.000000	64.398932 
7056.000000	64.390945 
7055.000000	64.233636 
7054.000000	63.957071 
7053.000000	63.613319 
7052.000000	63.263559 
7051.000000	62.963581 
7050.000000	62.749075 
7049.000000	62.632656 
7048.000000	62.598323 
7047.000000	62.611436 
7046.000000	62.626290 
7045.000000	62.602949 
7044.000000	62.514448 
7043.000000	62.352299 
7042.000000	62.129139 
7041.000000	61.870408 
7040.000000	61.614298 
7039.000000	61.399531 
7038.000000	61.264491 
7037.000000	61.238551 
7036.000000	61.343693 
7035.000000	61.589026 
7034.000000	61.972570 
7033.000000	62.476015 
7032.000000	63.059997 
7031.000000	63.665866 
7030.000000	64.219927 
7029.000000	64.648604 
7028.000000	64.887094 
7027.000000	64.902234 
7026.000000	64.698815 
7025.000000	64.329266 
7024.000000	63.884139 
7023.000000	63.476586 
7022.000000	63.222050 
7021.000000	63.206911 
7020.000000	63.472819 
7019.000000	63.999247 
7018.000000	64.713644 
7017.000000	65.500044 
7016.000000	66.230010 
7015.000000	66.785216 
7014.000000	67.083883 
7013.000000	67.094516 
7012.000000	66.838479 
7011.000000	66.381382 
7010.000000	65.813779 
7009.000000	65.234661 
7008.000000	64.730596 
7007.000000	64.364933 
7006.000000	64.169430 
7005.000000	64.147305 
7004.000000	64.278364 
7003.000000	64.527654 
7002.000000	64.856147 
7001.000000	65.226721 
7000.000000	65.611815 
6999.000000	65.989065 
6998.000000	66.344809 
6997.000000	66.670203 
6996.000000	66.956329 
6995.000000	67.194867 
6994.000000	67.369580 
6993.000000	67.460179 
6992.000000	67.442178 
6991.000000	67.298269 
6990.000000	67.020440 
6989.000000	66.618943 
6988.000000	66.121983 
6987.000000	65.576791 
6986.000000	65.037941 
6985.000000	64.560031 
6984.000000	64.180874 
6983.000000	63.914847 
6982.000000	63.753938 
6981.000000	63.673353 
6980.000000	63.638448 
6979.000000	63.617968 
6978.000000	63.591384 
6977.000000	63.557887 
6976.000000	63.532042 
6975.000000	63.543033 
6974.000000	63.620638 
6973.000000	63.790154 
6972.000000	64.058613 
6971.000000	64.416718 
6970.000000	64.839673 
6969.000000	65.293407 
6968.000000	65.742206 
6967.000000	66.154766 
6966.000000	66.511535 
6965.000000	66.802239 
6964.000000	67.026758 
6963.000000	67.187094 
6962.000000	67.285323 
6961.000000	67.318439 
6960.000000	67.282009 
6959.000000	67.167520 
6958.000000	66.968989 
6957.000000	66.687178 
6956.000000	66.335439 
6955.000000	65.938115 
6954.000000	65.528774 
6953.000000	65.145874 
6952.000000	64.824819 
6951.000000	64.588189 
6950.000000	64.441847 
6949.000000	64.372897 
6948.000000	64.355611 
6947.000000	64.358305 
6946.000000	64.354276 
6945.000000	64.324712 
6944.000000	64.267277 
6943.000000	64.191985 
6942.000000	64.121413 
6941.000000	64.077329 
6940.000000	64.080548 
6939.000000	64.142537 
6938.000000	64.264607 
6937.000000	64.436864 
6936.000000	64.641213 
6935.000000	64.856958 
6934.000000	65.061807 
6933.000000	65.236759 
6932.000000	65.365767 
6931.000000	65.437531 
6930.000000	65.445590 
6929.000000	65.388703 
6928.000000	65.273165 
6927.000000	65.111947 
6926.000000	64.924979 
6925.000000	64.735174 
6924.000000	64.563632 
6923.000000	64.424920 
6922.000000	64.324951 
6921.000000	64.260315 
6920.000000	64.219403 
6919.000000	64.187765 
6918.000000	64.152407 
6917.000000	64.107084 
6916.000000	64.051866 
6915.000000	63.995742 
6914.000000	63.950157 
6913.000000	63.930058 
6912.000000	63.946151 
6911.000000	64.006209 
6910.000000	64.111924 
6909.000000	64.259696 
6908.000000	64.441299 
6907.000000	64.644050 
6906.000000	64.854097 
6905.000000	65.053105 
6904.000000	65.220785 
6903.000000	65.334749 
6902.000000	65.373897 
6901.000000	65.324497 
6900.000000	65.183806 
6899.000000	64.962816 
6898.000000	64.684605 
6897.000000	64.380788 
6896.000000	64.084577 
6895.000000	63.824892 
6894.000000	63.620829 
6893.000000	63.477849 
6892.000000	63.390517 
6891.000000	63.346052 
6890.000000	63.331699 
6889.000000	63.336658 
6888.000000	63.359403 
6887.000000	63.404083 
6886.000000	63.482403 
6885.000000	63.604617 
6884.000000	63.779187 
6883.000000	64.005208 
6882.000000	64.273476 
6881.000000	64.566516 
6880.000000	64.860486 
6879.000000	65.130567 
6878.000000	65.351819 
6877.000000	65.504527 
6876.000000	65.573406 
6875.000000	65.550303 
6874.000000	65.436244 
6873.000000	65.242791 
6872.000000	64.990878 
6871.000000	64.709091 
6870.000000	64.431405 
6869.000000	64.192008 
6868.000000	64.021658 
6867.000000	63.942050 
6866.000000	63.959693 
6865.000000	64.067316 
6864.000000	64.245128 
6863.000000	64.467501 
6862.000000	64.706611 
6861.000000	64.940476 
6860.000000	65.153455 
6859.000000	65.339946 
6858.000000	65.502071 
6857.000000	65.645289 
6856.000000	65.773057 
6855.000000	65.883922 
6854.000000	65.971851 
6853.000000	66.024923 
6852.000000	66.031837 
6851.000000	65.979957 
6850.000000	65.861248 
6849.000000	65.672397 
6848.000000	65.418577 
6847.000000	65.111947 
6846.000000	64.772963 
6845.000000	64.428544 
6844.000000	64.111089 
6843.000000	63.855814 
6842.000000	63.696169 
6841.000000	63.660812 
6840.000000	63.764858 
6839.000000	64.005780 
6838.000000	64.357542 
6837.000000	64.773535 
6836.000000	65.190124 
6835.000000	65.535926 
6834.000000	65.746378 
6833.000000	65.773510 
6832.000000	65.601158 
6831.000000	65.246343 
6830.000000	64.761734 
6829.000000	64.222526 
6828.000000	63.716173 
6827.000000	63.325572 
6826.000000	63.112115 
6825.000000	63.104820 
6824.000000	63.296771 
6823.000000	63.650608 
6822.000000	64.106321 
6821.000000	64.595842 
6820.000000	65.058493 
6819.000000	65.452575 
6818.000000	65.759134 
6817.000000	65.981292 
6816.000000	66.137886 
6815.000000	66.252946 
6814.000000	66.348314 
6813.000000	66.434311 
6812.000000	66.507911 
6811.000000	66.553592 
6810.000000	66.555690 
6809.000000	66.501092 
6808.000000	66.389608 
6807.000000	66.232705 
6806.000000	66.055941 
6805.000000	65.888643 
6804.000000	65.759181 
6803.000000	65.682888 
6802.000000	65.657973 
6801.000000	65.664839 
6800.000000	65.673184 
6799.000000	65.647816 
6798.000000	65.559887 
6797.000000	65.392565 
6796.000000	65.146255 
6795.000000	64.837074 
6794.000000	64.492583 
6793.000000	64.144945 
6792.000000	63.824152 
6791.000000	63.551330 
6790.000000	63.337063 
6789.000000	63.184332 
6788.000000	63.092136 
6787.000000	63.056945 
6786.000000	63.077473 
6785.000000	63.154697 
6784.000000	63.291263 
6783.000000	63.485980 
6782.000000	63.731288 
6781.000000	64.008975 
6780.000000	64.291405 
6779.000000	64.545154 
6778.000000	64.735102 
6777.000000	64.833211 
6776.000000	64.821553 
6775.000000	64.699459 
6774.000000	64.479064 
6773.000000	64.184284 
6772.000000	63.843846 
6771.000000	63.487815 
6770.000000	63.139963 
6769.000000	62.816214 
6768.000000	62.525153 
6767.000000	62.271451 
6766.000000	62.056756 
6765.000000	61.883521 
6764.000000	61.756277 
6763.000000	61.683106 
6762.000000	61.671280 
6761.000000	61.727213 
6760.000000	61.851310 
6759.000000	62.038898 
6758.000000	62.278485 
6757.000000	62.553858 
6756.000000	62.843966 
6755.000000	63.126325 
6754.000000	63.380670 
6753.000000	63.589215 
6752.000000	63.739418 
6751.000000	63.823294 
6750.000000	63.837480 
6749.000000	63.784241 
6748.000000	63.672590 
6747.000000	63.517189 
6746.000000	63.337349 
6745.000000	63.156437 
6744.000000	63.000416 
6743.000000	62.892961 
6742.000000	62.851762 
6741.000000	62.887501 
6740.000000	63.002157 
6739.000000	63.187527 
6738.000000	63.425636 
6737.000000	63.692188 
6736.000000	63.958263 
6735.000000	64.191937 
6734.000000	64.361238 
6733.000000	64.437437 
6732.000000	64.399814 
6731.000000	64.237689 
6730.000000	63.956332 
6729.000000	63.575911 
6728.000000	63.134646 
6727.000000	62.684416 
6726.000000	62.285256 
6725.000000	61.993765 
6724.000000	61.855745 
6723.000000	61.897087 
6722.000000	62.119674 
6721.000000	62.498211 
6720.000000	62.988758 
6719.000000	63.535141 
6718.000000	64.081525 
6717.000000	64.580368 
6716.000000	64.998936 
6715.000000	65.319800 
6714.000000	65.540599 
6713.000000	65.668916 
6712.000000	65.717029 
6711.000000	65.697145 
6710.000000	65.620326 
6709.000000	65.495061 
6708.000000	65.332651 
6707.000000	65.145826 
6706.000000	64.951610 
6705.000000	64.766740 
6704.000000	64.606451 
6703.000000	64.480137 
6702.000000	64.388108 
6701.000000	64.324474 
6700.000000	64.277529 
6699.000000	64.236998 
6698.000000	64.196658 
6697.000000	64.158344 
6696.000000	64.127969 
6695.000000	64.118647 
6694.000000	64.143133 
6693.000000	64.214777 
6692.000000	64.341163 
6691.000000	64.523816 
6690.000000	64.755749 
6689.000000	65.022158 
6688.000000	65.303158 
6687.000000	65.571022 
6686.000000	65.794372 
6685.000000	65.939521 
6684.000000	65.977072 
6683.000000	65.885710 
6682.000000	65.658664 
6681.000000	65.308928 
6680.000000	64.869737 
6679.000000	64.391946 
6678.000000	63.935494 
6677.000000	63.558483 
6676.000000	63.306832 
6675.000000	63.203954 
6674.000000	63.250446 
6673.000000	63.425397 
6672.000000	63.694119 
6671.000000	64.017248 
6670.000000	64.357161 
6669.000000	64.682197 
6668.000000	64.968538 
6667.000000	65.199279 
6666.000000	65.361118 
6665.000000	65.439319 
6664.000000	65.423345 
6663.000000	65.307855 
6662.000000	65.100622 
6661.000000	64.824724 
6660.000000	64.519977 
6659.000000	64.237976 
6658.000000	64.031171 
6657.000000	63.941144 
6656.000000	63.986039 
6655.000000	64.154791 
6654.000000	64.408850 
6653.000000	64.690184 
6652.000000	64.933991 
6651.000000	65.084075 
6650.000000	65.104866 
6649.000000	64.989924 
6648.000000	64.757871 
6647.000000	64.451551 
6646.000000	64.121985 
6645.000000	63.824844 
6644.000000	63.604497 
6643.000000	63.495063 
6642.000000	63.517379 
6641.000000	63.678312 
6640.000000	63.974499 
6639.000000	64.388728 
6638.000000	64.892530 
6637.000000	65.445017 
6636.000000	65.994548 
6635.000000	66.488027 
6634.000000	66.877102 
6633.000000	67.129254 
6632.000000	67.232656 
6631.000000	67.198133 
6630.000000	67.054820 
6629.000000	66.844868 
6628.000000	66.611552 
6627.000000	66.389489 
6626.000000	66.195225 
6625.000000	66.029667 
6624.000000	65.876650 
6623.000000	65.712761 
6622.000000	65.513467 
6621.000000	65.262413 
6620.000000	64.957213 
6619.000000	64.610314 
6618.000000	64.249277 
6617.000000	63.903975 
6616.000000	63.608503 
6615.000000	63.390564 
6614.000000	63.271093 
6613.000000	63.258504 
6612.000000	63.349819 
6611.000000	63.529706 
6610.000000	63.774943 
6609.000000	64.056563 
6608.000000	64.346313 
6607.000000	64.619040 
6606.000000	64.856600 
6605.000000	65.047287 
6604.000000	65.189337 
6603.000000	65.287947 
6602.000000	65.352272 
6601.000000	65.391135 
6600.000000	65.411972 
6599.000000	65.417623 
6598.000000	65.408921 
6597.000000	65.382552 
6596.000000	65.335249 
6595.000000	65.261936 
6594.000000	65.161442 
6593.000000	65.032553 
6592.000000	64.874911 
6591.000000	64.689040 
6590.000000	64.474582 
6589.000000	64.236760 
6588.000000	63.984823 
6587.000000	63.738274 
6586.000000	63.523435 
6585.000000	63.372230 
6584.000000	63.314580 
6583.000000	63.371777 
6582.000000	63.550114 
6581.000000	63.835096 
6580.000000	64.191651 
6579.000000	64.568758 
6578.000000	64.908647 
6577.000000	65.161323 
6576.000000	65.294933 
6575.000000	65.301942 
6574.000000	65.199041 
6573.000000	65.022873 
6572.000000	64.817953 
6571.000000	64.625954 
6570.000000	64.473032 
6569.000000	64.367079 
6568.000000	64.294099 
6567.000000	64.229512 
6566.000000	64.142346 
6565.000000	64.006280 
6564.000000	63.807773 
6563.000000	63.549280 
6562.000000	63.252401 
6561.000000	62.949037 
6560.000000	62.679648 
6559.000000	62.480688 
6558.000000	62.379956 
6557.000000	62.389016 
6556.000000	62.502384 
6555.000000	62.699294 
6554.000000	62.946057 
6553.000000	63.202691 
6552.000000	63.429355 
6551.000000	63.593053 
6550.000000	63.672852 
6549.000000	63.662457 
6548.000000	63.570380 
6547.000000	63.417148 
6546.000000	63.231277 
6545.000000	63.043475 
6544.000000	62.881922 
6543.000000	62.767410 
6542.000000	62.712311 
6541.000000	62.718844 
6540.000000	62.782573 
6539.000000	62.892842 
6538.000000	63.033890 
6537.000000	63.189053 
6536.000000	63.342595 
6535.000000	63.482618 
6534.000000	63.599395 
6533.000000	63.688850 
6532.000000	63.750767 
6531.000000	63.789343 
6530.000000	63.811230 
6529.000000	63.824248 
6528.000000	63.836288 
6527.000000	63.852500 
6526.000000	63.874864 
6525.000000	63.903141 
6524.000000	63.936161 
6523.000000	63.974356 
6522.000000	64.020276 
6521.000000	64.078927 
6520.000000	64.155650 
6519.000000	64.254093 
6518.000000	64.373683 
6517.000000	64.506506 
6516.000000	64.639592 
6515.000000	64.756608 
6514.000000	64.843869 
6513.000000	64.893937 
6512.000000	64.909195 
6511.000000	64.903187 
6510.000000	64.895534 
6509.000000	64.909005 
6508.000000	64.959263 
6507.000000	65.051031 
6506.000000	65.173530 
6505.000000	65.302419 
6504.000000	65.407061 
6503.000000	65.460324 
6502.000000	65.446090 
6501.000000	65.364575 
6500.000000	65.233540 
6499.000000	65.083932 
6498.000000	64.951515 
6497.000000	64.867210 
6496.000000	64.849686 
6495.000000	64.900660 
6494.000000	65.005993 
6493.000000	65.139102 
6492.000000	65.269064 
6491.000000	65.367317 
6490.000000	65.412950 
6489.000000	65.397071 
6488.000000	65.322327 
6487.000000	65.202331 
6486.000000	65.055298 
6485.000000	64.902257 
6484.000000	64.763188 
6483.000000	64.652943 
6482.000000	64.582324 
6481.000000	64.552617 
6480.000000	64.558267 
6479.000000	64.585089 
6478.000000	64.614176 
6477.000000	64.625263 
6476.000000	64.599728 
6475.000000	64.528179 
6474.000000	64.411258 
6473.000000	64.263463 
6472.000000	64.109182 
6471.000000	63.978219 
6470.000000	63.897681 
6469.000000	63.883924 
6468.000000	63.937664 
6467.000000	64.041996 
6466.000000	64.166831 
6465.000000	64.275550 
6464.000000	64.335584 
6463.000000	64.326429 
6462.000000	64.246058 
6461.000000	64.109587 
6460.000000	63.946843 
6459.000000	63.791894 
6458.000000	63.677096 
6457.000000	63.624095 
6456.000000	63.641667 
6455.000000	63.725233 
6454.000000	63.860416 
6453.000000	64.028620 
6452.000000	64.211511 
6451.000000	64.394807 
6450.000000	64.569807 
6449.000000	64.732289 
6448.000000	64.880394 
6447.000000	65.010762 
6446.000000	65.118885 
6445.000000	65.198302 
6444.000000	65.243029 
6443.000000	65.249991 
6442.000000	65.219545 
6441.000000	65.156769 
6440.000000	65.071153 
6439.000000	64.975643 
6438.000000	64.882206 
6437.000000	64.801216 
6436.000000	64.740872 
6435.000000	64.706850 
6434.000000	64.702987 
6433.000000	64.730525 
6432.000000	64.790010 
6431.000000	64.878106 
6430.000000	64.988517 
6429.000000	65.108466 
6428.000000	65.221810 
6427.000000	65.307641 
6426.000000	65.342688 
6425.000000	65.307617 
6424.000000	65.191698 
6423.000000	64.997577 
6422.000000	64.742779 
6421.000000	64.457011 
6420.000000	64.176225 
6419.000000	63.936591 
6418.000000	63.767886 
6417.000000	63.686823 
6416.000000	63.694381 
6415.000000	63.779997 
6414.000000	63.925814 
6413.000000	64.112353 
6412.000000	64.323210 
6411.000000	64.547371 
6410.000000	64.779257 
6409.000000	65.014123 
6408.000000	65.246677 
6407.000000	65.466284 
6406.000000	65.660738 
6405.000000	65.815782 
6404.000000	65.923213 
6403.000000	65.985918 
6402.000000	66.017556 
6401.000000	66.045212 
6400.000000	66.096115 
6399.000000	66.193103 
6398.000000	66.341543 
6397.000000	66.529488 
6396.000000	66.724538 
6395.000000	66.883468 
6394.000000	66.961836 
6393.000000	66.928195 
6392.000000	66.771316 
6391.000000	66.505169 
6390.000000	66.166090 
6389.000000	65.804839 
6388.000000	65.474629 
6387.000000	65.219092 
6386.000000	65.065121 
6385.000000	65.017843 
6384.000000	65.062999 
6383.000000	65.171098 
6382.000000	65.305805 
6381.000000	65.431547 
6380.000000	65.518784 
6379.000000	65.551114 
6378.000000	65.519452 
6377.000000	65.430188 
6376.000000	65.299630 
6375.000000	65.155243 
6374.000000	65.027856 
6373.000000	64.947772 
6372.000000	64.940547 
6371.000000	65.018773 
6370.000000	65.180563 
6369.000000	65.406942 
6368.000000	65.666341 
6367.000000	65.919709 
6366.000000	66.128635 
6365.000000	66.264367 
6364.000000	66.313505 
6363.000000	66.281080 
6362.000000	66.187977 
6361.000000	66.065716 
6360.000000	65.947985 
6359.000000	65.863656 
6358.000000	65.829896 
6357.000000	65.850090 
6356.000000	65.913438 
6355.000000	66.002202 
6354.000000	66.094779 
6353.000000	66.170573 
6352.000000	66.213941 
6351.000000	66.215252 
6350.000000	66.173338 
6349.000000	66.093611 
6348.000000	65.987825 
6347.000000	65.869903 
6346.000000	65.754437 
6345.000000	65.654897 
6344.000000	65.580606 
6343.000000	65.536737 
6342.000000	65.522336 
6341.000000	65.531849 
6340.000000	65.555739 
6339.000000	65.582823 
6338.000000	65.603184 
6337.000000	65.609765 
6336.000000	65.600466 
6335.000000	65.577697 
6334.000000	65.547680 
6333.000000	65.517997 
6332.000000	65.494942 
6331.000000	65.481615 
6330.000000	65.477609 
6329.000000	65.478897 
6328.000000	65.480160 
6327.000000	65.475869 
6326.000000	65.461230 
6325.000000	65.433716 
6324.000000	65.394043 
6323.000000	65.345454 
6322.000000	65.292119 
6321.000000	65.238070 
6320.000000	65.186929 
6319.000000	65.139842 
6318.000000	65.094137 
6317.000000	65.045952 
6316.000000	64.991259 
6315.000000	64.929509 
6314.000000	64.863729 
6313.000000	64.802908 
6312.000000	64.759254 
6311.000000	64.747619 
6310.000000	64.781475 
6309.000000	64.868307 
6308.000000	65.006279 
6307.000000	65.182590 
6306.000000	65.374970 
6305.000000	65.555191 
6304.000000	65.695500 
6303.000000	65.775299 
6302.000000	65.787053 
6301.000000	65.737199 
6300.000000	65.646409 
6299.000000	65.543580 
6298.000000	65.461802 
6297.000000	65.428948 
6296.000000	65.465307 
6295.000000	65.581583 
6294.000000	65.776371 
6293.000000	66.040587 
6292.000000	66.354465 
6291.000000	66.694045 
6290.000000	67.028641 
6289.000000	67.325806 
6288.000000	67.552876 
6287.000000	67.681527 
6286.000000	67.692923 
6285.000000	67.581582 
6284.000000	67.358684 
6283.000000	67.051482 
6282.000000	66.700792 
6281.000000	66.354751 
6280.000000	66.057395 
6279.000000	65.840673 
6278.000000	65.717983 
6277.000000	65.682816 
6276.000000	65.711259 
6275.000000	65.769171 
6274.000000	65.820932 
6273.000000	65.838313 
6272.000000	65.806150 
6271.000000	65.724635 
6270.000000	65.604186 
6269.000000	65.462493 
6268.000000	65.317964 
6267.000000	65.184259 
6266.000000	65.066313 
6265.000000	64.960360 
6264.000000	64.857697 
6263.000000	64.748048 
6262.000000	64.623761 
6261.000000	64.485216 
6260.000000	64.341259 
6259.000000	64.209389 
6258.000000	64.109206 
6257.000000	64.061737 
6256.000000	64.082741 
6255.000000	64.180159 
6254.000000	64.350891 
6253.000000	64.582467 
6252.000000	64.854526 
6251.000000	65.142798 
6250.000000	65.422725 
6249.000000	65.672588 
6248.000000	65.875482 
6247.000000	66.022729 
6246.000000	66.111278 
6245.000000	66.141939 
6244.000000	66.115903 
6243.000000	66.037249 
6242.000000	65.908813 
6241.000000	65.734982 
6240.000000	65.520501 
6239.000000	65.275621 
6238.000000	65.013813 
6237.000000	64.751172 
6236.000000	64.506697 
6235.000000	64.300298 
6234.000000	64.150333 
6233.000000	64.069652 
6232.000000	64.063978 
6231.000000	64.130401 
6230.000000	64.255356 
6229.000000	64.415740 
6228.000000	64.581799 
6227.000000	64.721751 
6226.000000	64.808440 
6225.000000	64.824867 
6224.000000	64.767456 
6223.000000	64.647150 
6222.000000	64.488816 
6221.000000	64.326143 
6220.000000	64.192938 
6219.000000	64.117121 
6218.000000	64.116954 
6217.000000	64.197516 
6216.000000	64.349555 
6215.000000	64.553880 
6214.000000	64.786744 
6213.000000	65.025877 
6212.000000	65.253043 
6211.000000	65.458464 
6210.000000	65.638828 
6209.000000	65.797829 
6208.000000	65.941691 
6207.000000	66.076850 
6206.000000	66.206502 
6205.000000	66.329813 
6204.000000	66.444158 
6203.000000	66.542124 
6202.000000	66.614913 
6201.000000	66.652703 
6200.000000	66.648292 
6199.000000	66.596293 
6198.000000	66.494989 
6197.000000	66.347193 
6196.000000	66.159963 
6195.000000	65.943384 
6194.000000	65.708780 
6193.000000	65.468859 
6192.000000	65.235114 
6191.000000	65.016865 
6190.000000	64.819908 
6189.000000	64.646458 
6188.000000	64.496016 
6187.000000	64.365077 
6186.000000	64.250898 
6185.000000	64.149594 
6184.000000	64.061808 
6183.000000	63.990998 
6182.000000	63.944768 
6181.000000	63.929510 
6180.000000	63.950824 
6179.000000	64.009928 
6178.000000	64.102125 
6177.000000	64.214777 
6176.000000	64.331698 
6175.000000	64.435648 
6174.000000	64.513850 
6173.000000	64.560699 
6172.000000	64.581680 
6171.000000	64.592003 
6170.000000	64.614009 
6169.000000	64.670705 
6168.000000	64.779734 
6167.000000	64.946794 
6166.000000	65.163826 
6165.000000	65.408778 
6164.000000	65.650773 
6163.000000	65.856003 
6162.000000	65.997099 
6161.000000	66.057753 
6160.000000	66.035580 
6159.000000	65.942263 
6158.000000	65.800499 
6157.000000	65.637922 
6156.000000	65.481376 
6155.000000	65.350985 
6154.000000	65.259265 
6153.000000	65.207648 
6152.000000	65.189290 
6151.000000	65.192294 
6150.000000	65.204977 
6149.000000	65.219211 
6148.000000	65.232491 
6147.000000	65.247988 
6146.000000	65.271854 
6145.000000	65.310549 
6144.000000	65.366721 
6143.000000	65.436744 
6142.000000	65.509510 
6141.000000	65.569329 
6140.000000	65.598869 
6139.000000	65.583372 
6138.000000	65.514111 
6137.000000	65.392446 
6136.000000	65.228772 
6135.000000	65.039920 
6134.000000	64.845657 
6133.000000	64.664316 
6132.000000	64.510321 
6131.000000	64.389920 
6130.000000	64.305257 
6129.000000	64.256024 
6128.000000	64.242243 
6127.000000	64.265179 
6126.000000	64.327478 
6125.000000	64.430689 
6124.000000	64.573478 
6123.000000	64.748048 
6122.000000	64.941310 
6121.000000	65.135002 
6120.000000	65.310072 
6119.000000	65.449857 
6118.000000	65.543293 
6117.000000	65.586066 
6116.000000	65.581488 
6115.000000	65.537738 
6114.000000	65.464735 
6113.000000	65.370798 
6112.000000	65.261673 
6111.000000	65.139269 
6110.000000	65.004134 
6109.000000	64.856171 
6108.000000	64.699172 
6107.000000	64.539742 
6106.000000	64.387679 
6105.000000	64.253401 
6104.000000	64.146041 
6103.000000	64.070606 
6102.000000	64.025330 
6101.000000	64.003276 
6100.000000	63.993501 
6099.000000	63.984203 
6098.000000	63.964104 
6097.000000	63.927555 
6096.000000	63.874363 
6095.000000	63.812303 
6094.000000	63.754081 
6093.000000	63.715195 
6092.000000	63.709044 
6091.000000	63.743734 
6090.000000	63.819003 
6089.000000	63.926005 
6088.000000	64.048838 
6087.000000	64.168143 
6086.000000	64.265561 
6085.000000	64.328122 
6084.000000	64.351463 
6083.000000	64.339065 
6082.000000	64.301967 
6081.000000	64.255595 
6080.000000	64.216113 
6079.000000	64.196109 
6078.000000	64.202904 
6077.000000	64.237570 
6076.000000	64.296412 
6075.000000	64.373683 
6074.000000	64.462828 
6073.000000	64.558625 
6072.000000	64.657235 
6071.000000	64.755916 
6070.000000	64.852309 
6069.000000	64.942479 
6068.000000	65.022993 
6067.000000	65.090847 
6066.000000	65.145254 
6065.000000	65.188169 
6064.000000	65.224385 
6063.000000	65.260887 
6062.000000	65.305733 
6061.000000	65.366244 
6060.000000	65.448212 
6059.000000	65.553689 
6058.000000	65.681147 
6057.000000	65.823650 
6056.000000	65.971684 
6055.000000	66.111135 
6054.000000	66.226959 
6053.000000	66.302490 
6052.000000	66.324019 
6051.000000	66.280460 
6050.000000	66.168093 
6049.000000	65.988993 
6048.000000	65.753149 
6047.000000	65.475869 
6046.000000	65.178036 
6045.000000	64.881157 
6044.000000	64.604973 
6043.000000	64.365124 
6042.000000	64.171290 
6041.000000	64.028787 
6040.000000	63.938975 
6039.000000	63.900899 
6038.000000	63.911581 
6037.000000	63.966035 
6036.000000	64.056658 
6035.000000	64.171624 
6034.000000	64.295172 
6033.000000	64.409089 
6032.000000	64.495539 
6031.000000	64.538812 
6030.000000	64.529442 
6029.000000	64.466762 
6028.000000	64.360094 
6027.000000	64.226293 
6026.000000	64.087533 
6025.000000	63.967418 
6024.000000	63.886046 
6023.000000	63.856196 
6022.000000	63.881397 
6021.000000	63.956165 
6020.000000	64.067745 
6019.000000	64.199733 
6018.000000	64.335584 
6017.000000	64.460515 
6016.000000	64.566111 
6015.000000	64.650225 
6014.000000	64.717245 
6013.000000	64.774179 
6012.000000	64.830422 
6011.000000	64.894223 
6010.000000	64.968848 
6009.000000	65.050745 
6008.000000	65.130257 
6007.000000	65.193247 
6006.000000	65.224838 
6005.000000	65.212559 
6004.000000	65.150213 
6003.000000	65.038919 
6002.000000	64.886999 
6001.000000	64.708757 
6000.000000	64.521741 
5999.000000	64.343881 
5998.000000	64.190292 
5997.000000	64.071822 
5996.000000	63.994359 
5995.000000	63.959312 
5994.000000	63.963818 
5993.000000	64.003133 
5992.000000	64.070034 
5991.000000	64.158391 
5990.000000	64.262270 
5989.000000	64.377403 
5988.000000	64.499020 
5987.000000	64.622926 
5986.000000	64.744591 
5985.000000	64.857745 
5984.000000	64.954495 
5983.000000	65.024852 
5982.000000	65.058708 
5981.000000	65.047287 
5980.000000	64.986586 
5979.000000	64.879989 
5978.000000	64.740467 
5977.000000	64.589667 
5976.000000	64.455461 
5975.000000	64.367628 
5974.000000	64.350819 
5973.000000	64.419841 
5972.000000	64.573907 
5971.000000	64.796447 
5970.000000	65.056276 
5969.000000	65.314960 
5968.000000	65.533018 
5967.000000	65.676951 
5966.000000	65.727090 
5965.000000	65.680646 
5964.000000	65.551757 
5963.000000	65.366554 
5962.000000	65.158033 
5961.000000	64.958620 
5960.000000	64.794373 
5959.000000	64.681601 
5958.000000	64.624667 
5957.000000	64.617943 
5956.000000	64.647889 
5955.000000	64.697933 
5954.000000	64.750933 
5953.000000	64.793324 
5952.000000	64.816093 
5951.000000	64.816379 
5950.000000	64.795184 
5949.000000	64.757657 
5948.000000	64.710474 
5947.000000	64.661455 
5946.000000	64.617419 
5945.000000	64.584469 
5944.000000	64.567971 
5943.000000	64.571952 
5942.000000	64.598965 
5941.000000	64.649200 
5940.000000	64.720964 
5939.000000	64.809489 
5938.000000	64.907073 
5937.000000	65.003776 
5936.000000	65.088534 
5935.000000	65.151476 
5934.000000	65.185451 
5933.000000	65.187954 
5932.000000	65.161514 
5931.000000	65.114569 
5930.000000	65.059947 
5929.000000	65.012216 
5928.000000	64.984464 
5927.000000	64.986515 
5926.000000	65.022253 
5925.000000	65.088891 
5924.000000	65.176749 
5923.000000	65.271782 
5922.000000	65.357208 
5921.000000	65.416789 
5920.000000	65.437269 
5919.000000	65.410280 
5918.000000	65.334057 
5917.000000	65.212249 
5916.000000	65.055322 
5915.000000	64.877915 
5914.000000	64.699149 
5913.000000	64.539170 
5912.000000	64.418458 
5911.000000	64.354324 
5910.000000	64.358854 
5909.000000	64.437031 
5908.000000	64.584112 
5907.000000	64.785552 
5906.000000	65.018367 
5905.000000	65.254735 
5904.000000	65.465712 
5903.000000	65.625762 
5902.000000	65.718340 
5901.000000	65.738296 
5900.000000	65.692853 
5899.000000	65.599322 
5898.000000	65.481591 
5897.000000	65.364480 
5896.000000	65.269231 
5895.000000	65.208983 
5894.000000	65.188169 
5893.000000	65.202403 
5892.000000	65.241813 
5891.000000	65.294170 
5890.000000	65.349078 
5889.000000	65.399932 
5888.000000	65.444469 
5887.000000	65.483784 
5886.000000	65.519523 
5885.000000	65.552377 
5884.000000	65.580463 
5883.000000	65.599107 
5882.000000	65.601778 
5881.000000	65.582561 
5880.000000	65.539026 
5879.000000	65.473055 
5878.000000	65.391564 
5877.000000	65.304636 
5876.000000	65.223360 
5875.000000	65.156841 
5874.000000	65.110230 
5873.000000	65.082645 
5872.000000	65.067863 
5871.000000	65.056562 
5870.000000	65.039157 
5869.000000	65.008091 
5868.000000	64.960360 
5867.000000	64.897274 
5866.000000	64.825105 
5865.000000	64.752531 
5864.000000	64.690256 
5863.000000	64.647459 
5862.000000	64.631175 
5861.000000	64.644956 
5860.000000	64.688014 
5859.000000	64.755916 
5858.000000	64.840245 
5857.000000	64.930057 
5856.000000	65.013360 
5855.000000	65.079212 
5854.000000	65.119576 
5853.000000	65.129899 
5852.000000	65.110802 
5851.000000	65.067481 
5850.000000	65.009117 
5849.000000	64.946866 
5848.000000	64.891767 
5847.000000	64.852643 
5846.000000	64.835119 
5845.000000	64.841127 
5844.000000	64.869308 
5843.000000	64.915943 
5842.000000	64.976501 
5841.000000	65.046334 
5840.000000	65.120482 
5839.000000	65.194272 
5838.000000	65.262913 
5837.000000	65.321707 
5836.000000	65.366220 
5835.000000	65.392637 
5834.000000	65.399265 
5833.000000	65.385699 
5832.000000	65.353989 
5831.000000	65.306925 
5830.000000	65.248942 
5829.000000	65.184068 
5828.000000	65.116214 
5827.000000	65.048503 
5826.000000	64.983320 
5825.000000	64.923286 
5824.000000	64.871478 
5823.000000	64.831280 
5822.000000	64.805865 
5821.000000	64.796996 
5820.000000	64.804220 
5819.000000	64.823842 
5818.000000	64.849662 
5817.000000	64.874482 
5816.000000	64.892387 
5815.000000	64.899826 
5814.000000	64.897251 
5813.000000	64.889073 
5812.000000	64.882397 
5811.000000	64.884734 
5810.000000	64.901494 
5809.000000	64.934849 
5808.000000	64.981698 
5807.000000	65.035080 
5806.000000	65.084695 
5805.000000	65.120005 
5804.000000	65.132546 
5803.000000	65.118384 
5802.000000	65.078878 
5801.000000	65.020179 
5800.000000	64.952778 
5799.000000	64.888978 
5798.000000	64.840412 
5797.000000	64.815306 
5796.000000	64.817500 
5795.000000	64.845967 
5794.000000	64.893341 
5793.000000	64.947581 
5792.000000	64.994311 
5791.000000	65.020155 
5790.000000	65.014910 
5789.000000	64.974331 
5788.000000	64.901161 
5787.000000	64.804863 
5786.000000	64.699244 
5785.000000	64.599895 
5784.000000	64.520192 
5783.000000	64.469361 
5782.000000	64.451456 
5781.000000	64.465212 
5780.000000	64.505171 
5779.000000	64.563703 
5778.000000	64.632201 
5777.000000	64.704251 
5776.000000	64.775204 
5775.000000	64.844393 
5774.000000	64.912867 
5773.000000	64.983677 
5772.000000	65.058970 
5771.000000	65.140366 
5770.000000	65.227794 
5769.000000	65.319800 
5768.000000	65.413570 
5767.000000	65.506553 
5766.000000	65.596914 
5765.000000	65.683913 
5764.000000	65.767288 
5763.000000	65.847253 
5762.000000	65.922641 
5761.000000	65.990424 
5760.000000	66.044926 
5759.000000	66.078591 
5758.000000	66.084027 
5757.000000	66.055631 
5756.000000	65.993213 
5755.000000	65.904092 
5754.000000	65.802717 
5753.000000	65.709090 
5752.000000	65.643596 
5751.000000	65.623307 
5750.000000	65.655994 
5749.000000	65.738511 
5748.000000	65.855598 
5747.000000	65.983986 
5746.000000	66.096353 
5745.000000	66.168475 
5744.000000	66.183543 
5743.000000	66.136026 
5742.000000	66.031336 
5741.000000	65.883636 
5740.000000	65.711712 
5739.000000	65.534520 
5738.000000	65.367269 
5737.000000	65.218973 
5736.000000	65.093898 
5735.000000	64.991641 
5734.000000	64.910292 
5733.000000	64.846611 
5732.000000	64.796948 
5731.000000	64.757251 
5730.000000	64.721083 
5729.000000	64.681887 
5728.000000	64.631485 
5727.000000	64.564442 
5726.000000	64.477705 
5725.000000	64.374685 
5724.000000	64.263749 
5723.000000	64.159035 
5722.000000	64.076995 
5721.000000	64.032888 
5720.000000	64.036130 
5719.000000	64.088320 
5718.000000	64.181828 
5717.000000	64.301753 
5716.000000	64.428758 
5715.000000	64.543271 
5714.000000	64.629292 
5713.000000	64.677286 
5712.000000	64.685726 
5711.000000	64.660263 
5710.000000	64.612054 
5709.000000	64.554548 
5708.000000	64.500689 
5707.000000	64.462304 
5706.000000	64.447569 
5705.000000	64.459824 
5704.000000	64.497518 
5703.000000	64.556574 
5702.000000	64.630961 
5701.000000	64.713096 
5700.000000	64.796566 
5699.000000	64.875841 
5698.000000	64.948558 
5697.000000	65.015578 
5696.000000	65.079593 
5695.000000	65.144395 
5694.000000	65.211343 
5693.000000	65.278816 
5692.000000	65.340518 
5691.000000	65.387034 
5690.000000	65.408349 
5689.000000	65.397214 
5688.000000	65.352010 
5687.000000	65.278649 
5686.000000	65.189146 
5685.000000	65.099549 
5684.000000	65.026259 
5683.000000	64.983105 
5682.000000	64.979147 
5681.000000	65.017533 
5680.000000	65.096044 
5679.000000	65.207743 
5678.000000	65.342831 
5677.000000	65.489125 
5676.000000	65.634346 
5675.000000	65.765523 
5674.000000	65.869832 
5673.000000	65.935254 
5672.000000	65.951824 
5671.000000	65.913367 
5670.000000	65.820431 
5669.000000	65.679478 
5668.000000	65.503978 
5667.000000	65.310859 
5666.000000	65.118765 
5665.000000	64.944314 
5664.000000	64.799308 
5663.000000	64.691424 
5662.000000	64.624166 
5661.000000	64.598441 
5660.000000	64.613485 
5659.000000	64.667534 
5658.000000	64.757800 
5657.000000	64.879131 
5656.000000	65.024113 
5655.000000	65.182781 
5654.000000	65.343832 
5653.000000	65.495824 
5652.000000	65.628695 
5651.000000	65.735459 
5650.000000	65.812468 
5649.000000	65.860223 
5648.000000	65.881514 
5647.000000	65.881443 
5646.000000	65.864467 
5645.000000	65.834569 
5644.000000	65.793681 
5643.000000	65.743660 
5642.000000	65.685367 
5641.000000	65.621042 
5640.000000	65.553545 
5639.000000	65.487122 
5638.000000	65.426707 
5637.000000	65.377116 
5636.000000	65.342330 
5635.000000	65.324282 
5634.000000	65.323948 
5633.000000	65.341067 
5632.000000	65.373778 
5631.000000	65.418434 
5630.000000	65.470600 
5629.000000	65.525174 
5628.000000	65.576577 
5627.000000	65.619301 
5626.000000	65.648126 
5625.000000	65.658879 
5624.000000	65.648937 
5623.000000	65.617918 
5622.000000	65.568208 
5621.000000	65.504741 
5620.000000	65.435600 
5619.000000	65.369606 
5618.000000	65.315294 
5617.000000	65.278339 
5616.000000	65.261411 
5615.000000	65.262722 
5614.000000	65.276026 
5613.000000	65.293574 
5612.000000	65.307736 
5611.000000	65.314507 
5610.000000	65.313720 
5609.000000	65.310692 
5608.000000	65.314102 
5607.000000	65.333700 
5606.000000	65.376901 
5605.000000	65.445852 
5604.000000	65.536284 
5603.000000	65.638208 
5602.000000	65.738391 
5601.000000	65.824389 
5600.000000	65.888047 
5599.000000	65.928339 
5598.000000	65.950965 
5597.000000	65.967273 
5596.000000	65.988779 
5595.000000	66.024518 
5594.000000	66.075301 
5593.000000	66.133809 
5592.000000	66.184067 
5591.000000	66.207504 
5590.000000	66.185951 
5589.000000	66.108608 
5588.000000	65.974354 
5587.000000	65.793848 
5586.000000	65.586686 
5585.000000	65.377235 
5584.000000	65.189123 
5583.000000	65.039777 
5582.000000	64.938259 
5581.000000	64.884138 
5580.000000	64.869618 
5579.000000	64.882707 
5578.000000	64.911556 
5577.000000	64.947700 
5576.000000	64.986348 
5575.000000	65.026378 
5574.000000	65.068697 
5573.000000	65.114831 
5572.000000	65.163779 
5571.000000	65.212488 
5570.000000	65.256834 
5569.000000	65.292620 
5568.000000	65.318012 
5567.000000	65.332961 
5566.000000	65.339851 
5565.000000	65.341210 
5564.000000	65.339612 
5563.000000	65.335106 
5562.000000	65.325355 
5561.000000	65.306019 
5560.000000	65.273213 
5559.000000	65.224528 
5558.000000	65.160751 
5557.000000	65.085911 
5556.000000	65.007805 
5555.000000	64.934515 
5554.000000	64.872455 
5553.000000	64.824318 
5552.000000	64.788508 
5551.000000	64.758586 
5550.000000	64.725399 
5549.000000	64.680004 
5548.000000	64.617085 
5547.000000	64.536643 
5546.000000	64.445424 
5545.000000	64.354968 
5544.000000	64.279985 
5543.000000	64.234638 
5542.000000	64.229369 
5541.000000	64.267921 
5540.000000	64.346718 
5539.000000	64.455056 
5538.000000	64.578413 
5537.000000	64.700651 
5536.000000	64.808464 
5535.000000	64.893341 
5534.000000	64.953351 
5533.000000	64.992308 
5532.000000	65.017724 
5531.000000	65.037775 
5530.000000	65.058517 
5529.000000	65.082192 
5528.000000	65.106368 
5527.000000	65.125441 
5526.000000	65.132355 
5525.000000	65.121698 
5524.000000	65.091323 
5523.000000	65.043878 
5522.000000	64.986491 
5521.000000	64.929461 
5520.000000	64.882946 
5519.000000	64.854741 
5518.000000	64.849019 
5517.000000	64.865207 
5516.000000	64.897894 
5515.000000	64.939117 
5514.000000	64.980506 
5513.000000	65.016126 
5512.000000	65.042853 
5511.000000	65.061855 
5510.000000	65.076971 
5509.000000	65.093421 
5508.000000	65.115952 
5507.000000	65.146279 
5506.000000	65.182542 
5505.000000	65.218591 
5504.000000	65.246891 
5503.000000	65.258097 
5502.000000	65.244388 
5501.000000	65.200352 
5500.000000	65.125060 
5499.000000	65.021657 
5498.000000	64.897346 
5497.000000	64.763355 
5496.000000	64.633417 
5495.000000	64.522123 
5494.000000	64.443135 
5493.000000	64.407896 
5492.000000	64.424157 
5491.000000	64.494109 
5490.000000	64.614009 
5489.000000	64.773607 
5488.000000	64.957523 
5487.000000	65.147137 
5486.000000	65.323638 
5485.000000	65.469884 
5484.000000	65.573382 
5483.000000	65.628504 
5482.000000	65.635561 
5481.000000	65.600347 
5480.000000	65.531992 
5479.000000	65.442085 
5478.000000	65.341329 
5477.000000	65.239548 
5476.000000	65.143084 
5475.000000	65.056419 
5474.000000	64.980316 
5473.000000	64.913940 
5472.000000	64.853835 
5471.000000	64.795613 
5470.000000	64.734721 
5469.000000	64.668011 
5468.000000	64.594268 
5467.000000	64.515376 
5466.000000	64.436292 
5465.000000	64.365053 
5464.000000	64.311075 
5463.000000	64.283967 
5462.000000	64.290308 
5461.000000	64.333629 
5460.000000	64.412355 
5459.000000	64.521718 
5458.000000	64.653873 
5457.000000	64.800429 
5456.000000	64.953422 
5455.000000	65.105986 
5454.000000	65.253090 
5453.000000	65.389513 
5452.000000	65.509676 
5451.000000	65.606021 
5450.000000	65.670657 
5449.000000	65.695071 
5448.000000	65.673255 
5447.000000	65.602731 
5446.000000	65.487337 
5445.000000	65.336704 
5444.000000	65.166234 
5443.000000	64.993596 
5442.000000	64.836072 
5441.000000	64.707517 
5440.000000	64.616775 
5439.000000	64.565873 
5438.000000	64.551782 
5437.000000	64.568138 
5436.000000	64.608669 
5435.000000	64.667892 
5434.000000	64.743828 
5433.000000	64.835953 
5432.000000	64.945316 
5431.000000	65.071249 
5430.000000	65.210485 
5429.000000	65.355372 
5428.000000	65.494441 
5427.000000	65.615391 
5426.000000	65.705108 
5425.000000	65.753960 
5424.000000	65.755057 
5423.000000	65.707087 
5422.000000	65.612339 
5421.000000	65.477180 
5420.000000	65.311121 
5419.000000	65.126252 
5418.000000	64.936971 
5417.000000	64.759063 
5416.000000	64.608645 
5415.000000	64.500713 
5414.000000	64.447736 
5413.000000	64.457774 
5412.000000	64.531731 
5411.000000	64.662814 
5410.000000	64.837098 
5409.000000	65.035247 
5408.000000	65.234947 
5407.000000	65.414428 
5406.000000	65.555334 
5405.000000	65.645575 
5404.000000	65.679645 
5403.000000	65.659761 
5402.000000	65.593528 
5401.000000	65.493464 
5400.000000	65.376210 
5399.000000	65.258288 
5398.000000	65.155172 
5397.000000	65.077519 
5396.000000	65.031838 
5395.000000	65.018105 
5394.000000	65.030717 
5393.000000	65.061402 
5392.000000	65.101647 
5391.000000	65.146040 
5390.000000	65.193033 
5389.000000	65.245914 
5388.000000	65.310359 
5387.000000	65.392971 
5386.000000	65.497565 
5385.000000	65.622329 
5384.000000	65.759110 
5383.000000	65.894651 
5382.000000	66.013622 
5381.000000	66.103148 
5380.000000	66.155099 
5379.000000	66.169953 
5378.000000	66.153764 
5377.000000	66.118121 
5376.000000	66.073584 
5375.000000	66.027283 
5374.000000	65.979361 
5373.000000	65.924429 
5372.000000	65.852665 
5371.000000	65.755081 
5370.000000	65.626239 
5369.000000	65.467596 
5368.000000	65.289163 
5367.000000	65.108418 
5366.000000	64.946937 
5365.000000	64.824819 
5364.000000	64.757084 
5363.000000	64.749693 
5362.000000	64.798355 
5361.000000	64.889526 
5360.000000	65.003347 
5359.000000	65.118026 
5358.000000	65.214776 
5357.000000	65.281581 
5356.000000	65.312957 
5355.000000	65.310597 
5354.000000	65.282607 
5353.000000	65.239977 
5352.000000	65.192246 
5351.000000	65.145945 
5350.000000	65.104603 
5349.000000	65.068864 
5348.000000	65.037679 
5347.000000	65.010857 
5346.000000	64.990210 
5345.000000	64.980959 
5344.000000	64.991092 
5343.000000	65.029048 
5342.000000	65.100026 
5341.000000	65.204906 
5340.000000	65.338015 
5339.000000	65.488839 
5338.000000	65.643382 
5337.000000	65.787363 
5336.000000	65.909099 
5335.000000	66.000509 
5334.000000	66.057443 
5333.000000	66.079783 
5332.000000	66.068840 
5331.000000	66.025400 
5330.000000	65.947222 
5329.000000	65.829610 
5328.000000	65.666508 
5327.000000	65.454030 
5326.000000	65.194153 
5325.000000	64.896893 
5324.000000	64.582371 
5323.000000	64.276528 
5322.000000	64.010548 
5321.000000	63.816046 
5320.000000	63.718414 
5319.000000	63.730311 
5318.000000	63.848376 
5317.000000	64.052915 
5316.000000	64.309883 
5315.000000	64.576697 
5314.000000	64.809703 
5313.000000	64.969778 
5312.000000	65.034341 
5311.000000	65.000343 
5310.000000	64.885401 
5309.000000	64.721751 
5308.000000	64.549303 
5307.000000	64.405155 
5306.000000	64.312314 
5305.000000	64.274525 
5304.000000	64.276552 
5303.000000	64.291071 
5302.000000	64.284873 
5301.000000	64.234924 
5300.000000	64.134311 
5299.000000	64.003181 
5298.000000	63.883376 
5297.000000	63.833189 
5296.000000	63.911223 
5295.000000	64.159154 
5294.000000	64.592432 
5293.000000	65.184378 
5292.000000	65.870046 
5291.000000	66.552782 
5290.000000	67.126798 
5289.000000	67.497014 
5288.000000	67.601466 
5287.000000	67.424893 
5286.000000	67.003655 
5285.000000	66.413664 
5284.000000	65.752959 
5283.000000	65.116858 
5282.000000	64.578509 
5281.000000	64.173078 
5280.000000	63.896298 
5279.000000	63.711023 
5278.000000	63.565349 
5277.000000	63.408970 
5276.000000	63.213586 
5275.000000	62.977695 
5274.000000	62.732434 
5273.000000	62.526917 
5272.000000	62.419223 
5271.000000	62.452721 
5270.000000	62.647914 
5269.000000	62.993574 
5268.000000	63.448572 
5267.000000	63.950562 
5266.000000	64.429616 
5265.000000	64.824128 
5264.000000	65.093016 
5263.000000	65.220570 
5262.000000	65.220403 
5261.000000	65.127635 
5260.000000	64.990067 
5259.000000	64.854598 
5258.000000	64.758515 
5257.000000	64.723801 
5256.000000	64.752650 
5255.000000	64.832067 
5254.000000	64.936232 
5253.000000	65.036010 
5252.000000	65.106940 
5251.000000	65.136551 
5250.000000	65.123963 
5249.000000	65.080213 
5248.000000	65.026187 
5247.000000	64.985394 
5246.000000	64.977002 
5245.000000	65.009021 
5244.000000	65.077543 
5243.000000	65.165543 
5242.000000	65.248608 
5241.000000	65.299773 
5240.000000	65.298366 
5239.000000	65.234208 
5238.000000	65.110087 
5237.000000	64.941811 
5236.000000	64.752626 
5235.000000	64.570093 
5234.000000	64.420270 
5233.000000	64.320993 
5232.000000	64.278340 
5231.000000	64.286732 
5230.000000	64.332246 
5229.000000	64.395618 
5228.000000	64.457726 
5227.000000	64.504194 
5226.000000	64.528155 
5225.000000	64.530897 
5224.000000	64.520144 
5223.000000	64.506912 
5222.000000	64.501881 
5221.000000	64.511632 
5220.000000	64.537620 
5219.000000	64.576435 
5218.000000	64.621520 
5217.000000	64.666223 
5216.000000	64.705634 
5215.000000	64.737820 
5214.000000	64.764404 
5213.000000	64.789366 
5212.000000	64.817714 
5211.000000	64.852786 
5210.000000	64.895296 
5209.000000	64.942765 
5208.000000	64.989852 
5207.000000	65.030384 
5206.000000	65.058159 
5205.000000	65.069580 
5204.000000	65.062785 
5203.000000	65.038204 
5202.000000	64.997768 
5201.000000	64.944481 
5200.000000	64.881873 
5199.000000	64.813804 
5198.000000	64.744377 
5197.000000	64.677906 
5196.000000	64.619207 
5195.000000	64.573407 
5194.000000	64.544701 
5193.000000	64.536643 
5192.000000	64.550828 
5191.000000	64.587211 
5190.000000	64.643335 
5189.000000	64.714765 
5188.000000	64.794683 
5187.000000	64.875507 
5186.000000	64.949369 
5185.000000	65.009951 
5184.000000	65.053462 
5183.000000	65.078759 
5182.000000	65.087676 
5181.000000	65.083289 
5180.000000	65.069627 
5179.000000	65.049171 
5178.000000	65.022897 
5177.000000	64.989113 
5176.000000	64.944839 
5175.000000	64.886403 
5174.000000	64.811944 
5173.000000	64.722418 
5172.000000	64.622807 
5171.000000	64.521574 
5170.000000	64.429879 
5169.000000	64.358639 
5168.000000	64.316821 
5167.000000	64.309239 
5166.000000	64.336395 
5165.000000	64.394426 
5164.000000	64.476823 
5163.000000	64.575719 
5162.000000	64.683580 
5161.000000	64.793372 
5160.000000	64.899325 
5159.000000	64.996075 
5158.000000	65.078878 
5157.000000	65.143203 
5156.000000	65.184950 
5155.000000	65.201377 
5154.000000	65.191459 
5153.000000	65.157055 
5152.000000	65.102577 
5151.000000	65.035414 
5150.000000	64.964294 
5149.000000	64.898538 
5148.000000	64.846062 
5147.000000	64.812421 
5146.000000	64.799928 
5145.000000	64.807772 
5144.000000	64.832377 
5143.000000	64.868497 
5142.000000	64.910030 
5141.000000	64.951419 
5140.000000	64.987874 
5139.000000	65.016698 
5138.000000	65.036988 
5137.000000	65.049791 
5136.000000	65.057730 
5135.000000	65.064191 
5134.000000	65.072393 
5133.000000	65.084958 
5132.000000	65.103220 
5131.000000	65.127277 
5130.000000	65.156841 
5129.000000	65.190362 
5128.000000	65.226078 
5127.000000	65.261268 
5126.000000	65.293097 
5125.000000	65.317940 
5124.000000	65.332078 
5123.000000	65.331983 
5122.000000	65.315055 
5121.000000	65.280318 
5120.000000	65.229082 
5119.000000	65.165138 
5118.000000	65.094161 
5117.000000	65.022826 
5116.000000	64.957594 
5115.000000	64.903306 
5114.000000	64.862608 
5113.000000	64.835095 
5112.000000	64.818668 
5111.000000	64.810729 
5110.000000	64.809799 
5109.000000	64.815473 
5108.000000	64.829015 
5107.000000	64.852190 
5106.000000	64.886522 
5105.000000	64.931130 
5104.000000	64.983439 
5103.000000	65.038919 
5102.000000	65.092349 
5101.000000	65.138983 
5100.000000	65.175843 
5099.000000	65.202641 
5098.000000	65.221405 
5097.000000	65.235710 
5096.000000	65.249133 
5095.000000	65.264177 
5094.000000	65.280890 
5093.000000	65.296840 
5092.000000	65.307426 
5091.000000	65.307140 
5090.000000	65.291404 
5089.000000	65.257692 
5088.000000	65.206146 
5087.000000	65.140008 
5086.000000	65.064787 
5085.000000	64.987874 
5084.000000	64.916753 
5083.000000	64.858007 
5082.000000	64.816832 
5081.000000	64.795780 
5080.000000	64.794611 
5079.000000	64.810204 
5078.000000	64.837145 
5077.000000	64.868855 
5076.000000	64.898395 
5075.000000	64.920091 
5074.000000	64.929866 
5073.000000	64.926290 
5072.000000	64.910030 
5071.000000	64.883995 
5070.000000	64.852309 
5069.000000	64.819622 
5068.000000	64.790344 
5067.000000	64.767813 
5066.000000	64.753913 
5065.000000	64.748692 
5064.000000	64.750909 
5063.000000	64.758229 
5062.000000	64.768218 
5061.000000	64.778828 
5060.000000	64.789032 
5059.000000	64.798855 
5058.000000	64.809513 
5057.000000	64.822292 
5056.000000	64.838504 
5055.000000	64.858627 
5054.000000	64.882326 
5053.000000	64.907741 
5052.000000	64.932727 
5051.000000	64.955449 
5050.000000	64.975070 
5049.000000	64.991879 
5048.000000	65.007472 
5047.000000	65.024733 
5046.000000	65.046548 
5045.000000	65.075087 
5044.000000	65.110540 
5043.000000	65.151047 
5042.000000	65.192580 
5041.000000	65.230154 
5040.000000	65.258622 
5039.000000	65.274381 
5038.000000	65.276002 
5037.000000	65.264844 
5036.000000	65.244841 
5035.000000	65.221595 
5034.000000	65.200877 
5033.000000	65.187215 
5032.000000	65.183067 
5031.000000	65.188312 
5030.000000	65.200710 
5029.000000	65.216970 
5028.000000	65.233778 
5027.000000	65.249323 
5026.000000	65.263724 
5025.000000	65.279507 
5024.000000	65.300154 
5023.000000	65.329194 
5022.000000	65.368533 
5021.000000	65.417170 
5020.000000	65.471172 
5019.000000	65.523791 
5018.000000	65.567278 
5017.000000	65.594339 
5016.000000	65.600085 
5015.000000	65.583372 
5014.000000	65.547251 
5013.000000	65.498375 
5012.000000	65.445303 
5011.000000	65.397334 
5010.000000	65.362453 
5009.000000	65.345644 
5008.000000	65.347981 
5007.000000	65.367126 
5006.000000	65.398120 
5005.000000	65.434288 
5004.000000	65.468978 
5003.000000	65.496897 
5002.000000	65.515208 
5001.000000	65.523433 
5000.000000	65.523767 
4999.000000	65.519618 
4998.000000	65.514993 
4997.000000	65.513467 
4996.000000	65.517163 
4995.000000	65.526819 
4994.000000	65.541172 
4993.000000	65.557956 
4992.000000	65.573668 
4991.000000	65.585041 
4990.000000	65.589070 
4989.000000	65.584015 
4988.000000	65.569114 
4987.000000	65.544891 
4986.000000	65.512204 
4985.000000	65.472316 
4984.000000	65.426301 
4983.000000	65.375375 
4982.000000	65.320277 
4981.000000	65.261626 
4980.000000	65.200138 
4979.000000	65.137147 
4978.000000	65.074992 
4977.000000	65.017414 
4976.000000	64.969205 
4975.000000	64.935612 
4974.000000	64.921092 
4973.000000	64.928245 
4972.000000	64.956450 
4971.000000	65.001893 
4970.000000	65.057063 
4969.000000	65.113282 
4968.000000	65.161943 
4967.000000	65.197229 
4966.000000	65.216779 
4965.000000	65.222525 
4964.000000	65.220069 
4963.000000	65.216064 
4962.000000	65.216422 
4961.000000	65.223431 
4960.000000	65.235018 
4959.000000	65.244770 
4958.000000	65.244078 
4957.000000	65.224742 
4956.000000	65.181851 
4955.000000	65.116310 
4954.000000	65.035271 
4953.000000	64.950227 
4952.000000	64.874649 
4951.000000	64.820790 
4950.000000	64.797019 
4949.000000	64.805698 
4948.000000	64.842915 
4947.000000	64.900302 
4946.000000	64.966678 
4945.000000	65.030932 
4944.000000	65.083694 
4943.000000	65.118765 
4942.000000	65.133380 
4941.000000	65.127778 
4940.000000	65.104484 
4939.000000	65.066719 
4938.000000	65.018224 
4937.000000	64.963245 
4936.000000	64.905738 
4935.000000	64.849972 
4934.000000	64.799809 
4933.000000	64.759039 
4932.000000	64.730715 
4931.000000	64.716815 
4930.000000	64.718675 
4929.000000	64.736676 
4928.000000	64.770770 
4927.000000	64.820361 
4926.000000	64.884114 
4925.000000	64.959526 
4924.000000	65.042710 
4923.000000	65.127992 
4922.000000	65.207910 
4921.000000	65.273737 
4920.000000	65.317511 
4919.000000	65.332603 
4918.000000	65.315604 
4917.000000	65.266776 
4916.000000	65.191125 
4915.000000	65.096998 
4914.000000	64.995646 
4913.000000	64.898371 
4912.000000	64.814710 
4911.000000	64.750885 
4910.000000	64.709472 
4909.000000	64.689350 
4908.000000	64.686608 
4907.000000	64.695715 
4906.000000	64.710927 
4905.000000	64.727807 
4904.000000	64.743924 
4903.000000	64.758777 
4902.000000	64.773154 
4901.000000	64.788794 
4900.000000	64.807081 
4899.000000	64.828634 
4898.000000	64.852881 
4897.000000	64.878273 
4896.000000	64.902520 
4895.000000	64.924073 
4894.000000	64.941906 
4893.000000	64.956140 
4892.000000	64.966678 
4891.000000	64.973664 
4890.000000	64.975619 
4889.000000	64.970111 
4888.000000	64.953446 
4887.000000	64.921450 
4886.000000	64.871358 
4885.000000	64.802932 
4884.000000	64.720058 
4883.000000	64.630150 
4882.000000	64.544391 
4881.000000	64.475464 
4880.000000	64.435625 
4879.000000	64.433574 
4878.000000	64.473032 
4877.000000	64.551329 
4876.000000	64.659333 
4875.000000	64.782881 
4874.000000	64.905095 
4873.000000	65.009450 
4872.000000	65.082383 
4871.000000	65.116000 
4870.000000	65.108251 
4869.000000	65.063428 
4868.000000	64.990806 
4867.000000	64.902973 
4866.000000	64.813375 
4865.000000	64.734530 
4864.000000	64.676690 
4863.000000	64.646244 
4862.000000	64.646172 
4861.000000	64.675140 
4860.000000	64.728617 
4859.000000	64.799308 
4858.000000	64.877986 
4857.000000	64.955496 
4856.000000	65.022921 
4855.000000	65.074348 
4854.000000	65.106630 
4853.000000	65.121006 
4852.000000	65.121960 
4851.000000	65.116500 
4850.000000	65.112543 
4849.000000	65.115976 
4848.000000	65.129327 
4847.000000	65.150642 
4846.000000	65.174031 
4845.000000	65.191507 
4844.000000	65.195298 
4843.000000	65.179991 
4842.000000	65.144443 
4841.000000	65.092539 
4840.000000	65.032339 
4839.000000	64.973688 
4838.000000	64.926147 
4837.000000	64.896464 
4836.000000	64.887595 
4835.000000	64.898133 
4834.000000	64.923381 
4833.000000	64.956784 
4832.000000	64.991974 
4831.000000	65.024495 
4830.000000	65.052580 
4829.000000	65.076994 
4828.000000	65.099930 
4827.000000	65.123367 
4826.000000	65.148019 
4825.000000	65.172624 
4824.000000	65.193867 
4823.000000	65.207219 
4822.000000	65.208220 
4821.000000	65.193796 
4820.000000	65.163445 
4819.000000	65.119528 
4818.000000	65.066814 
4817.000000	65.011405 
4816.000000	64.959454 
4815.000000	64.915823 
4814.000000	64.883136 
4813.000000	64.861726 
4812.000000	64.849805 
4811.000000	64.844727 
4810.000000	64.843606 
4809.000000	64.844608 
4808.000000	64.846897 
4807.000000	64.850831 
4806.000000	64.856672 
4805.000000	64.864730 
4804.000000	64.874172 
4803.000000	64.883923 
4802.000000	64.892673 
4801.000000	64.899802 
4800.000000	64.905428 
4799.000000	64.911293 
4798.000000	64.920425 
4797.000000	64.936089 
4796.000000	64.960789 
4795.000000	64.995360 
4794.000000	65.038299 
4793.000000	65.085744 
4792.000000	65.131974 
4791.000000	65.170764 
4790.000000	65.196919 
4789.000000	65.207362 
4788.000000	65.202283 
4787.000000	65.185070 
4786.000000	65.161705 
4785.000000	65.139675 
4784.000000	65.126061 
4783.000000	65.125918 
4782.000000	65.141010 
4781.000000	65.169954 
4780.000000	65.207743 
4779.000000	65.247726 
4778.000000	65.281915 
4777.000000	65.303468 
4776.000000	65.307450 
4775.000000	65.292167 
4774.000000	65.259170 
4773.000000	65.212440 
4772.000000	65.157651 
4771.000000	65.101075 
4770.000000	65.048050 
4769.000000	65.002107 
4768.000000	64.964723 
4767.000000	64.935636 
4766.000000	64.912796 
4765.000000	64.893674 
4764.000000	64.875721 
4763.000000	64.857697 
4762.000000	64.839172 
4761.000000	64.821267 
4760.000000	64.806127 
4759.000000	64.796686 
4758.000000	64.795327 
4757.000000	64.803481 
4756.000000	64.821147 
4755.000000	64.846467 
4754.000000	64.876317 
4753.000000	64.906477 
4752.000000	64.932036 
4751.000000	64.948630 
4750.000000	64.953470 
4749.000000	64.945554 
4748.000000	64.925861 
4747.000000	64.896821 
4746.000000	64.862012 
4745.000000	64.824938 
4744.000000	64.788484 
4743.000000	64.754390 
4742.000000	64.723253 
4741.000000	64.694452 
4740.000000	64.666748 
4739.000000	64.639210 
4738.000000	64.611911 
4737.000000	64.585638 
4736.000000	64.562058 
4735.000000	64.542961 
4734.000000	64.530110 
4733.000000	64.524316 
4732.000000	64.525818 
4731.000000	64.533662 
4730.000000	64.547133 
4729.000000	64.565610 
4728.000000	64.589571 
4727.000000	64.620232 
4726.000000	64.659118 
4725.000000	64.707326 
4724.000000	64.764547 
4723.000000	64.828252 
4722.000000	64.893794 
4721.000000	64.954686 
4720.000000	65.004181 
4719.000000	65.036678 
4718.000000	65.049552 
4717.000000	65.044093 
4716.000000	65.025424 
4715.000000	65.001606 
4714.000000	64.981102 
4713.000000	64.970374 
4712.000000	64.972710 
4711.000000	64.987134 
4710.000000	65.009069 
4709.000000	65.031528 
4708.000000	65.047550 
4707.000000	65.051817 
4706.000000	65.041637 
4705.000000	65.017580 
4704.000000	64.982771 
4703.000000	64.942145 
4702.000000	64.900994 
4701.000000	64.864110 
4700.000000	64.835119 
4699.000000	64.815878 
4698.000000	64.806652 
4697.000000	64.806175 
4696.000000	64.812564 
4695.000000	64.823436 
4694.000000	64.836120 
4693.000000	64.848637 
4692.000000	64.859199 
4691.000000	64.867663 
4690.000000	64.875268 
4689.000000	64.884519 
4688.000000	64.898180 
4687.000000	64.918613 
4686.000000	64.946913 
4685.000000	64.981865 
4684.000000	65.020108 
4683.000000	65.057134 
4682.000000	65.088534 
4681.000000	65.110969 
4680.000000	65.123128 
4679.000000	65.125751 
4678.000000	65.121841 
4677.000000	65.115308 
4676.000000	65.110969 
4675.000000	65.113329 
4674.000000	65.126562 
4673.000000	65.153551 
4672.000000	65.195703 
4671.000000	65.253043 
4670.000000	65.323567 
4669.000000	65.403747 
4668.000000	65.488028 
4667.000000	65.569567 
4666.000000	65.640759 
4665.000000	65.694689 
4664.000000	65.726041 
4663.000000	65.732455 
4662.000000	65.714454 
4661.000000	65.675663 
4660.000000	65.620827 
4659.000000	65.555167 
4658.000000	65.482807 
4657.000000	65.406727 
4656.000000	65.329098 
4655.000000	65.251827 
4654.000000	65.177726 
4653.000000	65.110707 
4652.000000	65.055847 
4651.000000	65.018153 
4650.000000	65.001010 
4649.000000	65.005111 
4648.000000	65.027356 
4647.000000	65.061569 
4646.000000	65.099000 
4645.000000	65.130662 
4644.000000	65.149092 
4643.000000	65.150141 
4642.000000	65.133619 
4641.000000	65.103173 
4640.000000	65.064859 
4639.000000	65.025448 
4638.000000	64.990282 
4637.000000	64.962983 
4636.000000	64.945054 
4635.000000	64.936137 
4634.000000	64.935040 
4633.000000	64.940309 
4632.000000	64.950942 
4631.000000	64.966225 
4630.000000	64.985561 
4629.000000	65.007591 
4628.000000	65.030074 
4627.000000	65.050339 
4626.000000	65.065670 
4625.000000	65.073633 
4624.000000	65.073227 
4623.000000	65.066099 
4622.000000	65.055894 
4621.000000	65.047645 
4620.000000	65.046453 
4619.000000	65.056562 
4618.000000	65.079498 
4617.000000	65.113687 
4616.000000	65.154099 
4615.000000	65.193939 
4614.000000	65.225458 
4613.000000	65.242052 
4612.000000	65.239667 
4611.000000	65.217733 
4610.000000	65.179228 
4609.000000	65.130043 
4608.000000	65.077853 
4607.000000	65.030241 
4606.000000	64.993619 
4605.000000	64.972019 
4604.000000	64.966988 
4603.000000	64.977812 
4602.000000	65.002393 
4601.000000	65.037965 
4600.000000	65.081715 
4599.000000	65.131425 
4598.000000	65.185141 
4597.000000	65.241408 
4596.000000	65.298128 
4595.000000	65.352964 
4594.000000	65.403008 
4593.000000	65.445566 
4592.000000	65.478396 
4591.000000	65.500354 
4590.000000	65.512204 
4589.000000	65.516185 
4588.000000	65.516185 
4587.000000	65.516304 
4586.000000	65.520405 
4585.000000	65.530204 
4584.000000	65.545654 
4583.000000	65.563869 
4582.000000	65.580272 
4581.000000	65.589356 
4580.000000	65.586185 
4579.000000	65.567708 
4578.000000	65.533804 
4577.000000	65.487432 
4576.000000	65.434074 
4575.000000	65.380215 
4574.000000	65.331888 
4573.000000	65.293526 
4572.000000	65.267300 
4571.000000	65.252685 
4570.000000	65.247201 
4569.000000	65.247297 
4568.000000	65.249538 
4567.000000	65.251278 
4566.000000	65.251469 
4565.000000	65.249776 
4564.000000	65.246963 
4563.000000	65.244174 
4562.000000	65.242695 
4561.000000	65.242958 
4560.000000	65.244841 
4559.000000	65.247583 
4558.000000	65.249800 
4557.000000	65.250062 
4556.000000	65.247011 
4555.000000	65.239810 
4554.000000	65.228080 
4553.000000	65.212059 
4552.000000	65.192651 
4551.000000	65.171480 
4550.000000	65.151000 
4549.000000	65.134286 
4548.000000	65.124893 
4547.000000	65.126299 
4546.000000	65.141558 
4545.000000	65.172338 
4544.000000	65.218067 
4543.000000	65.275859 
4542.000000	65.340447 
4541.000000	65.405344 
4540.000000	65.463352 
4539.000000	65.508508 
4538.000000	65.537118 
4537.000000	65.548896 
4536.000000	65.547084 
4535.000000	65.537142 
4534.000000	65.526151 
4533.000000	65.519595 
4532.000000	65.521073 
4531.000000	65.530109 
4530.000000	65.543031 
4529.000000	65.553593 
4528.000000	65.555167 
4527.000000	65.542697 
4526.000000	65.514540 
4525.000000	65.473246 
4524.000000	65.425395 
4523.000000	65.379953 
4522.000000	65.345954 
4521.000000	65.330624 
4520.000000	65.337300 
4519.000000	65.365052 
4518.000000	65.409064 
4517.000000	65.462255 
4516.000000	65.516877 
4515.000000	65.566658 
4514.000000	65.607285 
4513.000000	65.636706 
4512.000000	65.654683 
4511.000000	65.661621 
4510.000000	65.657901 
4509.000000	65.643763 
4508.000000	65.619134 
4507.000000	65.584278 
4506.000000	65.540242 
4505.000000	65.490055 
4504.000000	65.437769 
4503.000000	65.388441 
4502.000000	65.346837 
4501.000000	65.316653 
4500.000000	65.299391 
4499.000000	65.294146 
4498.000000	65.298151 
4497.000000	65.307688 
4496.000000	65.319132 
4495.000000	65.330028 
4494.000000	65.339040 
4493.000000	65.346193 
4492.000000	65.352535 
4491.000000	65.359854 
4490.000000	65.369629 
4489.000000	65.382981 
4488.000000	65.400528 
4487.000000	65.421986 
4486.000000	65.446686 
4485.000000	65.472817 
4484.000000	65.498113 
4483.000000	65.519785 
4482.000000	65.535545 
4481.000000	65.543246 
4480.000000	65.541744 
4479.000000	65.530395 
4478.000000	65.508961 
4477.000000	65.477776 
4476.000000	65.437674 
4475.000000	65.390324 
4474.000000	65.338325 
4473.000000	65.285491 
4472.000000	65.236568 
4471.000000	65.197610 
4470.000000	65.175294 
4469.000000	65.175938 
4468.000000	65.204024 
4467.000000	65.261960 
4466.000000	65.348863 
4465.000000	65.459966 
4464.000000	65.586495 
4463.000000	65.716600 
4462.000000	65.836930 
4461.000000	65.934538 
4460.000000	65.999150 
4459.000000	66.024684 
4458.000000	66.010904 
4457.000000	65.963554 
4456.000000	65.893387 
4455.000000	65.814208 
4454.000000	65.739750 
4453.000000	65.682506 
4452.000000	65.649414 
4451.000000	65.642142 
4450.000000	65.655279 
4449.000000	65.678763 
4448.000000	65.699720 
4447.000000	65.706300 
4446.000000	65.688896 
4445.000000	65.642380 
4444.000000	65.566277 
4443.000000	65.464496 
4442.000000	65.344405 
4441.000000	65.215516 
4440.000000	65.088009 
4439.000000	64.971828 
4438.000000	64.876198 
4437.000000	64.808893 
4436.000000	64.774203 
4435.000000	64.773845 
4434.000000	64.804887 
4433.000000	64.862704 
4432.000000	64.941263 
4431.000000	65.035247 
4430.000000	65.138363 
4429.000000	65.245366 
4428.000000	65.353417 
4427.000000	65.458393 
4426.000000	65.554070 
4425.000000	65.630865 
4424.000000	65.678644 
4423.000000	65.685772 
4422.000000	65.642189 
4421.000000	65.542840 
4420.000000	65.390825 
4419.000000	65.197730 
4418.000000	64.983057 
4417.000000	64.772558 
4416.000000	64.594292 
4415.000000	64.474701 
4414.000000	64.433884 
4413.000000	64.479398 
4412.000000	64.605307 
4411.000000	64.794492 
4410.000000	65.021681 
4409.000000	65.259408 
4408.000000	65.479755 
4407.000000	65.661716 
4406.000000	65.787100 
4405.000000	65.838718 
4404.000000	65.800833 
4403.000000	65.661406 
4402.000000	65.414333 
4401.000000	65.065646 
4400.000000	64.631462 
4399.000000	64.146137 
4398.000000	63.645339 
4397.000000	63.163161 
4396.000000	62.721371 
4395.000000	62.325572 
4394.000000	61.971592 
4393.000000	61.649966 
4392.000000	61.358380 
4391.000000	61.105847 
4390.000000	60.916805 
4389.000000	60.825538 
4388.000000	60.866379 
4387.000000	61.061954 
4386.000000	61.413693 
4385.000000	61.897611 
4384.000000	62.464547 
4383.000000	63.050532 
4382.000000	63.586378 
4381.000000	64.016675 
4380.000000	64.307832 
4379.000000	64.459919 
4378.000000	64.505267 
4377.000000	64.499664 
4376.000000	64.509487 
4375.000000	64.590096 
4374.000000	64.773559 
4373.000000	65.057349 
4372.000000	65.410161 
4371.000000	65.777039 
4370.000000	66.099715 
4369.000000	66.328334 
4368.000000	66.440057 
4367.000000	66.435050 
4366.000000	66.334247 
4365.000000	66.171884 
4364.000000	65.984559 
4363.000000	65.805196 
4362.000000	65.655922 
4361.000000	65.550065 
4360.000000	65.491676 
4359.000000	65.476083 
4358.000000	65.492749 
4357.000000	65.525865 
4356.000000	65.559911 
4355.000000	65.582895 
4354.000000	65.590095 
4353.000000	65.581917 
4352.000000	65.565466 
4351.000000	65.551829 
4350.000000	65.553116 
4349.000000	65.575551 
4348.000000	65.620541 
4347.000000	65.685510 
4346.000000	65.763664 
4345.000000	65.846395 
4344.000000	65.924620 
4343.000000	65.991353 
4342.000000	66.041827 
4341.000000	66.074109 
4340.000000	66.088247 
4339.000000	66.085982 
4338.000000	66.068720 
4337.000000	66.036915 
4336.000000	65.991497 
4335.000000	65.934467 
4334.000000	65.869331 
4333.000000	65.801143 
4332.000000	65.734434 
4331.000000	65.672707 
4330.000000	65.617704 
4329.000000	65.569567 
4328.000000	65.527343 
4327.000000	65.490126 
4326.000000	65.457725 
4325.000000	65.431070 
4324.000000	65.411996 
4323.000000	65.403008 
4322.000000	65.404438 
4321.000000	65.416002 
4320.000000	65.436005 
4319.000000	65.462422 
4318.000000	65.492773 
4317.000000	65.524983 
4316.000000	65.557527 
4315.000000	65.589261 
4314.000000	65.618944 
4313.000000	65.645480 
4312.000000	65.667629 
4311.000000	65.684127 
4310.000000	65.693926 
4309.000000	65.696859 
4308.000000	65.693926 
4307.000000	65.687298 
4306.000000	65.679597 
4305.000000	65.672636 
4304.000000	65.666460 
4303.000000	65.659403 
4302.000000	65.648102 
4301.000000	65.627884 
4300.000000	65.594124 
4299.000000	65.544509 
4298.000000	65.479230 
4297.000000	65.401053 
4296.000000	65.315079 
4295.000000	65.227842 
4294.000000	65.146040 
4293.000000	65.075063 
4292.000000	65.018630 
4291.000000	64.978456 
4290.000000	64.954566 
4289.000000	64.945507 
4288.000000	64.948892 
4287.000000	64.961528 
4286.000000	64.979720 
4285.000000	64.999365 
4284.000000	65.016150 
4283.000000	65.025615 
4282.000000	65.025234 
4281.000000	65.014886 
4280.000000	64.997363 
4279.000000	64.977931 
4278.000000	64.963507 
4277.000000	64.961004 
4276.000000	64.975261 
4275.000000	65.008091 
4274.000000	65.057849 
4273.000000	65.120053 
4272.000000	65.188217 
4271.000000	65.255999 
4270.000000	65.318393 
4269.000000	65.373134 
4268.000000	65.420699 
4267.000000	65.463876 
4266.000000	65.506052 
4265.000000	65.549898 
4264.000000	65.597176 
4263.000000	65.646362 
4262.000000	65.693473 
4261.000000	65.732073 
4260.000000	65.756368 
4259.000000	65.760731 
4258.000000	65.741944 
4257.000000	65.699315 
4256.000000	65.635442 
4255.000000	65.555620 
4254.000000	65.467214 
4253.000000	65.378093 
4252.000000	65.295267 
4251.000000	65.223789 
4250.000000	65.165710 
4249.000000	65.120100 
4248.000000	65.083765 
4247.000000	65.052008 
4246.000000	65.020585 
4245.000000	64.986181 
4244.000000	64.948320 
4243.000000	64.908361 
4242.000000	64.870738 
4241.000000	64.840340 
4240.000000	64.823436 
4239.000000	64.825677 
4238.000000	64.851522 
4237.000000	64.902377 
4236.000000	64.976358 
4235.000000	65.068435 
4234.000000	65.170049 
4233.000000	65.270328 
4232.000000	65.357422 
4231.000000	65.420746 
4230.000000	65.452504 
4229.000000	65.449237 
4228.000000	65.412688 
4227.000000	65.349650 
4226.000000	65.270924 
4225.000000	65.189337 
4224.000000	65.117049 
4223.000000	65.063595 
4222.000000	65.034985 
4221.000000	65.033173 
4220.000000	65.056347 
4219.000000	65.100121 
4218.000000	65.159273 
4217.000000	65.228533 
4216.000000	65.302920 
4215.000000	65.377807 
4214.000000	65.448451 
4213.000000	65.509891 
4212.000000	65.556859 
4211.000000	65.584087 
4210.000000	65.587639 
4209.000000	65.565061 
4208.000000	65.516781 
4207.000000	65.445804 
4206.000000	65.358257 
4205.000000	65.261793 
4204.000000	65.164828 
4203.000000	65.075135 
4202.000000	64.998817 
4201.000000	64.940261 
4200.000000	64.902186 
4199.000000	64.885449 
4198.000000	64.889574 
4197.000000	64.913034 
4196.000000	64.953470 
4195.000000	65.007233 
4194.000000	65.069770 
4193.000000	65.135240 
4192.000000	65.197420 
4191.000000	65.250229 
4190.000000	65.288734 
4189.000000	65.309524 
4188.000000	65.311527 
4187.000000	65.296006 
4186.000000	65.266370 
4185.000000	65.227580 
4184.000000	65.185332 
4183.000000	65.145087 
4182.000000	65.111470 
4181.000000	65.088152 
4180.000000	65.077400 
4179.000000	65.080070 
4178.000000	65.095686 
4177.000000	65.122628 
4176.000000	65.157890 
4175.000000	65.197658 
4174.000000	65.237236 
4173.000000	65.271663 
4172.000000	65.296506 
4171.000000	65.308547 
4170.000000	65.306282 
4169.000000	65.290284 
4168.000000	65.263438 
4167.000000	65.230107 
4166.000000	65.195679 
4165.000000	65.165448 
4164.000000	65.143823 
4163.000000	65.133428 
4162.000000	65.135097 
4161.000000	65.147566 
4160.000000	65.168404 
4159.000000	65.194344 
4158.000000	65.222072 
4157.000000	65.248799 
4156.000000	65.272235 
4155.000000	65.290713 
4154.000000	65.303063 
4153.000000	65.308475 
4152.000000	65.306472 
4151.000000	65.296745 
4150.000000	65.279173 
4149.000000	65.254068 
4148.000000	65.222406 
4147.000000	65.185284 
4146.000000	65.144276 
4145.000000	65.100693 
4144.000000	65.055727 
4143.000000	65.010619 
4142.000000	64.966988 
4141.000000	64.926624 
4140.000000	64.892148 
4139.000000	64.866328 
4138.000000	64.852333 
4137.000000	64.852857 
4136.000000	64.869666 
4135.000000	64.902710 
4134.000000	64.949965 
4133.000000	65.007281 
4132.000000	65.068984 
4131.000000	65.128278 
4130.000000	65.178894 
4129.000000	65.215659 
4128.000000	65.236163 
4127.000000	65.241122 
4126.000000	65.233969 
4125.000000	65.220308 
4124.000000	65.205955 
4123.000000	65.195631 
4122.000000	65.191507 
4121.000000	65.192866 
4120.000000	65.196728 
4119.000000	65.198945 
4118.000000	65.195727 
4117.000000	65.185213 
4116.000000	65.167927 
4115.000000	65.147066 
4114.000000	65.127468 
4113.000000	65.114760 
4112.000000	65.113806 
4111.000000	65.127539 
4110.000000	65.156340 
4109.000000	65.197730 
4108.000000	65.246725 
4107.000000	65.296959 
4106.000000	65.341973 
4105.000000	65.376567 
4104.000000	65.397763 
4103.000000	65.405297 
4102.000000	65.401387 
4101.000000	65.389752 
4100.000000	65.374946 
4099.000000	65.360498 
4098.000000	65.348529 
4097.000000	65.338873 
4096.000000	65.329742 
4095.000000	65.318155 
4094.000000	65.301132 
4093.000000	65.276455 
4092.000000	65.243458 
4091.000000	65.203261 
4090.000000	65.158724 
4089.000000	65.113258 
4088.000000	65.070319 
4087.000000	65.032577 
4086.000000	65.001606 
4085.000000	64.977765 
4084.000000	64.960718 
4083.000000	64.949607 
4082.000000	64.944291 
4081.000000	64.945054 
4080.000000	64.952850 
4079.000000	64.968729 
4078.000000	64.993286 
4077.000000	65.025758 
4076.000000	65.064144 
4075.000000	65.104675 
4074.000000	65.143108 
4073.000000	65.175414 
4072.000000	65.198802 
4071.000000	65.212178 
4070.000000	65.216517 
4069.000000	65.214419 
4068.000000	65.209412 
4067.000000	65.205001 
4066.000000	65.203881 
4065.000000	65.207505 
4064.000000	65.216159 
4063.000000	65.229177 
4062.000000	65.245413 
4061.000000	65.263652 
4060.000000	65.282917 
4059.000000	65.302658 
4058.000000	65.322256 
4057.000000	65.341114 
4056.000000	65.358233 
4055.000000	65.372586 
4054.000000	65.383362 
4053.000000	65.390372 
4052.000000	65.394163 
4051.000000	65.396022 
4050.000000	65.397858 
4049.000000	65.401291 
4048.000000	65.407323 
4047.000000	65.415596 
4046.000000	65.424585 
4045.000000	65.431523 
4044.000000	65.433120 
4043.000000	65.426516 
4042.000000	65.409970 
4041.000000	65.383553 
4040.000000	65.349006 
4039.000000	65.310120 
4038.000000	65.271759 
4037.000000	65.238976 
4036.000000	65.215969 
4035.000000	65.205240 
4034.000000	65.206813 
4033.000000	65.218782 
4032.000000	65.237140 
4031.000000	65.256881 
4030.000000	65.272617 
4029.000000	65.279674 
4028.000000	65.274882 
4027.000000	65.256881 
4026.000000	65.226531 
4025.000000	65.186214 
4024.000000	65.139818 
4023.000000	65.091800 
4022.000000	65.046858 
4021.000000	65.009069 
4020.000000	64.981436 
4019.000000	64.965581 
4018.000000	64.961481 
4017.000000	64.967656 
4016.000000	64.981293 
4015.000000	64.998722 
4014.000000	65.015935 
4013.000000	65.029239 
4012.000000	65.036439 
4011.000000	65.037083 
4010.000000	65.032649 
4009.000000	65.026140 
4008.000000	65.021610 
4007.000000	65.023112 
4006.000000	65.033626 
4005.000000	65.054488 
4004.000000	65.084934 
4003.000000	65.122151 
4002.000000	65.162086 
4001.000000	65.200519 
4000.000000	65.233421 
3999.000000	65.258502 
3998.000000	65.275144 
3997.000000	65.284752 
3996.000000	65.289855 
3995.000000	65.293836 
3994.000000	65.300107 
3993.000000	65.310931 
3992.000000	65.327119 
3991.000000	65.347433 
3990.000000	65.369749 
3989.000000	65.390467 
3988.000000	65.405535 
3987.000000	65.410900 
3986.000000	65.403556 
3985.000000	65.381932 
3984.000000	65.346336 
3983.000000	65.298676 
3982.000000	65.242242 
3981.000000	65.181374 
3980.000000	65.120983 
3979.000000	65.065717 
3978.000000	65.019607 
3977.000000	64.985918 
3976.000000	64.967083 
3975.000000	64.964318 
3974.000000	64.978122 
3973.000000	65.007615 
3972.000000	65.051174 
3971.000000	65.105724 
3970.000000	65.167927 
3969.000000	65.233778 
3968.000000	65.299797 
3967.000000	65.362668 
3966.000000	65.419816 
3965.000000	65.469789 
3964.000000	65.511679 
3963.000000	65.545392 
3962.000000	65.570569 
3961.000000	65.586686 
3960.000000	65.592551 
3959.000000	65.587162 
3958.000000	65.569305 
3957.000000	65.538597 
3956.000000	65.495848 
3955.000000	65.443587 
3954.000000	65.385842 
3953.000000	65.328049 
3952.000000	65.275931 
3951.000000	65.234851 
3950.000000	65.208697 
3949.000000	65.199470 
3948.000000	65.206813 
3947.000000	65.228486 
3946.000000	65.260505 
3945.000000	65.298485 
3944.000000	65.337634 
3943.000000	65.374207 
3942.000000	65.405368 
3941.000000	65.429902 
3940.000000	65.447235 
3939.000000	65.457892 
3938.000000	65.463352 
3937.000000	65.465474 
3936.000000	65.465998 
3935.000000	65.466618 
3934.000000	65.468764 
3933.000000	65.473151 
3932.000000	65.479731 
3931.000000	65.487432 
3930.000000	65.494370 
3929.000000	65.498185 
3928.000000	65.496587 
3927.000000	65.487718 
3926.000000	65.470671 
3925.000000	65.446162 
3924.000000	65.416359 
3923.000000	65.384006 
3922.000000	65.351843 
3921.000000	65.322542 
3920.000000	65.297913 
3919.000000	65.278601 
3918.000000	65.264177 
3917.000000	65.253400 
3916.000000	65.244483 
3915.000000	65.235757 
3914.000000	65.225863 
3913.000000	65.213608 
3912.000000	65.198779 
3911.000000	65.181970 
3910.000000	65.164494 
3909.000000	65.147781 
3908.000000	65.133357 
3907.000000	65.122246 
3906.000000	65.115070 
3905.000000	65.111708 
3904.000000	65.111827 
3903.000000	65.115165 
3902.000000	65.122079 
3901.000000	65.133690 
3900.000000	65.152192 
3899.000000	65.180397 
3898.000000	65.220999 
3897.000000	65.275263 
3896.000000	65.342211 
3895.000000	65.417790 
3894.000000	65.495514 
3893.000000	65.566873 
3892.000000	65.623235 
3891.000000	65.657305 
3890.000000	65.665316 
3889.000000	65.647459 
3888.000000	65.607857 
3887.000000	65.553712 
3886.000000	65.493941 
3885.000000	65.437197 
3884.000000	65.390300 
3883.000000	65.357160 
3882.000000	65.338730 
3881.000000	65.332984 
3880.000000	65.336322 
3879.000000	65.344238 
3878.000000	65.352678 
3877.000000	65.358495 
3876.000000	65.359973 
3875.000000	65.356421 
3874.000000	65.348172 
3873.000000	65.336465 
3872.000000	65.323114 
3871.000000	65.310215 
3870.000000	65.299797 
3869.000000	65.293622 
3868.000000	65.292811 
3867.000000	65.297365 
3866.000000	65.306305 
3865.000000	65.318012 
3864.000000	65.330338 
3863.000000	65.340876 
3862.000000	65.347695 
3861.000000	65.349721 
3860.000000	65.347075 
3859.000000	65.340733 
3858.000000	65.332460 
3857.000000	65.324211 
3856.000000	65.317416 
3855.000000	65.313076 
3854.000000	65.310668 
3853.000000	65.308523 
3852.000000	65.304160 
3851.000000	65.294981 
3850.000000	65.279006 
3849.000000	65.255570 
3848.000000	65.225577 
3847.000000	65.191674 
3846.000000	65.157985 
3845.000000	65.129137 
3844.000000	65.109157 
3843.000000	65.100431 
3842.000000	65.103149 
3841.000000	65.115261 
3840.000000	65.132474 
3839.000000	65.149950 
3838.000000	65.163159 
3837.000000	65.169620 
3836.000000	65.169072 
3835.000000	65.164136 
3834.000000	65.159392 
3833.000000	65.160155 
3832.000000	65.171027 
3831.000000	65.194368 
3830.000000	65.229749 
3829.000000	65.273475 
3828.000000	65.319776 
3827.000000	65.361785 
3826.000000	65.393185 
3825.000000	65.409564 
3824.000000	65.409636 
3823.000000	65.394902 
3822.000000	65.369081 
3821.000000	65.337204 
3820.000000	65.304303 
3819.000000	65.273904 
3818.000000	65.247654 
3817.000000	65.225362 
3816.000000	65.205454 
3815.000000	65.185570 
3814.000000	65.163588 
3813.000000	65.138649 
3812.000000	65.111255 
3811.000000	65.082883 
3810.000000	65.055775 
3809.000000	65.031886 
3808.000000	65.012907 
3807.000000	64.999437 
3806.000000	64.991450 
3805.000000	64.987993 
3804.000000	64.988136 
3803.000000	64.991140 
3802.000000	64.996790 
3801.000000	65.005278 
3800.000000	65.017414 
3799.000000	65.034127 
3798.000000	65.055823 
3797.000000	65.082144 
3796.000000	65.111637 
3795.000000	65.142273 
3794.000000	65.171360 
3793.000000	65.196251 
3792.000000	65.214943 
3791.000000	65.226602 
3790.000000	65.231966 
3789.000000	65.233230 
3788.000000	65.233325 
3787.000000	65.235257 
3786.000000	65.241599 
3785.000000	65.253543 
3784.000000	65.270352 
3783.000000	65.289568 
3782.000000	65.307784 
3781.000000	65.321493 
3780.000000	65.328025 
3779.000000	65.326166 
3778.000000	65.317034 
3777.000000	65.303277 
3776.000000	65.288209 
3775.000000	65.274953 
3774.000000	65.265417 
3773.000000	65.259718 
3772.000000	65.256404 
3771.000000	65.252900 
3770.000000	65.246224 
3769.000000	65.234470 
3768.000000	65.217447 
3767.000000	65.196943 
3766.000000	65.176343 
3765.000000	65.159869 
3764.000000	65.151429 
3763.000000	65.153622 
3762.000000	65.166974 
3761.000000	65.190172 
3760.000000	65.220189 
3759.000000	65.253162 
3758.000000	65.285348 
3757.000000	65.313792 
3756.000000	65.337133 
3755.000000	65.355181 
3754.000000	65.368771 
3753.000000	65.379595 
3752.000000	65.388822 
3751.000000	65.397357 
3750.000000	65.404582 
3749.000000	65.409183 
3748.000000	65.408658 
3747.000000	65.400624 
3746.000000	65.382885 
3745.000000	65.354800 
3744.000000	65.317463 
3743.000000	65.274024 
3742.000000	65.229439 
3741.000000	65.189766 
3740.000000	65.161180 
3739.000000	65.148520 
3738.000000	65.154385 
3737.000000	65.178251 
3736.000000	65.216493 
3735.000000	65.262913 
3734.000000	65.309906 
3733.000000	65.350222 
3732.000000	65.378212 
3731.000000	65.390825 
3730.000000	65.388083 
3729.000000	65.372943 
3728.000000	65.349936 
3727.000000	65.324330 
3726.000000	65.301060 
3725.000000	65.283608 
3724.000000	65.273666 
3723.000000	65.270900 
3722.000000	65.273904 
3721.000000	65.280246 
3720.000000	65.287733 
3719.000000	65.294551 
3718.000000	65.299749 
3717.000000	65.303277 
3716.000000	65.305447 
3715.000000	65.306949 
3714.000000	65.308403 
3713.000000	65.310144 
3712.000000	65.312123 
3711.000000	65.314102 
3710.000000	65.315604 
3709.000000	65.316200 
3708.000000	65.315604 
3707.000000	65.313982 
3706.000000	65.311598 
3705.000000	65.309166 
3704.000000	65.307450 
3703.000000	65.307164 
3702.000000	65.308785 
3701.000000	65.312314 
3700.000000	65.317320 
3699.000000	65.322995 
3698.000000	65.328288 
3697.000000	65.332031 
3696.000000	65.333080 
3695.000000	65.330457 
3694.000000	65.323591 
3693.000000	65.312719 
3692.000000	65.298652 
3691.000000	65.282726 
3690.000000	65.266633 
3689.000000	65.252184 
3688.000000	65.240693 
3687.000000	65.232872 
3686.000000	65.228343 
3685.000000	65.225911 
3684.000000	65.223813 
3683.000000	65.220355 
3682.000000	65.214395 
3681.000000	65.205717 
3680.000000	65.195584 
3679.000000	65.186524 
3678.000000	65.181469 
3677.000000	65.183162 
3676.000000	65.193271 
3675.000000	65.211892 
3674.000000	65.236926 
3673.000000	65.265250 
3672.000000	65.292906 
3671.000000	65.316772 
3670.000000	65.334987 
3669.000000	65.347862 
3668.000000	65.357685 
3667.000000	65.367913 
3666.000000	65.382266 
3665.000000	65.403413 
3664.000000	65.432047 
3663.000000	65.466427 
3662.000000	65.502476 
3661.000000	65.534567 
3660.000000	65.556669 
3659.000000	65.563797 
3658.000000	65.553188 
3657.000000	65.524721 
3656.000000	65.480971 
3655.000000	65.426826 
3654.000000	65.368366 
3653.000000	65.311455 
3652.000000	65.260577 
3651.000000	65.218615 
3650.000000	65.186262 
3649.000000	65.162324 
3648.000000	65.144491 
3647.000000	65.130186 
3646.000000	65.117645 
3645.000000	65.106225 
3644.000000	65.096712 
3643.000000	65.090465 
3642.000000	65.089035 
3641.000000	65.093040 
3640.000000	65.101909 
3639.000000	65.113115 
3638.000000	65.123248 
3637.000000	65.128707 
3636.000000	65.126729 
3635.000000	65.116095 
3634.000000	65.097761 
3633.000000	65.074634 
3632.000000	65.050959 
3631.000000	65.031480 
3630.000000	65.020179 
3629.000000	65.019798 
3628.000000	65.031147 
3627.000000	65.053319 
3626.000000	65.084266 
3625.000000	65.121126 
3624.000000	65.161228 
3623.000000	65.201997 
3622.000000	65.240955 
3621.000000	65.275645 
3620.000000	65.303969 
3619.000000	65.324020 
3618.000000	65.334558 
3617.000000	65.335059 
3616.000000	65.326452 
3615.000000	65.310382 
3614.000000	65.289402 
3613.000000	65.266013 
3612.000000	65.242862 
3611.000000	65.221929 
3610.000000	65.204429 
3609.000000	65.190958 
3608.000000	65.181660 
3607.000000	65.176463 
3606.000000	65.175294 
3605.000000	65.178012 
3604.000000	65.184211 
3603.000000	65.193104 
3602.000000	65.203642 
3601.000000	65.214443 
3600.000000	65.224099 
3599.000000	65.231537 
3598.000000	65.236401 
3597.000000	65.239000 
3596.000000	65.240073 
3595.000000	65.240478 
3594.000000	65.240526 
3593.000000	65.239620 
3592.000000	65.236878 
3591.000000	65.231132 
3590.000000	65.222120 
3589.000000	65.210652 
3588.000000	65.199041 
3587.000000	65.190911 
3586.000000	65.190124 
3585.000000	65.199971 
3584.000000	65.221834 
3583.000000	65.254426 
3582.000000	65.293836 
3581.000000	65.334320 
3580.000000	65.369486 
3579.000000	65.394043 
3578.000000	65.405035 
3577.000000	65.402603 
3576.000000	65.389609 
3575.000000	65.370559 
3574.000000	65.350461 
3573.000000	65.333175 
3572.000000	65.320420 
3571.000000	65.311551 
3570.000000	65.304231 
3569.000000	65.295362 
3568.000000	65.282344 
3567.000000	65.264129 
3566.000000	65.241622 
3565.000000	65.217757 
3564.000000	65.196394 
3563.000000	65.181612 
3562.000000	65.176248 
3561.000000	65.181493 
3560.000000	65.196442 
3559.000000	65.218544 
3558.000000	65.244174 
3557.000000	65.269374 
3556.000000	65.290784 
3555.000000	65.306210 
3554.000000	65.314698 
3553.000000	65.316605 
3552.000000	65.313410 
3551.000000	65.307188 
3550.000000	65.300178 
3549.000000	65.294337 
3548.000000	65.291213 
3547.000000	65.291976 
3546.000000	65.297055 
3545.000000	65.306472 
3544.000000	65.319776 
3543.000000	65.336203 
3542.000000	65.354895 
3541.000000	65.374779 
3540.000000	65.394783 
3539.000000	65.413951 
3538.000000	65.431046 
3537.000000	65.444755 
3536.000000	65.453553 
3535.000000	65.456199 
3534.000000	65.451693 
3533.000000	65.439939 
3532.000000	65.421557 
3531.000000	65.398073 
3530.000000	65.371417 
3529.000000	65.343713 
3528.000000	65.316653 
3527.000000	65.291500 
3526.000000	65.269351 
3525.000000	65.251398 
3524.000000	65.239071 
3523.000000	65.233826 
3522.000000	65.236926 
3521.000000	65.249061 
3520.000000	65.269756 
3519.000000	65.297031 
3518.000000	65.326976 
3517.000000	65.354347 
3516.000000	65.373706 
3515.000000	65.380692 
3514.000000	65.373182 
3513.000000	65.351843 
3512.000000	65.320205 
3511.000000	65.283513 
3510.000000	65.247964 
3509.000000	65.218687 
3508.000000	65.198540 
3507.000000	65.187430 
3506.000000	65.183019 
3505.000000	65.180921 
3504.000000	65.176677 
3503.000000	65.166258 
3502.000000	65.147304 
3501.000000	65.119504 
3500.000000	65.084433 
3499.000000	65.045404 
3498.000000	65.006709 
3497.000000	64.973282 
3496.000000	64.950108 
3495.000000	64.942288 
3494.000000	64.953994 
3493.000000	64.988470 
3492.000000	65.046501 
3491.000000	65.125703 
3490.000000	65.219712 
3489.000000	65.318751 
3488.000000	65.410470 
3487.000000	65.481996 
3486.000000	65.522217 
3485.000000	65.524578 
3484.000000	65.488076 
3483.000000	65.417981 
3482.000000	65.324759 
3481.000000	65.222501 
3480.000000	65.125727 
3479.000000	65.046834 
3478.000000	64.993882 
3477.000000	64.969968 
3476.000000	64.972543 
3475.000000	64.995288 
3474.000000	65.029525 
3473.000000	65.066552 
3472.000000	65.099310 
3471.000000	65.123558 
3470.000000	65.138030 
3469.000000	65.143871 
3468.000000	65.144157 
3467.000000	65.142726 
3466.000000	65.143179 
3465.000000	65.148091 
3464.000000	65.158700 
3463.000000	65.174794 
3462.000000	65.195155 
3461.000000	65.217971 
3460.000000	65.241479 
3459.000000	65.264320 
3458.000000	65.285587 
3457.000000	65.305137 
3456.000000	65.323424 
3455.000000	65.340971 
3454.000000	65.358114 
3453.000000	65.374588 
3452.000000	65.389871 
3451.000000	65.402865 
3450.000000	65.412640 
3449.000000	65.418314 
3448.000000	65.419363 
3447.000000	65.415811 
3446.000000	65.408492 
3445.000000	65.398049 
3444.000000	65.384912 
3443.000000	65.368866 
3442.000000	65.349245 
3441.000000	65.325522 
3440.000000	65.297579 
3439.000000	65.266275 
3438.000000	65.233683 
3437.000000	65.203309 
3436.000000	65.179586 
3435.000000	65.166854 
3434.000000	65.168356 
3433.000000	65.185499 
3432.000000	65.217208 
3431.000000	65.259861 
3430.000000	65.307807 
3429.000000	65.354323 
3428.000000	65.392875 
3427.000000	65.418171 
3426.000000	65.427112 
3425.000000	65.419268 
3424.000000	65.396809 
3423.000000	65.363812 
3422.000000	65.325570 
3421.000000	65.287494 
3420.000000	65.254402 
3419.000000	65.229749 
3418.000000	65.215063 
3417.000000	65.210151 
3416.000000	65.213155 
3415.000000	65.221095 
3414.000000	65.230345 
3413.000000	65.237450 
3412.000000	65.239572 
3411.000000	65.235114 
3410.000000	65.223979 
3409.000000	65.207767 
3408.000000	65.189194 
3407.000000	65.171861 
3406.000000	65.159344 
3405.000000	65.154337 
3404.000000	65.158462 
3403.000000	65.171694 
3402.000000	65.192389 
3401.000000	65.217566 
3400.000000	65.243649 
3399.000000	65.267062 
3398.000000	65.285015 
3397.000000	65.295934 
3396.000000	65.299320 
3395.000000	65.296149 
3394.000000	65.288472 
3393.000000	65.278935 
3392.000000	65.270113 
3391.000000	65.264248 
3390.000000	65.262699 
3389.000000	65.266036 
3388.000000	65.273976 
3387.000000	65.285205 
3386.000000	65.297722 
3385.000000	65.309286 
3384.000000	65.317988 
3383.000000	65.322542 
3382.000000	65.322685 
3381.000000	65.319132 
3380.000000	65.313649 
3379.000000	65.308523 
3378.000000	65.306138 
3377.000000	65.308332 
3376.000000	65.315937 
3375.000000	65.328764 
3374.000000	65.345335 
3373.000000	65.363430 
3372.000000	65.380001 
3371.000000	65.392231 
3370.000000	65.397620 
3369.000000	65.394449 
3368.000000	65.382242 
3367.000000	65.361809 
3366.000000	65.335178 
3365.000000	65.305256 
3364.000000	65.275597 
3363.000000	65.249848 
3362.000000	65.231418 
3361.000000	65.222835 
3360.000000	65.225481 
3359.000000	65.239262 
3358.000000	65.262818 
3357.000000	65.293765 
3356.000000	65.329003 
3355.000000	65.365004 
3354.000000	65.398502 
3353.000000	65.426373 
3352.000000	65.445971 
3351.000000	65.454936 
3350.000000	65.451788 
3349.000000	65.435671 
3348.000000	65.406751 
3347.000000	65.366387 
3346.000000	65.317511 
3345.000000	65.263938 
3344.000000	65.210485 
3343.000000	65.161895 
3342.000000	65.122389 
3341.000000	65.094852 
3340.000000	65.080690 
3339.000000	65.079331 
3338.000000	65.088772 
3337.000000	65.105867 
3336.000000	65.127277 
3335.000000	65.150022 
3334.000000	65.171933 
3333.000000	65.192127 
3332.000000	65.210866 
3331.000000	65.229105 
3330.000000	65.248060 
3329.000000	65.268778 
3328.000000	65.291500 
3327.000000	65.315842 
3326.000000	65.340638 
3325.000000	65.364623 
3324.000000	65.386295 
3323.000000	65.404605 
3322.000000	65.418720 
3321.000000	65.428447 
3320.000000	65.433740 
3319.000000	65.434575 
3318.000000	65.430855 
3317.000000	65.422511 
3316.000000	65.409564 
3315.000000	65.392518 
3314.000000	65.372204 
3313.000000	65.350103 
3312.000000	65.328049 
3311.000000	65.308284 
3310.000000	65.292620 
3309.000000	65.282177 
3308.000000	65.277075 
3307.000000	65.276598 
3306.000000	65.279412 
3305.000000	65.283799 
3304.000000	65.288305 
3303.000000	65.291786 
3302.000000	65.293979 
3301.000000	65.294957 
3300.000000	65.295004 
3299.000000	65.294337 
3298.000000	65.292906 
3297.000000	65.290451 
3296.000000	65.286350 
3295.000000	65.279889 
3294.000000	65.270566 
3293.000000	65.258169 
3292.000000	65.243029 
3291.000000	65.226197 
3290.000000	65.209484 
3289.000000	65.195035 
3288.000000	65.184879 
3287.000000	65.180540 
3286.000000	65.182566 
3285.000000	65.190601 
3284.000000	65.203380 
3283.000000	65.219187 
3282.000000	65.236139 
3281.000000	65.253019 
3280.000000	65.269160 
3279.000000	65.284419 
3278.000000	65.298628 
3277.000000	65.311551 
3276.000000	65.322422 
3275.000000	65.330004 
3274.000000	65.332531 
3273.000000	65.328621 
3272.000000	65.317440 
3271.000000	65.299415 
3270.000000	65.276193 
3269.000000	65.250349 
3268.000000	65.224933 
3267.000000	65.202593 
3266.000000	65.185022 
3265.000000	65.172410 
3264.000000	65.163707 
3263.000000	65.156769 
3262.000000	65.149641 
3261.000000	65.140843 
3260.000000	65.130519 
3259.000000	65.120196 
3258.000000	65.112638 
3257.000000	65.110945 
3256.000000	65.117859 
3255.000000	65.134620 
3254.000000	65.160655 
3253.000000	65.193462 
3252.000000	65.229392 
3251.000000	65.264391 
3250.000000	65.294909 
3249.000000	65.318512 
3248.000000	65.334200 
3247.000000	65.342283 
3246.000000	65.343809 
3245.000000	65.340161 
3244.000000	65.332579 
3243.000000	65.321898 
3242.000000	65.308690 
3241.000000	65.293502 
3240.000000	65.277218 
3239.000000	65.261292 
3238.000000	65.247583 
3237.000000	65.238046 
3236.000000	65.234136 
3235.000000	65.236663 
3234.000000	65.245127 
3233.000000	65.258049 
3232.000000	65.273118 
3231.000000	65.287828 
3230.000000	65.299987 
3229.000000	65.307998 
3228.000000	65.311026 
3227.000000	65.309143 
3226.000000	65.303111 
3225.000000	65.294170 
3224.000000	65.283560 
3223.000000	65.272641 
3222.000000	65.262341 
3221.000000	65.253758 
3220.000000	65.247178 
3219.000000	65.242457 
3218.000000	65.238833 
3217.000000	65.235185 
3216.000000	65.230083 
3215.000000	65.222072 
3214.000000	65.210008 
3213.000000	65.193510 
3212.000000	65.173125 
3211.000000	65.150332 
3210.000000	65.127325 
3209.000000	65.106201 
3208.000000	65.088987 
3207.000000	65.076971 
3206.000000	65.070986 
3205.000000	65.071129 
3204.000000	65.077495 
3203.000000	65.090107 
3202.000000	65.109395 
3201.000000	65.135812 
3200.000000	65.169644 
3199.000000	65.210270 
3198.000000	65.255975 
3197.000000	65.303802 
3196.000000	65.349650 
3195.000000	65.388870 
3194.000000	65.417289 
3193.000000	65.432000 
3192.000000	65.432262 
3191.000000	65.419268 
3190.000000	65.396285 
3189.000000	65.367579 
3188.000000	65.337824 
3187.000000	65.311169 
3186.000000	65.290570 
3185.000000	65.277624 
3184.000000	65.272879 
3183.000000	65.275835 
3182.000000	65.285468 
3181.000000	65.300393 
3180.000000	65.319132 
3179.000000	65.340113 
3178.000000	65.361499 
3177.000000	65.381217 
3176.000000	65.397071 
3175.000000	65.407133 
3174.000000	65.410089 
3173.000000	65.405678 
3172.000000	65.394496 
3171.000000	65.378189 
3170.000000	65.358901 
3169.000000	65.338659 
3168.000000	65.318894 
3167.000000	65.300250 
3166.000000	65.282702 
3165.000000	65.265464 
3164.000000	65.248107 
3163.000000	65.230631 
3162.000000	65.214252 
3161.000000	65.200901 
3160.000000	65.193128 
3159.000000	65.193271 
3158.000000	65.202760 
3157.000000	65.221571 
3156.000000	65.247893 
3155.000000	65.278077 
3154.000000	65.307545 
3153.000000	65.331649 
3152.000000	65.346550 
3151.000000	65.349769 
3150.000000	65.340709 
3149.000000	65.320634 
3148.000000	65.292286 
3147.000000	65.259289 
3146.000000	65.225338 
3145.000000	65.193700 
3144.000000	65.166616 
3143.000000	65.145039 
3142.000000	65.128946 
3141.000000	65.117406 
3140.000000	65.108919 
3139.000000	65.101933 
3138.000000	65.094900 
3137.000000	65.087008 
3136.000000	65.077829 
3135.000000	65.067934 
3134.000000	65.058207 
3133.000000	65.050482 
3132.000000	65.046739 
3131.000000	65.049242 
3130.000000	65.059685 
3129.000000	65.079140 
3128.000000	65.107536 
3127.000000	65.143442 
3126.000000	65.184283 
3125.000000	65.226674 
3124.000000	65.266966 
3123.000000	65.301847 
3122.000000	65.328860 
3121.000000	65.347075 
3120.000000	65.356945 
3119.000000	65.360236 
3118.000000	65.359449 
3117.000000	65.357089 
3116.000000	65.355014 
3115.000000	65.354228 
3114.000000	65.354490 
3113.000000	65.354800 
3112.000000	65.353417 
3111.000000	65.348815 
3110.000000	65.339946 
3109.000000	65.326642 
3108.000000	65.309667 
3107.000000	65.290474 
3106.000000	65.271043 
3105.000000	65.253543 
3104.000000	65.239882 
3103.000000	65.231323 
3102.000000	65.228319 
3101.000000	65.230369 
3100.000000	65.236163 
3099.000000	65.243744 
3098.000000	65.251088 
3097.000000	65.256452 
3096.000000	65.258812 
3095.000000	65.257835 
3094.000000	65.254187 
3093.000000	65.249443 
3092.000000	65.245318 
3091.000000	65.243291 
3090.000000	65.244436 
3089.000000	65.248966 
3088.000000	65.256047 
3087.000000	65.264153 
3086.000000	65.271520 
3085.000000	65.276527 
3084.000000	65.278291 
3083.000000	65.276885 
3082.000000	65.273046 
3081.000000	65.268230 
3080.000000	65.264248 
3079.000000	65.262818 
3078.000000	65.264964 
3077.000000	65.271019 
3076.000000	65.280628 
3075.000000	65.292716 
3074.000000	65.305638 
3073.000000	65.317630 
3072.000000	65.327286 
3071.000000	65.333747 
3070.000000	65.336894 
3069.000000	65.337181 
3068.000000	65.335559 
3067.000000	65.332913 
3066.000000	65.329957 
3065.000000	65.326666 
3064.000000	65.322327 
3063.000000	65.315580 
3062.000000	65.305089 
3061.000000	65.289855 
3060.000000	65.269947 
3059.000000	65.246891 
3058.000000	65.223550 
3057.000000	65.203833 
3056.000000	65.191769 
3055.000000	65.190696 
3054.000000	65.202546 
3053.000000	65.226936 
3052.000000	65.261340 
3051.000000	65.301680 
3050.000000	65.343093 
3049.000000	65.380859 
3048.000000	65.411233 
3047.000000	65.432000 
3046.000000	65.442514 
3045.000000	65.443420 
3044.000000	65.436053 
3043.000000	65.421843 
3042.000000	65.402078 
3041.000000	65.377688 
3040.000000	65.349578 
3039.000000	65.318846 
3038.000000	65.287137 
3037.000000	65.256881 
3036.000000	65.230774 
3035.000000	65.211224 
3034.000000	65.199923 
3033.000000	65.197396 
3032.000000	65.202498 
3031.000000	65.212941 
3030.000000	65.225577 
3029.000000	65.237307 
3028.000000	65.245604 
3027.000000	65.249252 
3026.000000	65.248370 
3025.000000	65.244388 
3024.000000	65.239500 
3023.000000	65.235996 
3022.000000	65.235638 
3021.000000	65.239071 
3020.000000	65.246200 
3019.000000	65.255856 
3018.000000	65.266299 
3017.000000	65.276050 
3016.000000	65.284371 
3015.000000	65.291523 
3014.000000	65.298461 
3013.000000	65.306997 
3012.000000	65.319013 
3011.000000	65.336012 
3010.000000	65.358614 
3009.000000	65.386176 
3008.000000	65.416741 
3007.000000	65.447664 
3006.000000	65.475964 
3005.000000	65.498852 
3004.000000	65.514278 
3003.000000	65.521335 
3002.000000	65.520262 
3001.000000	65.512251 
3000.000000	65.498852 
2999.000000	65.481829 
2998.000000	65.462446 
2997.000000	65.441799 
2996.000000	65.420269 
2995.000000	65.397977 
2994.000000	65.374684 
2993.000000	65.350604 
2992.000000	65.325975 
2991.000000	65.301251 
2990.000000	65.277194 
2989.000000	65.254545 
2988.000000	65.234184 
2987.000000	65.216565 
2986.000000	65.202140 
2985.000000	65.191388 
2984.000000	65.184783 
2983.000000	65.182757 
2982.000000	65.185642 
2981.000000	65.193629 
2980.000000	65.206480 
2979.000000	65.223431 
2978.000000	65.243244 
2977.000000	65.264129 
2976.000000	65.284037 
2975.000000	65.300679 
2974.000000	65.312218 
2973.000000	65.317010 
2972.000000	65.314245 
2971.000000	65.303516 
2970.000000	65.285277 
2969.000000	65.260314 
2968.000000	65.230035 
2967.000000	65.196347 
2966.000000	65.161204 
2965.000000	65.126824 
2964.000000	65.095400 
2963.000000	65.068984 
2962.000000	65.049171 
2961.000000	65.037178 
2960.000000	65.033388 
2959.000000	65.037584 
2958.000000	65.048861 
2957.000000	65.065932 
2956.000000	65.087008 
2955.000000	65.110015 
2954.000000	65.132784 
2953.000000	65.153288 
2952.000000	65.169739 
2951.000000	65.180921 
2950.000000	65.186166 
2949.000000	65.185594 
2948.000000	65.180158 
2947.000000	65.171384 
2946.000000	65.161299 
2945.000000	65.152168 
2944.000000	65.145778 
2943.000000	65.143442 
2942.000000	65.145325 
2941.000000	65.150761 
2940.000000	65.158033 
2939.000000	65.164685 
2938.000000	65.168046 
2937.000000	65.165805 
2936.000000	65.156555 
2935.000000	65.139722 
2934.000000	65.116095 
2933.000000	65.087580 
2932.000000	65.056753 
2931.000000	65.026330 
2930.000000	64.998698 
2929.000000	64.975666 
2928.000000	64.957833 
2927.000000	64.944791 
2926.000000	64.935278 
2925.000000	64.927649 
2924.000000	64.920139 
2923.000000	64.911794 
2922.000000	64.902162 
2921.000000	64.892172 
2920.000000	64.883470 
2919.000000	64.878606 
2918.000000	64.879846 
2917.000000	64.889216 
2916.000000	64.907622 
2915.000000	64.934539 
2914.000000	64.968085 
2913.000000	65.004992 
2912.000000	65.041375 
2911.000000	65.073227 
2910.000000	65.097141 
2909.000000	65.110898 
2908.000000	65.113854 
2907.000000	65.107035 
2906.000000	65.092635 
2905.000000	65.073871 
2904.000000	65.054368 
2903.000000	65.037488 
2902.000000	65.026235 
2901.000000	65.022873 
2900.000000	65.028762 
2899.000000	65.044498 
2898.000000	65.069890 
2897.000000	65.103673 
2896.000000	65.143632 
2895.000000	65.186738 
2894.000000	65.229296 
2893.000000	65.267586 
2892.000000	65.298080 
2891.000000	65.318346 
2890.000000	65.326952 
2889.000000	65.324282 
2888.000000	65.311837 
2887.000000	65.292501 
2886.000000	65.269279 
2885.000000	65.245223 
2884.000000	65.222311 
2883.000000	65.201544 
2882.000000	65.182566 
2881.000000	65.164518 
2880.000000	65.146160 
2879.000000	65.126657 
2878.000000	65.105867 
2877.000000	65.084767 
2876.000000	65.065169 
2875.000000	65.049362 
2874.000000	65.039682 
2873.000000	65.037894 
2872.000000	65.044689 
2871.000000	65.059518 
2870.000000	65.080213 
2869.000000	65.103793 
2868.000000	65.126538 
2867.000000	65.144944 
2866.000000	65.156483 
2865.000000	65.159893 
2864.000000	65.155458 
2863.000000	65.144753 
2862.000000	65.130186 
2861.000000	65.114378 
2860.000000	65.099501 
2859.000000	65.086793 
2858.000000	65.076494 
2857.000000	65.068197 
2856.000000	65.061068 
2855.000000	65.054464 
2854.000000	65.048217 
2853.000000	65.042853 
2852.000000	65.039658 
2851.000000	65.040159 
2850.000000	65.045666 
2849.000000	65.056896 
2848.000000	65.073680 
2847.000000	65.094995 
2846.000000	65.119266 
2845.000000	65.144753 
2844.000000	65.169763 
2843.000000	65.192961 
2842.000000	65.213489 
2841.000000	65.230941 
2840.000000	65.245389 
2839.000000	65.257096 
2838.000000	65.266442 
2837.000000	65.273833 
2836.000000	65.279603 
2835.000000	65.284013 
2834.000000	65.287184 
2833.000000	65.289211 
2832.000000	65.290284 
2831.000000	65.290617 
2830.000000	65.290689 
2829.000000	65.291118 
2828.000000	65.292644 
2827.000000	65.295863 
2826.000000	65.301108 
2825.000000	65.308380 
2824.000000	65.316891 
2823.000000	65.325284 
2822.000000	65.331745 
2821.000000	65.334534 
2820.000000	65.332365 
2819.000000	65.325021 
2818.000000	65.313506 
2817.000000	65.300011 
2816.000000	65.287399 
2815.000000	65.278601 
2814.000000	65.275883 
2813.000000	65.280055 
2812.000000	65.290665 
2811.000000	65.305972 
2810.000000	65.323281 
2809.000000	65.339612 
2808.000000	65.352535 
2807.000000	65.360450 
2806.000000	65.362763 
2805.000000	65.359902 
2804.000000	65.353250 
2803.000000	65.344405 
2802.000000	65.334796 
2801.000000	65.325593 
2800.000000	65.317344 
2799.000000	65.310359 
2798.000000	65.304708 
2797.000000	65.300607 
2796.000000	65.298604 
2795.000000	65.299439 
2794.000000	65.304088 
2793.000000	65.313339 
2792.000000	65.327382 
2791.000000	65.345644 
2790.000000	65.366697 
2789.000000	65.388393 
2788.000000	65.408158 
2787.000000	65.423536 
2786.000000	65.432524 
2785.000000	65.434122 
2784.000000	65.428233 
2783.000000	65.415930 
2782.000000	65.398621 
2781.000000	65.378165 
2780.000000	65.356159 
2779.000000	65.333843 
2778.000000	65.311956 
2777.000000	65.290951 
2776.000000	65.270829 
2775.000000	65.251755 
2774.000000	65.233969 
2773.000000	65.217781 
2772.000000	65.203809 
2771.000000	65.192556 
2770.000000	65.184545 
2769.000000	65.180301 
2768.000000	65.180182 
2767.000000	65.184402 
2766.000000	65.193128 
2765.000000	65.206146 
2764.000000	65.223050 
2763.000000	65.242648 
2762.000000	65.263319 
2761.000000	65.282750 
2760.000000	65.298271 
2759.000000	65.307354 
2758.000000	65.307974 
2757.000000	65.299129 
2756.000000	65.281414 
2755.000000	65.256810 
2754.000000	65.228867 
2753.000000	65.201854 
2752.000000	65.180301 
2751.000000	65.167832 
2750.000000	65.166783 
2749.000000	65.177416 
2748.000000	65.198326 
2747.000000	65.226435 
2746.000000	65.257787 
2745.000000	65.288257 
2744.000000	65.314483 
2743.000000	65.334367 
2742.000000	65.347075 
2741.000000	65.353178 
2740.000000	65.354180 
2739.000000	65.352058 
2738.000000	65.348815 
2737.000000	65.346169 
2736.000000	65.345263 
2735.000000	65.346741 
2734.000000	65.350675 
2733.000000	65.356945 
2732.000000	65.365099 
2731.000000	65.374612 
2730.000000	65.384888 
2729.000000	65.395140 
2728.000000	65.404534 
2727.000000	65.412139 
2726.000000	65.417265 
2725.000000	65.419411 
2724.000000	65.418672 
2723.000000	65.415740 
2722.000000	65.411925 
2721.000000	65.408849 
2720.000000	65.407991 
2719.000000	65.410232 
2718.000000	65.415525 
2717.000000	65.422725 
2716.000000	65.429925 
2715.000000	65.434980 
2714.000000	65.435910 
2713.000000	65.431475 
2712.000000	65.421748 
2711.000000	65.408229 
2710.000000	65.393471 
2709.000000	65.380406 
2708.000000	65.371870 
2707.000000	65.369915 
2706.000000	65.375375 
2705.000000	65.387678 
2704.000000	65.405249 
2703.000000	65.425467 
2702.000000	65.445876 
2701.000000	65.463972 
2700.000000	65.477967 
2699.000000	65.486764 
2698.000000	65.489912 
2697.000000	65.487647 
2696.000000	65.480542 
2695.000000	65.469431 
2694.000000	65.455317 
2693.000000	65.439152 
2692.000000	65.421986 
2691.000000	65.404796 
2690.000000	65.388488 
2689.000000	65.373730 
2688.000000	65.361118 
2687.000000	65.350651 
2686.000000	65.342259 
2685.000000	65.335726 
2684.000000	65.330743 
2683.000000	65.327167 
2682.000000	65.324950 
2681.000000	65.324378 
2680.000000	65.325951 
2679.000000	65.330100 
2678.000000	65.337014 
2677.000000	65.346693 
2676.000000	65.358710 
2675.000000	65.372204 
2674.000000	65.385937 
2673.000000	65.398764 
2672.000000	65.409326 
2671.000000	65.416789 
2670.000000	65.420675 
2669.000000	65.421175 
2668.000000	65.418958 
2667.000000	65.415120 
2666.000000	65.410733 
2665.000000	65.406608 
2664.000000	65.403127 
2663.000000	65.400242 
2662.000000	65.397453 
2661.000000	65.394020 
2660.000000	65.389251 
2659.000000	65.383005 
2658.000000	65.375471 
2657.000000	65.367197 
2656.000000	65.358924 
2655.000000	65.351414 
2654.000000	65.345001 
2653.000000	65.339374 
2652.000000	65.333747 
2651.000000	65.326905 
2650.000000	65.317630 
2649.000000	65.305280 
2648.000000	65.289664 
2647.000000	65.271639 
2646.000000	65.252733 
2645.000000	65.235066 
2644.000000	65.220785 
2643.000000	65.211749 
2642.000000	65.209126 
2641.000000	65.213346 
2640.000000	65.223979 
2639.000000	65.239906 
2638.000000	65.259838 
2637.000000	65.282392 
2636.000000	65.306234 
2635.000000	65.330410 
2634.000000	65.354228 
2633.000000	65.377163 
2632.000000	65.398693 
2631.000000	65.418434 
2630.000000	65.435862 
2629.000000	65.450549 
2628.000000	65.462040 
2627.000000	65.469908 
2626.000000	65.473675 
2625.000000	65.473127 
2624.000000	65.468239 
2623.000000	65.459012 
2622.000000	65.445661 
2621.000000	65.428757 
2620.000000	65.409350 
2619.000000	65.388751 
2618.000000	65.368604 
2617.000000	65.350580 
2616.000000	65.336322 
2615.000000	65.326857 
2614.000000	65.322542 
2613.000000	65.322899 
2612.000000	65.326666 
2611.000000	65.332055 
2610.000000	65.337109 
2609.000000	65.340042 
2608.000000	65.339612 
2607.000000	65.335416 
2606.000000	65.327787 
2605.000000	65.317702 
2604.000000	65.306806 
2603.000000	65.297150 
2602.000000	65.290784 
2601.000000	65.289497 
2600.000000	65.294766 
2599.000000	65.307283 
2598.000000	65.327048 
2597.000000	65.353012 
2596.000000	65.383124 
2595.000000	65.414595 
2594.000000	65.444159 
2593.000000	65.468668 
2592.000000	65.485334 
2591.000000	65.492582 
2590.000000	65.490293 
2589.000000	65.479660 
2588.000000	65.462899 
2587.000000	65.442800 
2586.000000	65.422344 
2585.000000	65.403747 
2584.000000	65.388321 
2583.000000	65.376305 
2582.000000	65.367197 
2581.000000	65.359997 
2580.000000	65.353655 
2579.000000	65.347576 
2578.000000	65.341711 
2577.000000	65.336728 
2576.000000	65.333557 
2575.000000	65.333223 
2574.000000	65.336418 
2573.000000	65.343403 
2572.000000	65.353727 
2571.000000	65.366601 
2570.000000	65.380930 
2569.000000	65.395808 
2568.000000	65.410661 
2567.000000	65.425324 
2566.000000	65.439939 
2565.000000	65.454912 
2564.000000	65.470552 
2563.000000	65.486764 
2562.000000	65.503048 
2561.000000	65.518593 
2560.000000	65.532279 
2559.000000	65.543031 
2558.000000	65.550160 
2557.000000	65.553307 
2556.000000	65.552854 
2555.000000	65.549826 
2554.000000	65.545463 
2553.000000	65.541148 
2552.000000	65.537858 
2551.000000	65.536260 
2550.000000	65.536332 
2549.000000	65.537333 
2548.000000	65.538215 
2547.000000	65.537619 
2546.000000	65.534591 
2545.000000	65.528631 
2544.000000	65.519762 
2543.000000	65.508770 
2542.000000	65.496659 
2541.000000	65.484547 
2540.000000	65.473318 
2539.000000	65.463161 
2538.000000	65.453791 
2537.000000	65.444517 
2536.000000	65.434360 
2535.000000	65.423059 
2534.000000	65.410852 
2533.000000	65.399122 
2532.000000	65.389919 
2531.000000	65.385746 
2530.000000	65.388798 
2529.000000	65.400242 
2528.000000	65.419745 
2527.000000	65.445375 
2526.000000	65.473723 
2525.000000	65.500473 
2524.000000	65.521287 
2523.000000	65.532469 
2522.000000	65.531826 
2521.000000	65.519022 
2520.000000	65.495562 
2519.000000	65.464591 
2518.000000	65.430307 
2517.000000	65.397024 
2516.000000	65.368676 
2515.000000	65.348172 
2514.000000	65.337252 
2513.000000	65.336155 
2512.000000	65.344023 
2511.000000	65.359234 
2510.000000	65.379762 
2509.000000	65.403437 
2508.000000	65.428495 
2507.000000	65.453338 
2506.000000	65.477061 
2505.000000	65.498828 
2504.000000	65.518260 
2503.000000	65.534949 
2502.000000	65.548491 
2501.000000	65.558600 
2500.000000	65.564990 
2499.000000	65.567588 
2498.000000	65.566515 
2497.000000	65.562129 
2496.000000	65.554904 
2495.000000	65.545320 
2494.000000	65.533590 
2493.000000	65.519833 
2492.000000	65.503787 
2491.000000	65.485262 
2490.000000	65.464067 
2489.000000	65.440177 
2488.000000	65.414118 
2487.000000	65.386986 
2486.000000	65.360379 
2485.000000	65.336227 
2484.000000	65.316224 
2483.000000	65.301871 
2482.000000	65.293884 
2481.000000	65.292263 
2480.000000	65.296173 
2479.000000	65.304303 
2478.000000	65.314841 
2477.000000	65.326404 
2476.000000	65.337848 
2475.000000	65.348696 
2474.000000	65.358877 
2473.000000	65.368676 
2472.000000	65.378308 
2471.000000	65.387868 
2470.000000	65.397071 
2469.000000	65.405273 
2468.000000	65.411567 
2467.000000	65.415191 
2466.000000	65.415692 
2465.000000	65.413093 
2464.000000	65.407991 
2463.000000	65.401339 
2462.000000	65.394330 
2461.000000	65.387749 
2460.000000	65.382146 
2459.000000	65.377354 
2458.000000	65.372991 
2457.000000	65.368413 
2456.000000	65.363192 
2455.000000	65.357327 
2454.000000	65.351295 
2453.000000	65.345907 
2452.000000	65.342211 
2451.000000	65.341043 
2450.000000	65.342926 
2449.000000	65.347814 
2448.000000	65.355181 
2447.000000	65.364265 
2446.000000	65.374279 
2445.000000	65.384626 
2444.000000	65.395212 
2443.000000	65.406322 
2442.000000	65.418505 
2441.000000	65.432310 
2440.000000	65.447831 
2439.000000	65.464448 
2438.000000	65.480780 
2437.000000	65.494775 
2436.000000	65.504121 
2435.000000	65.506362 
2434.000000	65.499925 
2433.000000	65.484070 
2432.000000	65.459489 
2431.000000	65.428137 
2430.000000	65.392971 
2429.000000	65.357375 
2428.000000	65.324854 
2427.000000	65.298080 
2426.000000	65.278959 
2425.000000	65.268135 
2424.000000	65.265178 
2423.000000	65.268921 
2422.000000	65.277934 
2421.000000	65.290713 
2420.000000	65.305972 
2419.000000	65.322685 
2418.000000	65.339994 
2417.000000	65.356969 
2416.000000	65.372467 
2415.000000	65.385055 
2414.000000	65.393042 
2413.000000	65.395092 
2412.000000	65.390276 
2411.000000	65.378856 
2410.000000	65.362048 
2409.000000	65.342378 
2408.000000	65.322875 
2407.000000	65.306425 
2406.000000	65.295100 
2405.000000	65.289688 
2404.000000	65.289568 
2403.000000	65.292954 
2402.000000	65.297365 
2401.000000	65.300583 
2400.000000	65.300893 
2399.000000	65.297532 
2398.000000	65.290951 
2397.000000	65.282416 
2396.000000	65.273833 
2395.000000	65.266966 
2394.000000	65.263247 
2393.000000	65.263271 
2392.000000	65.266871 
2391.000000	65.273118 
2390.000000	65.280485 
2389.000000	65.287327 
2388.000000	65.292024 
2387.000000	65.293717 
2386.000000	65.292048 
2385.000000	65.287590 
2384.000000	65.281820 
2383.000000	65.276813 
2382.000000	65.274953 
2381.000000	65.278220 
2380.000000	65.287756 
2379.000000	65.303444 
2378.000000	65.323925 
2377.000000	65.346789 
2376.000000	65.369319 
2375.000000	65.388965 
2374.000000	65.404033 
2373.000000	65.413856 
2372.000000	65.418887 
2371.000000	65.420150 
2370.000000	65.418934 
2369.000000	65.416312 
2368.000000	65.412783 
2367.000000	65.408253 
2366.000000	65.402364 
2365.000000	65.394711 
2364.000000	65.385317 
2363.000000	65.374779 
2362.000000	65.364289 
2361.000000	65.355229 
2360.000000	65.348887 
2359.000000	65.346145 
2358.000000	65.347194 
2357.000000	65.351796 
2356.000000	65.359354 
2355.000000	65.369296 
2354.000000	65.380978 
2353.000000	65.393710 
2352.000000	65.406441 
2351.000000	65.417838 
2350.000000	65.426325 
2349.000000	65.429949 
2348.000000	65.427088 
2347.000000	65.416836 
2346.000000	65.399360 
2345.000000	65.376329 
2344.000000	65.350484 
2343.000000	65.325450 
2342.000000	65.304875 
2341.000000	65.291595 
2340.000000	65.286922 
2339.000000	65.290307 
2338.000000	65.299415 
2337.000000	65.310716 
2336.000000	65.320467 
2335.000000	65.325474 
2334.000000	65.323925 
2333.000000	65.315818 
2332.000000	65.302801 
2331.000000	65.287971 
2330.000000	65.275001 
2329.000000	65.267348 
2328.000000	65.267658 
2327.000000	65.277099 
2326.000000	65.295410 
2325.000000	65.320658 
2324.000000	65.350103 
2323.000000	65.380525 
2322.000000	65.409064 
2321.000000	65.433549 
2320.000000	65.452671 
2319.000000	65.466094 
2318.000000	65.474295 
2317.000000	65.478110 
2316.000000	65.478444 
2315.000000	65.476107 
2314.000000	65.471553 
2313.000000	65.464949 
2312.000000	65.456581 
2311.000000	65.446805 
2310.000000	65.436267 
2309.000000	65.426015 
2308.000000	65.417337 
2307.000000	65.411543 
2306.000000	65.409588 
2305.000000	65.411782 
2304.000000	65.417790 
2303.000000	65.426564 
2302.000000	65.436720 
2301.000000	65.446710 
2300.000000	65.455102 
2299.000000	65.460920 
2298.000000	65.463685 
2297.000000	65.463519 
2296.000000	65.461015 
2295.000000	65.457081 
2294.000000	65.452599 
2293.000000	65.448355 
2292.000000	65.444803 
2291.000000	65.442323 
2290.000000	65.440726 
2289.000000	65.439748 
2288.000000	65.438652 
2287.000000	65.436935 
2286.000000	65.433764 
2285.000000	65.428638 
2284.000000	65.421199 
2283.000000	65.411472 
2282.000000	65.399670 
2281.000000	65.386700 
2280.000000	65.373611 
2279.000000	65.361642 
2278.000000	65.352058 
2277.000000	65.345883 
2276.000000	65.343880 
2275.000000	65.346312 
2274.000000	65.352964 
2273.000000	65.363121 
2272.000000	65.375828 
2271.000000	65.389776 
2270.000000	65.403652 
2269.000000	65.416002 
2268.000000	65.425634 
2267.000000	65.431451 
2266.000000	65.432715 
2265.000000	65.428972 
2264.000000	65.420293 
2263.000000	65.407276 
2262.000000	65.391063 
2261.000000	65.373396 
2260.000000	65.356397 
2259.000000	65.342402 
2258.000000	65.333557 
2257.000000	65.331482 
2256.000000	65.337061 
2255.000000	65.350031 
2254.000000	65.369081 
2253.000000	65.391898 
2252.000000	65.415596 
2251.000000	65.437126 
2250.000000	65.453886 
2249.000000	65.464091 
2248.000000	65.467095 
2247.000000	65.463590 
2246.000000	65.455198 
2245.000000	65.444087 
2244.000000	65.432357 
2243.000000	65.421867 
2242.000000	65.413355 
2241.000000	65.406894 
2240.000000	65.401530 
2239.000000	65.395879 
2238.000000	65.388536 
2237.000000	65.378427 
2236.000000	65.365266 
2235.000000	65.349388 
2234.000000	65.332126 
2233.000000	65.315175 
2232.000000	65.300583 
2231.000000	65.290117 
2230.000000	65.285038 
2229.000000	65.285873 
2228.000000	65.292382 
2227.000000	65.303730 
2226.000000	65.318512 
2225.000000	65.335202 
2224.000000	65.352296 
2223.000000	65.368723 
2222.000000	65.383744 
2221.000000	65.397071 
2220.000000	65.408945 
2219.000000	65.419578 
2218.000000	65.429401 
2217.000000	65.438699 
2216.000000	65.447402 
2215.000000	65.455198 
2214.000000	65.461516 
2213.000000	65.465474 
2212.000000	65.466427 
2211.000000	65.463685 
2210.000000	65.457129 
2209.000000	65.447020 
2208.000000	65.434122 
2207.000000	65.419650 
2206.000000	65.405130 
2205.000000	65.392041 
2204.000000	65.381693 
2203.000000	65.374994 
2202.000000	65.372443 
2201.000000	65.374088 
2200.000000	65.379452 
2199.000000	65.387821 
2198.000000	65.398430 
2197.000000	65.410447 
2196.000000	65.423178 
2195.000000	65.436244 
2194.000000	65.449428 
2193.000000	65.462589 
2192.000000	65.475416 
2191.000000	65.487313 
2190.000000	65.497398 
2189.000000	65.504503 
2188.000000	65.507221 
2187.000000	65.504574 
2186.000000	65.496134 
2185.000000	65.482354 
2184.000000	65.464544 
2183.000000	65.444707 
2182.000000	65.425348 
2181.000000	65.408825 
2180.000000	65.397143 
2179.000000	65.391492 
2178.000000	65.392017 
2177.000000	65.397810 
2176.000000	65.406990 
2175.000000	65.417218 
2174.000000	65.426039 
2173.000000	65.431427 
2172.000000	65.432333 
2171.000000	65.428733 
2170.000000	65.421652 
2169.000000	65.412950 
2168.000000	65.404677 
2167.000000	65.398502 
2166.000000	65.395307 
2165.000000	65.394949 
2164.000000	65.396451 
2163.000000	65.398406 
2162.000000	65.399360 
2161.000000	65.398359 
2160.000000	65.395164 
2159.000000	65.390515 
2158.000000	65.385699 
2157.000000	65.382051 
2156.000000	65.380668 
2155.000000	65.381836 
2154.000000	65.384960 
2153.000000	65.388631 
2152.000000	65.391016 
2151.000000	65.390563 
2150.000000	65.386486 
2149.000000	65.379071 
2148.000000	65.369749 
2147.000000	65.360856 
2146.000000	65.354990 
2145.000000	65.354466 
2144.000000	65.360450 
2143.000000	65.372943 
2142.000000	65.390419 
2141.000000	65.410375 
2140.000000	65.429949 
2139.000000	65.446400 
2138.000000	65.457844 
2137.000000	65.463519 
2136.000000	65.463972 
2135.000000	65.460705 
2134.000000	65.455627 
2133.000000	65.450620 
2132.000000	65.446877 
2131.000000	65.445065 
2130.000000	65.444922 
2129.000000	65.445613 
2128.000000	65.446138 
2127.000000	65.445566 
2126.000000	65.443444 
2125.000000	65.439724 
2124.000000	65.434932 
2123.000000	65.429878 
2122.000000	65.425515 
2121.000000	65.422654 
2120.000000	65.421891 
2119.000000	65.423464 
2118.000000	65.427231 
2117.000000	65.432691 
2116.000000	65.439128 
2115.000000	65.445828 
2114.000000	65.451979 
2113.000000	65.457057 
2112.000000	65.460729 
2111.000000	65.462899 
2110.000000	65.463757 
2109.000000	65.463662 
2108.000000	65.462994 
2107.000000	65.461826 
2106.000000	65.460205 
2105.000000	65.457916 
2104.000000	65.454578 
2103.000000	65.449953 
2102.000000	65.443968 
2101.000000	65.437102 
2100.000000	65.430188 
2099.000000	65.424442 
2098.000000	65.421175 
2097.000000	65.421390 
2096.000000	65.425491 
2095.000000	65.433049 
2094.000000	65.442752 
2093.000000	65.452694 
2092.000000	65.460729 
2091.000000	65.464973 
2090.000000	65.464377 
2089.000000	65.458965 
2088.000000	65.449905 
2087.000000	65.439152 
2086.000000	65.429067 
2085.000000	65.421772 
2084.000000	65.418648 
2083.000000	65.420055 
2082.000000	65.425229 
2081.000000	65.432548 
2080.000000	65.440034 
2079.000000	65.445828 
2078.000000	65.448474 
2077.000000	65.447330 
2076.000000	65.442585 
2075.000000	65.434956 
2074.000000	65.425348 
2073.000000	65.414762 
2072.000000	65.403914 
2071.000000	65.393280 
2070.000000	65.383172 
2069.000000	65.373778 
2068.000000	65.365552 
2067.000000	65.358972 
2066.000000	65.354657 
2065.000000	65.353298 
2064.000000	65.355324 
2063.000000	65.360808 
2062.000000	65.369319 
2061.000000	65.379929 
2060.000000	65.391397 
2059.000000	65.402317 
2058.000000	65.411424 
2057.000000	65.417766 
2056.000000	65.420722 
2055.000000	65.420317 
2054.000000	65.416955 
2053.000000	65.411686 
2052.000000	65.405797 
2051.000000	65.400934 
2050.000000	65.398621 
2049.000000	65.400147 
2048.000000	65.406274 
2047.000000	65.416979 
2046.000000	65.431237 
2045.000000	65.447330 
2044.000000	65.463042 
2043.000000	65.476226 
2042.000000	65.485191 
2041.000000	65.489006 
2040.000000	65.487694 
2039.000000	65.482354 
2038.000000	65.474724 
2037.000000	65.466642 
2036.000000	65.459489 
2035.000000	65.454101 
2034.000000	65.450477 
2033.000000	65.448045 
2032.000000	65.445804 
2031.000000	65.442943 
2030.000000	65.438985 
2029.000000	65.434002 
2028.000000	65.428590 
2027.000000	65.423297 
2026.000000	65.418601 
2025.000000	65.414571 
2024.000000	65.410757 
2023.000000	65.406274 
2022.000000	65.399956 
2021.000000	65.391039 
2020.000000	65.379190 
2019.000000	65.364909 
2018.000000	65.349483 
2017.000000	65.334677 
2016.000000	65.322637 
2015.000000	65.315198 
2014.000000	65.313673 
2013.000000	65.318727 
2012.000000	65.330314 
2011.000000	65.347528 
2010.000000	65.369009 
2009.000000	65.393066 
2008.000000	65.417790 
2007.000000	65.441441 
2006.000000	65.462398 
2005.000000	65.479326 
2004.000000	65.491247 
2003.000000	65.497708 
2002.000000	65.498518 
2001.000000	65.493869 
2000.000000	65.484499 
1999.000000	65.471434 
1998.000000	65.456104 
1997.000000	65.440011 
1996.000000	65.424847 
1995.000000	65.412020 
1994.000000	65.402436 
1993.000000	65.396571 
1992.000000	65.394282 
1991.000000	65.395092 
1990.000000	65.398168 
1989.000000	65.402626 
1988.000000	65.407800 
1987.000000	65.413427 
1986.000000	65.419721 
1985.000000	65.427255 
1984.000000	65.436697 
1983.000000	65.448689 
1982.000000	65.463495 
1981.000000	65.480804 
1980.000000	65.499639 
1979.000000	65.518760 
1978.000000	65.536642 
1977.000000	65.551757 
1976.000000	65.562701 
1975.000000	65.568542 
1974.000000	65.568923 
1973.000000	65.564036 
1972.000000	65.554618 
1971.000000	65.541815 
1970.000000	65.527248 
1969.000000	65.512895 
1968.000000	65.500497 
1967.000000	65.491724 
1966.000000	65.487575 
1965.000000	65.488409 
1964.000000	65.493988 
1963.000000	65.503263 
1962.000000	65.514755 
1961.000000	65.526700 
1960.000000	65.537476 
1959.000000	65.545821 
1958.000000	65.550851 
1957.000000	65.552186 
1956.000000	65.549612 
1955.000000	65.543031 
1954.000000	65.532326 
1953.000000	65.517568 
1952.000000	65.499091 
1951.000000	65.477752 
1950.000000	65.454816 
1949.000000	65.432429 
1948.000000	65.413093 
1947.000000	65.399384 
1946.000000	65.393137 
1945.000000	65.395474 
1944.000000	65.406155 
1943.000000	65.423822 
1942.000000	65.446090 
1941.000000	65.470075 
1940.000000	65.492916 
1939.000000	65.512323 
1938.000000	65.526938 
1937.000000	65.536451 
1936.000000	65.541338 
1935.000000	65.542697 
1934.000000	65.541791 
1933.000000	65.539765 
1932.000000	65.537381 
1931.000000	65.535044 
1930.000000	65.532755 
1929.000000	65.530109 
1928.000000	65.526604 
1927.000000	65.521740 
1926.000000	65.514969 
1925.000000	65.506029 
1924.000000	65.494847 
1923.000000	65.481591 
1922.000000	65.466713 
1921.000000	65.451002 
1920.000000	65.435314 
1919.000000	65.420675 
1918.000000	65.408086 
1917.000000	65.398240 
1916.000000	65.391469 
1915.000000	65.387821 
1914.000000	65.386867 
1913.000000	65.387773 
1912.000000	65.389490 
1911.000000	65.390825 
1910.000000	65.390682 
1909.000000	65.388178 
1908.000000	65.382814 
1907.000000	65.374422 
1906.000000	65.363574 
1905.000000	65.351271 
1904.000000	65.339016 
1903.000000	65.328454 
1902.000000	65.321111 
1901.000000	65.318059 
1900.000000	65.319633 
1899.000000	65.325260 
1898.000000	65.333604 
1897.000000	65.342831 
1896.000000	65.350866 
1895.000000	65.356326 
1894.000000	65.358471 
1893.000000	65.357828 
1892.000000	65.355777 
1891.000000	65.354418 
1890.000000	65.355658 
1889.000000	65.361022 
1888.000000	65.370917 
1887.000000	65.384697 
1886.000000	65.400671 
1885.000000	65.416669 
1884.000000	65.430665 
1883.000000	65.441179 
1882.000000	65.447568 
1881.000000	65.450239 
1880.000000	65.450286 
1879.000000	65.449118 
1878.000000	65.447998 
1877.000000	65.447735 
1876.000000	65.448403 
1875.000000	65.449452 
1874.000000	65.449833 
1873.000000	65.448451 
1872.000000	65.444445 
1871.000000	65.437197 
1870.000000	65.426683 
1869.000000	65.413284 
1868.000000	65.397953 
1867.000000	65.381789 
1866.000000	65.366053 
1865.000000	65.352153 
1864.000000	65.341162 
1863.000000	65.334057 
1862.000000	65.331268 
1861.000000	65.332770 
1860.000000	65.337872 
1859.000000	65.345668 
1858.000000	65.354967 
1857.000000	65.364480 
1856.000000	65.373110 
1855.000000	65.380048 
1854.000000	65.384840 
1853.000000	65.387248 
1852.000000	65.387582 
1851.000000	65.386223 
1850.000000	65.383839 
1849.000000	65.381073 
1848.000000	65.378689 
1847.000000	65.377426 
1846.000000	65.378141 
1845.000000	65.381574 
1844.000000	65.388178 
1843.000000	65.398168 
1842.000000	65.411305 
1841.000000	65.426850 
1840.000000	65.443634 
1839.000000	65.460014 
1838.000000	65.474295 
1837.000000	65.484929 
1836.000000	65.490508 
1835.000000	65.490293 
1834.000000	65.484285 
1833.000000	65.473198 
1832.000000	65.458321 
1831.000000	65.441155 
1830.000000	65.423607 
1829.000000	65.407228 
1828.000000	65.393233 
1827.000000	65.382313 
1826.000000	65.374612 
1825.000000	65.369963 
1824.000000	65.367960 
1823.000000	65.368103 
1822.000000	65.369939 
1821.000000	65.373063 
1820.000000	65.377235 
1819.000000	65.382051 
1818.000000	65.387129 
1817.000000	65.391707 
1816.000000	65.395069 
1815.000000	65.396356 
1814.000000	65.395140 
1813.000000	65.391469 
1812.000000	65.386009 
1811.000000	65.379929 
1810.000000	65.374779 
1809.000000	65.372204 
1808.000000	65.373492 
1807.000000	65.379238 
1806.000000	65.389204 
1805.000000	65.402460 
1804.000000	65.417361 
1803.000000	65.432024 
1802.000000	65.444517 
1801.000000	65.453171 
1800.000000	65.456867 
1799.000000	65.455174 
1798.000000	65.448093 
1797.000000	65.436315 
1796.000000	65.420961 
1795.000000	65.403580 
1794.000000	65.385985 
1793.000000	65.369987 
1792.000000	65.357470 
1791.000000	65.349674 
1790.000000	65.347313 
1789.000000	65.350079 
1788.000000	65.356945 
1787.000000	65.366101 
1786.000000	65.375423 
1785.000000	65.383052 
1784.000000	65.387511 
1783.000000	65.388178 
1782.000000	65.385198 
1781.000000	65.379309 
1780.000000	65.371561 
1779.000000	65.363049 
1778.000000	65.354895 
1777.000000	65.347790 
1776.000000	65.341997 
1775.000000	65.337586 
1774.000000	65.334534 
1773.000000	65.332651 
1772.000000	65.331745 
1771.000000	65.331578 
1770.000000	65.331912 
1769.000000	65.332484 
1768.000000	65.333008 
1767.000000	65.333342 
1766.000000	65.333628 
1765.000000	65.334296 
1764.000000	65.335917 
1763.000000	65.339136 
1762.000000	65.344381 
1761.000000	65.351676 
1760.000000	65.360307 
1759.000000	65.369200 
1758.000000	65.376734 
1757.000000	65.381264 
1756.000000	65.381312 
1755.000000	65.375685 
1754.000000	65.363669 
1753.000000	65.345263 
1752.000000	65.321016 
1751.000000	65.292024 
1750.000000	65.259766 
1749.000000	65.226125 
1748.000000	65.193104 
1747.000000	65.162611 
1746.000000	65.136432 
1745.000000	65.116024 
1744.000000	65.102481 
1743.000000	65.096282 
1742.000000	65.097188 
1741.000000	65.104198 
1740.000000	65.115571 
1739.000000	65.129041 
1738.000000	65.141844 
1737.000000	65.151453 
1736.000000	65.155649 
1735.000000	65.153241 
1734.000000	65.144205 
1733.000000	65.129685 
1732.000000	65.111994 
1731.000000	65.094256 
1730.000000	65.079736 
1729.000000	65.071487 
1728.000000	65.071487 
1727.000000	65.080499 
1726.000000	65.097880 
1725.000000	65.121984 
1724.000000	65.150356 
1723.000000	65.180349 
1722.000000	65.209579 
1721.000000	65.236234 
1720.000000	65.259003 
1719.000000	65.277171 
1718.000000	65.290641 
1717.000000	65.299415 
1716.000000	65.303635 
1715.000000	65.303707 
1714.000000	65.300297 
1713.000000	65.294337 
1712.000000	65.286850 
1711.000000	65.279221 
1710.000000	65.272879 
1709.000000	65.269088 
1708.000000	65.268874 
1707.000000	65.272665 
1706.000000	65.280270 
1705.000000	65.291023 
1704.000000	65.303945 
1703.000000	65.317583 
1702.000000	65.330672 
1701.000000	65.341782 
1700.000000	65.349984 
1699.000000	65.354561 
1698.000000	65.355372 
1697.000000	65.352654 
1696.000000	65.347290 
1695.000000	65.340590 
1694.000000	65.334248 
1693.000000	65.329933 
1692.000000	65.329241 
1691.000000	65.333008 
1690.000000	65.341377 
1689.000000	65.353846 
1688.000000	65.369033 
1687.000000	65.384984 
1686.000000	65.399384 
1685.000000	65.410161 
1684.000000	65.415668 
1683.000000	65.414905 
1682.000000	65.407800 
1681.000000	65.395045 
1680.000000	65.377950 
1679.000000	65.358209 
1678.000000	65.337538 
1677.000000	65.317559 
1676.000000	65.299510 
1675.000000	65.284538 
1674.000000	65.273547 
1673.000000	65.267348 
1672.000000	65.266656 
1671.000000	65.271830 
1670.000000	65.282964 
1669.000000	65.299463 
1668.000000	65.319800 
1667.000000	65.341687 
1666.000000	65.362215 
1665.000000	65.378403 
1664.000000	65.387463 
1663.000000	65.387654 
1662.000000	65.378546 
1661.000000	65.361285 
1660.000000	65.338325 
1659.000000	65.313076 
1658.000000	65.288996 
1657.000000	65.269112 
1656.000000	65.255475 
1655.000000	65.248751 
1654.000000	65.248394 
1653.000000	65.252804 
1652.000000	65.259909 
1651.000000	65.267705 
1650.000000	65.274477 
1649.000000	65.279078 
1648.000000	65.281033 
1647.000000	65.280365 
1646.000000	65.277147 
1645.000000	65.271639 
1644.000000	65.263986 
1643.000000	65.254187 
1642.000000	65.242314 
1641.000000	65.228581 
1640.000000	65.213704 
1639.000000	65.198707 
1638.000000	65.185022 
1637.000000	65.174221 
1636.000000	65.167903 
1635.000000	65.167379 
1634.000000	65.173149 
1633.000000	65.185093 
1632.000000	65.202093 
1631.000000	65.222549 
1630.000000	65.244317 
1629.000000	65.265297 
1628.000000	65.283656 
1627.000000	65.298104 
1626.000000	65.308117 
1625.000000	65.313839 
1624.000000	65.315794 
1623.000000	65.314722 
1622.000000	65.311479 
1621.000000	65.306520 
1620.000000	65.300273 
1619.000000	65.292882 
1618.000000	65.284514 
1617.000000	65.275216 
1616.000000	65.265321 
1615.000000	65.255403 
1614.000000	65.246129 
1613.000000	65.238213 
1612.000000	65.232300 
1611.000000	65.228891 
1610.000000	65.228223 
1609.000000	65.230321 
1608.000000	65.234994 
1607.000000	65.241909 
1606.000000	65.250468 
1605.000000	65.259861 
1604.000000	65.268874 
1603.000000	65.276098 
1602.000000	65.280175 
1601.000000	65.280032 
1600.000000	65.274953 
1599.000000	65.265035 
1598.000000	65.251207 
1597.000000	65.235066 
1596.000000	65.218496 
1595.000000	65.203571 
1594.000000	65.191745 
1593.000000	65.183782 
1592.000000	65.179610 
1591.000000	65.178322 
1590.000000	65.178561 
1589.000000	65.178942 
1588.000000	65.178322 
1587.000000	65.176033 
1586.000000	65.171790 
1585.000000	65.165615 
1584.000000	65.157532 
1583.000000	65.147495 
1582.000000	65.135765 
1581.000000	65.123033 
1580.000000	65.110588 
1579.000000	65.100288 
1578.000000	65.094256 
1577.000000	65.094566 
1576.000000	65.102553 
1575.000000	65.118527 
1574.000000	65.141749 
1573.000000	65.170311 
1572.000000	65.201663 
1571.000000	65.232920 
1570.000000	65.261006 
1569.000000	65.283393 
1568.000000	65.298199 
1567.000000	65.304565 
1566.000000	65.302801 
1565.000000	65.294051 
1564.000000	65.280556 
1563.000000	65.264725 
1562.000000	65.248775 
1561.000000	65.234351 
1560.000000	65.222454 
1559.000000	65.213036 
1558.000000	65.205502 
1557.000000	65.198898 
1556.000000	65.192103 
1555.000000	65.184140 
1554.000000	65.174317 
1553.000000	65.162372 
1552.000000	65.148282 
1551.000000	65.132451 
1550.000000	65.115499 
1549.000000	65.098285 
1548.000000	65.081930 
1547.000000	65.067648 
1546.000000	65.056967 
1545.000000	65.051174 
1544.000000	65.051484 
1543.000000	65.058493 
1542.000000	65.072226 
1541.000000	65.091753 
1540.000000	65.115714 
1539.000000	65.142607 
1538.000000	65.170669 
1537.000000	65.198373 
1536.000000	65.224123 
1535.000000	65.246582 
1534.000000	65.264344 
1533.000000	65.276288 
1532.000000	65.281534 
1531.000000	65.279793 
1530.000000	65.271592 
1529.000000	65.258479 
1528.000000	65.242576 
1527.000000	65.226125 
1526.000000	65.211319 
1525.000000	65.199732 
1524.000000	65.192055 
1523.000000	65.188074 
1522.000000	65.187001 
1521.000000	65.187883 
1520.000000	65.189933 
1519.000000	65.192937 
1518.000000	65.197229 
1517.000000	65.203356 
1516.000000	65.211367 
1515.000000	65.220737 
1514.000000	65.230011 
1513.000000	65.237188 
1512.000000	65.240335 
1511.000000	65.238165 
1510.000000	65.230584 
1509.000000	65.218591 
1508.000000	65.204548 
1507.000000	65.191340 
1506.000000	65.181493 
1505.000000	65.177059 
1504.000000	65.179061 
1503.000000	65.187549 
1502.000000	65.201544 
1501.000000	65.219402 
1500.000000	65.239262 
1499.000000	65.259194 
1498.000000	65.277528 
1497.000000	65.292644 
1496.000000	65.303254 
1495.000000	65.308403 
1494.000000	65.307617 
1493.000000	65.301084 
1492.000000	65.289592 
1491.000000	65.274882 
1490.000000	65.258908 
1489.000000	65.243768 
1488.000000	65.230965 
1487.000000	65.221309 
1486.000000	65.214800 
1485.000000	65.211057 
1484.000000	65.209126 
1483.000000	65.208244 
1482.000000	65.207791 
1481.000000	65.207576 
1480.000000	65.207552 
1479.000000	65.207433 
1478.000000	65.206813 
1477.000000	65.205073 
1476.000000	65.201497 
1475.000000	65.195465 
1474.000000	65.186834 
1473.000000	65.176129 
1472.000000	65.164637 
1471.000000	65.154147 
1470.000000	65.146493 
1469.000000	65.143299 
1468.000000	65.145397 
1467.000000	65.152788 
1466.000000	65.164542 
1465.000000	65.179133 
1464.000000	65.195012 
1463.000000	65.210533 
1462.000000	65.224456 
1461.000000	65.235805 
1460.000000	65.243792 
1459.000000	65.247607 
1458.000000	65.246319 
1457.000000	65.238690 
1456.000000	65.223789 
1455.000000	65.201258 
1454.000000	65.171933 
1453.000000	65.137743 
1452.000000	65.102076 
1451.000000	65.068817 
1450.000000	65.041708 
1449.000000	65.023803 
1448.000000	65.016365 
1447.000000	65.019321 
1446.000000	65.031194 
1445.000000	65.049672 
1444.000000	65.072035 
1443.000000	65.095973 
1442.000000	65.119814 
1441.000000	65.142512 
1440.000000	65.163707 
1439.000000	65.183258 
1438.000000	65.201210 
1437.000000	65.217566 
1436.000000	65.232110 
1435.000000	65.244722 
1434.000000	65.254831 
1433.000000	65.262269 
1432.000000	65.266728 
1431.000000	65.268015 
1430.000000	65.265965 
1429.000000	65.260577 
1428.000000	65.252041 
1427.000000	65.240859 
1426.000000	65.227937 
1425.000000	65.214729 
1424.000000	65.202713 
1423.000000	65.193295 
1422.000000	65.187358 
1421.000000	65.185022 
1420.000000	65.185236 
1419.000000	65.186119 
1418.000000	65.185236 
1417.000000	65.180301 
1416.000000	65.169811 
1415.000000	65.153527 
1414.000000	65.132689 
1413.000000	65.109658 
1412.000000	65.087842 
1411.000000	65.070748 
1410.000000	65.061068 
1409.000000	65.060162 
1408.000000	65.067839 
1407.000000	65.082263 
1406.000000	65.100479 
1405.000000	65.119147 
1404.000000	65.135240 
1403.000000	65.146589 
1402.000000	65.152120 
1401.000000	65.152096 
1400.000000	65.147542 
1399.000000	65.140080 
1398.000000	65.131592 
1397.000000	65.123605 
1396.000000	65.117335 
1395.000000	65.113353 
1394.000000	65.111827 
1393.000000	65.112113 
1392.000000	65.113019 
1391.000000	65.112948 
1390.000000	65.110230 
1389.000000	65.103459 
1388.000000	65.092086 
1387.000000	65.076589 
1386.000000	65.058755 
1385.000000	65.041279 
1384.000000	65.027379 
1383.000000	65.020108 
1382.000000	65.021538 
1381.000000	65.032219 
1380.000000	65.051031 
1379.000000	65.075302 
1378.000000	65.101528 
1377.000000	65.126061 
1376.000000	65.146112 
1375.000000	65.160083 
1374.000000	65.168118 
1373.000000	65.171742 
1372.000000	65.173292 
1371.000000	65.175127 
1370.000000	65.178871 
1369.000000	65.185189 
1368.000000	65.193510 
1367.000000	65.202403 
1366.000000	65.209937 
1365.000000	65.214347 
1364.000000	65.214562 
1363.000000	65.210556 
1362.000000	65.203380 
1361.000000	65.194845 
1360.000000	65.186953 
1359.000000	65.181469 
1358.000000	65.179324 
1357.000000	65.180516 
1356.000000	65.184187 
1355.000000	65.188765 
1354.000000	65.192675 
1353.000000	65.194582 
1352.000000	65.194010 
1351.000000	65.191292 
1350.000000	65.187263 
1349.000000	65.183305 
1348.000000	65.180420 
1347.000000	65.179204 
1346.000000	65.179705 
1345.000000	65.181446 
1344.000000	65.183496 
1343.000000	65.184855 
1342.000000	65.184926 
1341.000000	65.183615 
1340.000000	65.181207 
1339.000000	65.178203 
1338.000000	65.175104 
1337.000000	65.171957 
1336.000000	65.168595 
1335.000000	65.164375 
1334.000000	65.158629 
1333.000000	65.150833 
1332.000000	65.140962 
1331.000000	65.129685 
1330.000000	65.118217 
1329.000000	65.108227 
1328.000000	65.101122 
1327.000000	65.097880 
1326.000000	65.098500 
1325.000000	65.102171 
1324.000000	65.107274 
1323.000000	65.111947 
1322.000000	65.114402 
1321.000000	65.113377 
1320.000000	65.108561 
1319.000000	65.100240 
1318.000000	65.089607 
1317.000000	65.078091 
1316.000000	65.067481 
1315.000000	65.059304 
1314.000000	65.054869 
1313.000000	65.055298 
1312.000000	65.060925 
1311.000000	65.071630 
1310.000000	65.086603 
1309.000000	65.104436 
1308.000000	65.123224 
1307.000000	65.140819 
1306.000000	65.155053 
1305.000000	65.164232 
1304.000000	65.167212 
1303.000000	65.163731 
1302.000000	65.154623 
1301.000000	65.141296 
1300.000000	65.125989 
1299.000000	65.110850 
1298.000000	65.098023 
1297.000000	65.088796 
1296.000000	65.083718 
1295.000000	65.082550 
1294.000000	65.084290 
1293.000000	65.087938 
1292.000000	65.092444 
1291.000000	65.097427 
1290.000000	65.102910 
1289.000000	65.109562 
1288.000000	65.118145 
1287.000000	65.129470 
1286.000000	65.143609 
1285.000000	65.160059 
1284.000000	65.177440 
1283.000000	65.193867 
1282.000000	65.207314 
1281.000000	65.216207 
1280.000000	65.219664 
1279.000000	65.217828 
1278.000000	65.211582 
1277.000000	65.202546 
1276.000000	65.192556 
1275.000000	65.183138 
1274.000000	65.175271 
1273.000000	65.169191 
1272.000000	65.164637 
1271.000000	65.160965 
1270.000000	65.157532 
1269.000000	65.154147 
1268.000000	65.150928 
1267.000000	65.148544 
1266.000000	65.147781 
1265.000000	65.149354 
1264.000000	65.153503 
1263.000000	65.159797 
1262.000000	65.167284 
1261.000000	65.174722 
1260.000000	65.180659 
1259.000000	65.183949 
1258.000000	65.183687 
1257.000000	65.179491 
1256.000000	65.171408 
1255.000000	65.159749 
1254.000000	65.145254 
1253.000000	65.128779 
1252.000000	65.111589 
1251.000000	65.095043 
1250.000000	65.080714 
1249.000000	65.070271 
1248.000000	65.065169 
1247.000000	65.066432 
1246.000000	65.074300 
1245.000000	65.088343 
1244.000000	65.107297 
1243.000000	65.128993 
1242.000000	65.150976 
1241.000000	65.170788 
1240.000000	65.186452 
1239.000000	65.196633 
1238.000000	65.200805 
1237.000000	65.199327 
1236.000000	65.193247 
1235.000000	65.183997 
1234.000000	65.173077 
1233.000000	65.161943 
1232.000000	65.151786 
1231.000000	65.143418 
1230.000000	65.137290 
1229.000000	65.133476 
1228.000000	65.131831 
1227.000000	65.131998 
1226.000000	65.133547 
1225.000000	65.135788 
1224.000000	65.138006 
1223.000000	65.139365 
1222.000000	65.138959 
1221.000000	65.136027 
1220.000000	65.130066 
1219.000000	65.120959 
1218.000000	65.109133 
1217.000000	65.095496 
1216.000000	65.081262 
1215.000000	65.067911 
1214.000000	65.056848 
1213.000000	65.049028 
1212.000000	65.045070 
1211.000000	65.044975 
1210.000000	65.048336 
1209.000000	65.054321 
1208.000000	65.062141 
1207.000000	65.071225 
1206.000000	65.081071 
1205.000000	65.091490 
1204.000000	65.102100 
1203.000000	65.112495 
1202.000000	65.121865 
1201.000000	65.129280 
1200.000000	65.133357 
1199.000000	65.132904 
1198.000000	65.127038 
1197.000000	65.115427 
1196.000000	65.098619 
1195.000000	65.077900 
1194.000000	65.055036 
1193.000000	65.032100 
1192.000000	65.011072 
1191.000000	64.993667 
1190.000000	64.980959 
1189.000000	64.973306 
1188.000000	64.970636 
1187.000000	64.972496 
1186.000000	64.978170 
1185.000000	64.986801 
1184.000000	64.997267 
1183.000000	65.008449 
1182.000000	65.019011 
1181.000000	65.027856 
1180.000000	65.033841 
1179.000000	65.036368 
1178.000000	65.035343 
1177.000000	65.031385 
1176.000000	65.025639 
1175.000000	65.019607 
1174.000000	65.014791 
1173.000000	65.012168 
1172.000000	65.012121 
1171.000000	65.014123 
1170.000000	65.016698 
1169.000000	65.017890 
1168.000000	65.015745 
1167.000000	65.008687 
1166.000000	64.995908 
1165.000000	64.977407 
1164.000000	64.954042 
1163.000000	64.927411 
1162.000000	64.899706 
1161.000000	64.873170 
1160.000000	64.849901 
1159.000000	64.831781 
1158.000000	64.820003 
1157.000000	64.814782 
1156.000000	64.815545 
1155.000000	64.821100 
1154.000000	64.830017 
1153.000000	64.840912 
1152.000000	64.852809 
1151.000000	64.865112 
1150.000000	64.877605 
1149.000000	64.890074 
1148.000000	64.902210 
1147.000000	64.913153 
1146.000000	64.921689 
1145.000000	64.926433 
1144.000000	64.926314 
1143.000000	64.920806 
1142.000000	64.910459 
1141.000000	64.896893 
1140.000000	64.882683 
1139.000000	64.870953 
1138.000000	64.864444 
1137.000000	64.865112 
1136.000000	64.873647 
1135.000000	64.889621 
1134.000000	64.911699 
1133.000000	64.937925 
1132.000000	64.966511 
1131.000000	64.995789 
1130.000000	65.024280 
1129.000000	65.050578 
1128.000000	65.073466 
1127.000000	65.091514 
1126.000000	65.103244 
1125.000000	65.107226 
1124.000000	65.102839 
1123.000000	65.089845 
1122.000000	65.068697 
1121.000000	65.040588 
1120.000000	65.007376 
1119.000000	64.971113 
1118.000000	64.934158 
1117.000000	64.898633 
1116.000000	64.866399 
1115.000000	64.839100 
1114.000000	64.818239 
1113.000000	64.804768 
1112.000000	64.799356 
1111.000000	64.802050 
1110.000000	64.812564 
1109.000000	64.829587 
1108.000000	64.851236 
1107.000000	64.874887 
1106.000000	64.897847 
1105.000000	64.917492 
1104.000000	64.932060 
1103.000000	64.940881 
1102.000000	64.944863 
1101.000000	64.945888 
1100.000000	64.946937 
1099.000000	64.951419 
1098.000000	64.962196 
1097.000000	64.981055 
1096.000000	65.007829 
1095.000000	65.040421 
1094.000000	65.074896 
1093.000000	65.106272 
1092.000000	65.129160 
1091.000000	65.138792 
1090.000000	65.132212 
1089.000000	65.108752 
1088.000000	65.070295 
1087.000000	65.020990 
1086.000000	64.966678 
1085.000000	64.913916 
1084.000000	64.869093 
1083.000000	64.837098 
1082.000000	64.821028 
1081.000000	64.821219 
1080.000000	64.835643 
1079.000000	64.860033 
1078.000000	64.888572 
1077.000000	64.915227 
1076.000000	64.934849 
1075.000000	64.943909 
1074.000000	64.940977 
1073.000000	64.926981 
1072.000000	64.904642 
1071.000000	64.878177 
1070.000000	64.852023 
1069.000000	64.830303 
1068.000000	64.815878 
1067.000000	64.810132 
1066.000000	64.812874 
1065.000000	64.822411 
1064.000000	64.835977 
1063.000000	64.850258 
1062.000000	64.862012 
1061.000000	64.868712 
1060.000000	64.869141 
1059.000000	64.863252 
1058.000000	64.852261 
1057.000000	64.838457 
1056.000000	64.824318 
1055.000000	64.812564 
1054.000000	64.804625 
1053.000000	64.800500 
1052.000000	64.798736 
1051.000000	64.796948 
1050.000000	64.792633 
1049.000000	64.783740 
1048.000000	64.769935 
1047.000000	64.752697 
1046.000000	64.735579 
1045.000000	64.722871 
1044.000000	64.718914 
1043.000000	64.726662 
1042.000000	64.746999 
1041.000000	64.778280 
1040.000000	64.816641 
1039.000000	64.856672 
1038.000000	64.892220 
1037.000000	64.917731 
1036.000000	64.929175 
1035.000000	64.924836 
1034.000000	64.905190 
1033.000000	64.872694 
1032.000000	64.831089 
1031.000000	64.784812 
1030.000000	64.738202 
1029.000000	64.695000 
1028.000000	64.658093 
1027.000000	64.629793 
1026.000000	64.611959 
1025.000000	64.606142 
1024.000000	64.613580 
1023.000000	64.635086 
1022.000000	64.670157 
1021.000000	64.717030 
1020.000000	64.772319 
1019.000000	64.831018 
1018.000000	64.886879 
1017.000000	64.933681 
1016.000000	64.966058 
1015.000000	64.980673 
1014.000000	64.976930 
1013.000000	64.957404 
1012.000000	64.927434 
1011.000000	64.894032 
1010.000000	64.864516 
1009.000000	64.845204 
1008.000000	64.839792 
1007.000000	64.849305 
1006.000000	64.871430 
1005.000000	64.901351 
1004.000000	64.932727 
1003.000000	64.959049 
1002.000000	64.975023 
1001.000000	64.977216 
1000.000000	64.965295 
999.000000	 64.941453 
998.000000	 64.910435 
997.000000	 64.878225 
996.000000	 64.851021 
995.000000	 64.833998 
994.000000	 64.830493 
993.000000	 64.841723 
992.000000	 64.866662 
991.000000	 64.902710 
990.000000	 64.946150 
989.000000	 64.992880 
988.000000	 65.039324 
987.000000	 65.082931 
986.000000	 65.121746 
985.000000	 65.154266 
984.000000	 65.179491 
983.000000	 65.196561 
982.000000	 65.204620 
981.000000	 65.202879 
980.000000	 65.191197 
979.000000	 65.170049 
978.000000	 65.141081 
977.000000	 65.106391 
976.000000	 65.068531 
975.000000	 65.029716 
974.000000	 64.991784 
973.000000	 64.956283 
972.000000	 64.924454 
971.000000	 64.897823 
970.000000	 64.877963 
969.000000	 64.866733 
968.000000	 64.865779 
967.000000	 64.876127 
966.000000	 64.897346 
965.000000	 64.927172 
964.000000	 64.961338 
963.000000	 64.994120 
962.000000	 65.019583 
961.000000	 65.032434 
960.000000	 65.029168 
959.000000	 65.008997 
958.000000	 64.973711 
957.000000	 64.926886 
956.000000	 64.873003 
955.000000	 64.816617 
954.000000	 64.761686 
953.000000	 64.710855 
952.000000	 64.666008 
951.000000	 64.628720 
950.000000	 64.600396 
949.000000	 64.582395 
948.000000	 64.575767 
947.000000	 64.580941 
946.000000	 64.597225 
945.000000	 64.622282 
944.000000	 64.652729 
943.000000	 64.684057 
942.000000	 64.712142 
941.000000	 64.733624 
940.000000	 64.746856 
939.000000	 64.751791 
938.000000	 64.750337 
937.000000	 64.745640 
936.000000	 64.740920 
935.000000	 64.738512 
934.000000	 64.740228 
933.000000	 64.747428 
932.000000	 64.760804 
931.000000	 64.780426 
930.000000	 64.807343 
929.000000	 64.843201 
928.000000	 64.889335 
927.000000	 64.945840 
926.000000	 65.011596 
925.000000	 65.083384 
924.000000	 65.156173 
923.000000	 65.223574 
922.000000	 65.279269 
921.000000	 65.317893 
920.000000	 65.337133 
919.000000	 65.336990 
918.000000	 65.320563 
917.000000	 65.292000 
916.000000	 65.256834 
915.000000	 65.218901 
914.000000	 65.180587 
913.000000	 65.141105 
912.000000	 65.098977 
911.000000	 65.050101 
910.000000	 64.990258 
909.000000	 64.914894 
908.000000	 64.821386 
907.000000	 64.707446 
906.000000	 64.572215 
905.000000	 64.416003 
904.000000	 64.241003 
903.000000	 64.051342 
902.000000	 63.853526 
901.000000	 63.656187 
900.000000	 63.469743 
899.000000	 63.305306 
898.000000	 63.173556 
897.000000	 63.081741 
896.000000	 63.033318 
895.000000	 63.025975 
894.000000	 63.053536 
893.000000	 63.105177 
892.000000	 63.170027 
891.000000	 63.237166 
890.000000	 63.300132 
889.000000	 63.355445 
888.000000	 63.405323 
887.000000	 63.454365 
886.000000	 63.509607 
885.000000	 63.576936 
884.000000	 63.660359 
883.000000	 63.760352 
882.000000	 63.873982 
881.000000	 63.996028 
880.000000	 64.118862 
879.000000	 64.234042 
878.000000	 64.333105 
877.000000	 64.409422 
876.000000	 64.457297 
875.000000	 64.473176 
874.000000	 64.456605 
873.000000	 64.411044 
872.000000	 64.343214 
871.000000	 64.263200 
870.000000	 64.184522 
869.000000	 64.121699 
868.000000	 64.087629 
867.000000	 64.091014 
866.000000	 64.135169 
865.000000	 64.216613 
864.000000	 64.325523 
863.000000	 64.447474 
862.000000	 64.566111 
861.000000	 64.666652 
860.000000	 64.738535 
859.000000	 64.777135 
858.000000	 64.783573 
857.000000	 64.763760 
856.000000	 64.726638 
855.000000	 64.681553 
854.000000	 64.636230 
853.000000	 64.595746 
852.000000	 64.562606 
851.000000	 64.536952 
850.000000	 64.518117 
849.000000	 64.505648 
848.000000	 64.500236 
847.000000	 64.503026 
846.000000	 64.515280 
845.000000	 64.537358 
844.000000	 64.568161 
843.000000	 64.604306 
842.000000	 64.640760 
841.000000	 64.671778 
840.000000	 64.692020 
839.000000	 64.697933 
838.000000	 64.688301 
837.000000	 64.664268 
836.000000	 64.629411 
835.000000	 64.588499 
834.000000	 64.547395 
833.000000	 64.512348 
832.000000	 64.488649 
831.000000	 64.480018 
830.000000	 64.487576 
829.000000	 64.510416 
828.000000	 64.544439 
827.000000	 64.583063 
826.000000	 64.618635 
825.000000	 64.643931 
824.000000	 64.653944 
823.000000	 64.646911 
822.000000	 64.625024 
821.000000	 64.593696 
820.000000	 64.560747 
819.000000	 64.534306 
818.000000	 64.520931 
817.000000	 64.523816 
816.000000	 64.542126 
815.000000	 64.571094 
814.000000	 64.603590 
813.000000	 64.631581 
812.000000	 64.648365 
811.000000	 64.649510 
810.000000	 64.634013 
809.000000	 64.603805 
808.000000	 64.562678 
807.000000	 64.515209 
806.000000	 64.465522 
805.000000	 64.416503 
804.000000	 64.369678 
803.000000	 64.325499 
802.000000	 64.283967 
801.000000	 64.245390 
800.000000	 64.211034 
799.000000	 64.182972 
798.000000	 64.163708 
797.000000	 64.155459 
796.000000	 64.159250 
795.000000	 64.174628 
794.000000	 64.199471 
793.000000	 64.230179 
792.000000	 64.262318 
791.000000	 64.291167 
790.000000	 64.312839 
789.000000	 64.324617 
788.000000	 64.325571 
787.000000	 64.316368 
786.000000	 64.299082 
785.000000	 64.276647 
784.000000	 64.252305 
783.000000	 64.229154 
782.000000	 64.209485 
781.000000	 64.194583 
780.000000	 64.184808 
779.000000	 64.180111 
778.000000	 64.179706 
777.000000	 64.182734 
776.000000	 64.188265 
775.000000	 64.195203 
774.000000	 64.202618 
773.000000	 64.209413 
772.000000	 64.214754 
771.000000	 64.218068 
770.000000	 64.219403 
769.000000	 64.219427 
768.000000	 64.219570 
767.000000	 64.221692 
766.000000	 64.227795 
765.000000	 64.239335 
764.000000	 64.256453 
763.000000	 64.277386 
762.000000	 64.298915 
761.000000	 64.316606 
760.000000	 64.325904 
759.000000	 64.323115 
758.000000	 64.306545 
757.000000	 64.276456 
756.000000	 64.235568 
755.000000	 64.187979 
754.000000	 64.138579 
753.000000	 64.091515 
752.000000	 64.049816 
751.000000	 64.014148 
750.000000	 63.983702 
749.000000	 63.955879 
748.000000	 63.927268 
747.000000	 63.894724 
746.000000	 63.856363 
745.000000	 63.812232 
744.000000	 63.764548 
743.000000	 63.717365 
742.000000	 63.675618 
741.000000	 63.644599 
740.000000	 63.628530 
739.000000	 63.629651 
738.000000	 63.647651 
737.000000	 63.679909 
736.000000	 63.722181 
735.000000	 63.768768 
734.000000	 63.813972 
733.000000	 63.853573 
732.000000	 63.884973 
731.000000	 63.907027 
730.000000	 63.920044 
729.000000	 63.925147 
728.000000	 63.923716 
727.000000	 63.916850 
726.000000	 63.905763 
725.000000	 63.891744 
724.000000	 63.876795 
723.000000	 63.864207 
722.000000	 63.857436 
721.000000	 63.859796 
720.000000	 63.873362 
719.000000	 63.898730 
718.000000	 63.934111 
717.000000	 63.975501 
716.000000	 64.017438 
715.000000	 64.054059 
714.000000	 64.080452 
713.000000	 64.093136 
712.000000	 64.090895 
711.000000	 64.073991 
710.000000	 64.043974 
709.000000	 64.002394 
708.000000	 63.950419 
707.000000	 63.888287 
706.000000	 63.816046 
705.000000	 63.733935 
704.000000	 63.643431 
703.000000	 63.548207 
702.000000	 63.454055 
701.000000	 63.368749 
700.000000	 63.300299 
699.000000	 63.256144 
698.000000	 63.240981 
697.000000	 63.256359 
696.000000	 63.299679 
695.000000	 63.365149 
694.000000	 63.444161 
693.000000	 63.527154 
692.000000	 63.604831 
691.000000	 63.669347 
690.000000	 63.715076 
689.000000	 63.738751 
688.000000	 63.739323 
687.000000	 63.717913 
686.000000	 63.676953 
685.000000	 63.620376 
684.000000	 63.552856 
683.000000	 63.480067 
682.000000	 63.407874 
681.000000	 63.342070 
680.000000	 63.287377 
679.000000	 63.246965 
678.000000	 63.222241 
677.000000	 63.212347 
676.000000	 63.215565 
675.000000	 63.229250 
674.000000	 63.251352 
673.000000	 63.280463 
672.000000	 63.316106 
671.000000	 63.357639 
670.000000	 63.404178 
669.000000	 63.453769 
668.000000	 63.503098 
667.000000	 63.547754 
666.000000	 63.583064 
665.000000	 63.604879 
664.000000	 63.610720 
663.000000	 63.600611 
662.000000	 63.576650 
661.000000	 63.542652 
660.000000	 63.503503 
659.000000	 63.463950 
658.000000	 63.427710 
657.000000	 63.396883 
656.000000	 63.371825 
655.000000	 63.351464 
654.000000	 63.334631 
653.000000	 63.319802 
652.000000	 63.305616 
651.000000	 63.291263 
650.000000	 63.276290 
649.000000	 63.261270 
648.000000	 63.246917 
647.000000	 63.234782 
646.000000	 63.226318 
645.000000	 63.222789 
644.000000	 63.225102 
643.000000	 63.232946 
642.000000	 63.244700 
641.000000	 63.257384 
640.000000	 63.267278 
639.000000	 63.270235 
638.000000	 63.262653 
637.000000	 63.242483 
636.000000	 63.209772 
635.000000	 63.166952 
634.000000	 63.118433 
633.000000	 63.070273 
632.000000	 63.029193 
631.000000	 63.001275 
630.000000	 62.991023 
629.000000	 63.000607 
628.000000	 63.029479 
627.000000	 63.074803 
626.000000	 63.131356 
625.000000	 63.192772 
624.000000	 63.251900 
623.000000	 63.301873 
622.000000	 63.336801 
621.000000	 63.352084 
620.000000	 63.345456 
619.000000	 63.316869 
618.000000	 63.269114 
617.000000	 63.207769 
616.000000	 63.140201 
615.000000	 63.074946 
614.000000	 63.019561 
613.000000	 62.979722 
612.000000	 62.957525 
611.000000	 62.951731 
610.000000	 62.957739 
609.000000	 62.969112 
608.000000	 62.978982 
607.000000	 62.981796 
606.000000	 62.974834 
605.000000	 62.958621 
604.000000	 62.936162 
603.000000	 62.911701 
602.000000	 62.889313 
601.000000	 62.871742 
600.000000	 62.859511 
599.000000	 62.851285 
598.000000	 62.844896 
597.000000	 62.837958 
596.000000	 62.829422 
595.000000	 62.819218 
594.000000	 62.808012 
593.000000	 62.796616 
592.000000	 62.784719 
591.000000	 62.771582 
590.000000	 62.755560 
589.000000	 62.735629 
588.000000	 62.711858 
587.000000	 62.685847 
586.000000	 62.660646 
585.000000	 62.640118 
584.000000	 62.628149 
583.000000	 62.626409 
582.000000	 62.633705 
581.000000	 62.645649 
580.000000	 62.655591 
579.000000	 62.655758 
578.000000	 62.639355 
577.000000	 62.602615 
576.000000	 62.546229 
575.000000	 62.475442 
574.000000	 62.399458 
573.000000	 62.329053 
572.000000	 62.274742 
571.000000	 62.244367 
570.000000	 62.241768 
569.000000	 62.265801 
568.000000	 62.311077 
567.000000	 62.369060 
566.000000	 62.430381 
565.000000	 62.486028 
564.000000	 62.529993 
563.000000	 62.559819 
562.000000	 62.576794 
561.000000	 62.584590 
560.000000	 62.587833 
559.000000	 62.590289 
558.000000	 62.593841 
557.000000	 62.598061 
556.000000	 62.601256 
555.000000	 62.601613 
554.000000	 62.598156 
553.000000	 62.591481 
552.000000	 62.583994 
551.000000	 62.579035 
550.000000	 62.579512 
549.000000	 62.586522 
548.000000	 62.599110 
547.000000	 62.613677 
546.000000	 62.624979 
545.000000	 62.626981 
544.000000	 62.614893 
543.000000	 62.585854 
542.000000	 62.539958 
541.000000	 62.479782 
540.000000	 62.409377 
539.000000	 62.333822 
538.000000	 62.258148 
537.000000	 62.186717 
536.000000	 62.123227 
535.000000	 62.069916 
534.000000	 62.028217 
533.000000	 61.997628 
532.000000	 61.976432 
531.000000	 61.960721 
530.000000	 61.945247 
529.000000	 61.923694 
528.000000	 61.889839 
527.000000	 61.839270 
526.000000	 61.770176 
525.000000	 61.684751 
524.000000	 61.588382 
523.000000	 61.488866 
522.000000	 61.394143 
521.000000	 61.310100 
520.000000	 61.239600 
519.000000	 61.180973 
518.000000	 61.130523 
517.000000	 61.084508 
516.000000	 61.041545 
515.000000	 61.003494 
514.000000	 60.975098 
513.000000	 60.961961 
512.000000	 60.968971 
511.000000	 60.995912 
510.000000	 61.039352 
509.000000	 61.091923 
508.000000	 61.145329 
507.000000	 61.191916 
506.000000	 61.226916 
505.000000	 61.249041 
504.000000	 61.260867 
503.000000	 61.267518 
502.000000	 61.275076 
501.000000	 61.288094 
500.000000	 61.309194 
499.000000	 61.338043 
498.000000	 61.370205 
497.000000	 61.397886 
496.000000	 61.412358 
495.000000	 61.405682 
494.000000	 61.372613 
493.000000	 61.311340 
492.000000	 61.224889 
491.000000	 61.119747 
490.000000	 61.004495 
489.000000	 60.887384 
488.000000	 60.775756 
487.000000	 60.673499 
486.000000	 60.581183 
485.000000	 60.496234 
484.000000	 60.414433 
483.000000	 60.331559 
482.000000	 60.244631 
481.000000	 60.154080 
480.000000	 60.061764 
479.000000	 59.974169 
478.000000	 59.900450 
477.000000	 59.851431 
476.000000	 59.835457 
475.000000	 59.859418 
474.000000	 59.926176 
473.000000	 60.034132 
472.000000	 60.176634 
471.000000	 60.342550 
470.000000	 60.517168 
469.000000	 60.684347 
468.000000	 60.828423 
467.000000	 60.936260 
466.000000	 60.999155 
465.000000	 61.013031 
464.000000	 60.979795 
463.000000	 60.907959 
462.000000	 60.810756 
461.000000	 60.705947 
460.000000	 60.610198 
459.000000	 60.538196 
458.000000	 60.496306 
457.000000	 60.486459 
456.000000	 60.498857 
455.000000	 60.515761 
454.000000	 60.512948 
453.000000	 60.466885 
452.000000	 60.358977 
451.000000	 60.179686 
450.000000	 59.934306 
449.000000	 59.641432 
448.000000	 59.334659 
447.000000	 59.055638 
446.000000	 58.846640 
445.000000	 58.740067 
444.000000	 58.750343 
443.000000	 58.868908 
442.000000	 59.063863 
441.000000	 59.286594 
440.000000	 59.481072 
439.000000	 59.597563 
438.000000	 59.603333 
437.000000	 59.491848 
436.000000	 59.278869 
435.000000	 59.003734 
434.000000	 58.715271 
433.000000	 58.467125 
432.000000	 58.305740 
431.000000	 58.262920 
430.000000	 58.355045 
429.000000	 58.574604 
428.000000	 58.892941 
427.000000	 59.264898 
426.000000	 59.639477 
425.000000	 59.966516 
424.000000	 60.207557 
423.000000	 60.335803 
422.000000	 60.335016 
421.000000	 60.209846 
420.000000	 59.985756 
419.000000	 59.694004 
418.000000	 59.366035 
417.000000	 59.037947 
416.000000	 58.747434 
415.000000	 58.532953 
414.000000	 58.429455 
413.000000	 58.465456 
412.000000	 58.655190 
411.000000	 58.993649 
410.000000	 59.453320 
409.000000	 59.982514 
408.000000	 60.518765 
407.000000	 60.984492 
406.000000	 61.323618 
405.000000	 61.514759 
404.000000	 61.582612 
403.000000	 61.590695 
402.000000	 61.621737 
401.000000	 61.773562 
400.000000	 62.091183 
399.000000	 62.576675 
398.000000	 63.119578 
397.000000	 63.525366 
396.000000	 63.535380 
395.000000	 62.899065 
394.000000	 61.442923 
393.000000	 59.132528 
392.000000	 56.113958 
391.000000	 52.702903 
390.000000	 49.310374 
389.000000	 46.359610 
388.000000	 44.203782 
387.000000	 43.052411 
386.000000	 42.936730 
385.000000	 43.703675 
384.000000	 45.094347 
383.000000	 46.768879 
382.000000	 48.360776 
381.000000	 49.542570 
380.000000	 50.025892 
379.000000	 49.658799 
378.000000	 48.431921 
377.000000	 46.498370 
376.000000	 44.122529 
375.000000	 41.645693 
374.000000	 39.395236 
373.000000	 37.656807 
372.000000	 36.632132 
371.000000	 36.415362 
370.000000	 36.988496 

