PE IR       SPECTRUM    SPECTRUM    ASCII       PEDS        1.60        
  -1
C-9A6E~1.ASC
17/05/02
13:06:38.00
17/05/02
13:06:38.00
tln
$C-4040-8_t0026$<tbV0>[7.5,7.0,8.0,0.0,22,1,0]
370.000000
64









2002,4.07    
MIRTGS : RIGHTBACK : INTERNAL 2
MIR : ON : INTERNAL 2
OPTKBR

0.200000
8
8.000000
FILLER
RATIO
SPECTRUM
UNLOCKED 256

DOUBLE
64
COMBINED
1
0
0


1.000000
RATIO


1
0
TRUE
51149
0
LEFT NOT FITTED RIGHT NOT FITTED 0
NONE
NONE
15600
12.000000
4.427000
51148
TRUE
1 0 8 72 0 0 0 0 

15798.010000






#HDR
-1
-1
#GR
CM-1
%T
0.00002384185791015625
0.0
7800.000000
-1.000000
7431
8
79.033470
36.098194
#DATA
7800.000000	71.985912 
7799.000000	73.196625 
7798.000000	74.348306 
7797.000000	75.204825 
7796.000000	75.560450 
7795.000000	75.294494 
7794.000000	74.420142 
7793.000000	73.092579 
7792.000000	71.545839 
7791.000000	70.038533 
7790.000000	68.785810 
7789.000000	67.919635 
7788.000000	67.476129 
7787.000000	67.409515 
7786.000000	67.641878 
7785.000000	68.088674 
7784.000000	68.688726 
7783.000000	69.407510 
7782.000000	70.218181 
7781.000000	71.093559 
7780.000000	71.981406 
7779.000000	72.801661 
7778.000000	73.458099 
7777.000000	73.839688 
7776.000000	73.848772 
7775.000000	73.416709 
7774.000000	72.535467 
7773.000000	71.254873 
7772.000000	69.686770 
7771.000000	67.980575 
7770.000000	66.303467 
7769.000000	64.803600 
7768.000000	63.587498 
7767.000000	62.710404 
7766.000000	62.176322 
7765.000000	61.949539 
7764.000000	61.970710 
7763.000000	62.167477 
7762.000000	62.471079 
7761.000000	62.812447 
7760.000000	63.138628 
7759.000000	63.403630 
7758.000000	63.586425 
7757.000000	63.681364 
7756.000000	63.709330 
7755.000000	63.715219 
7754.000000	63.753318 
7753.000000	63.878226 
7752.000000	64.120388 
7751.000000	64.474749 
7750.000000	64.899873 
7749.000000	65.325808 
7748.000000	65.678811 
7747.000000	65.894699 
7746.000000	65.956592 
7745.000000	65.902018 
7744.000000	65.820908 
7743.000000	65.831851 
7742.000000	66.049742 
7741.000000	66.549944 
7740.000000	67.344260 
7739.000000	68.373584 
7738.000000	69.506645 
7737.000000	70.570921 
7736.000000	71.403145 
7735.000000	71.889925 
7734.000000	71.993565 
7733.000000	71.759057 
7732.000000	71.304273 
7731.000000	70.781373 
7730.000000	70.333814 
7729.000000	70.057463 
7728.000000	69.981837 
7727.000000	70.066070 
7726.000000	70.236539 
7725.000000	70.394945 
7724.000000	70.472741 
7723.000000	70.419478 
7722.000000	70.218062 
7721.000000	69.870781 
7720.000000	69.378948 
7719.000000	68.755865 
7718.000000	68.017911 
7717.000000	67.200326 
7716.000000	66.355800 
7715.000000	65.561842 
7714.000000	64.912247 
7713.000000	64.502787 
7712.000000	64.410567 
7711.000000	64.682531 
7710.000000	65.320229 
7709.000000	66.275382 
7708.000000	67.452812 
7707.000000	68.719959 
7706.000000	69.931101 
7705.000000	70.944809 
7704.000000	71.655654 
7703.000000	72.015333 
7702.000000	72.038340 
7701.000000	71.796202 
7700.000000	71.392822 
7699.000000	70.944285 
7698.000000	70.541954 
7697.000000	70.247006 
7696.000000	70.066213 
7695.000000	69.968795 
7694.000000	69.891309 
7693.000000	69.770216 
7692.000000	69.556498 
7691.000000	69.234061 
7690.000000	68.825268 
7689.000000	68.382596 
7688.000000	67.977714 
7687.000000	67.677998 
7686.000000	67.537188 
7685.000000	67.580342 
7684.000000	67.807722 
7683.000000	68.195009 
7682.000000	68.705558 
7681.000000	69.294238 
7680.000000	69.911146 
7679.000000	70.503497 
7678.000000	71.015930 
7677.000000	71.394777 
7676.000000	71.594595 
7675.000000	71.583867 
7674.000000	71.351504 
7673.000000	70.910692 
7672.000000	70.305609 
7671.000000	69.600653 
7670.000000	68.873763 
7669.000000	68.201637 
7668.000000	67.650294 
7667.000000	67.263412 
7666.000000	67.057657 
7665.000000	67.024731 
7664.000000	67.139315 
7663.000000	67.361831 
7662.000000	67.646384 
7661.000000	67.946052 
7660.000000	68.217563 
7659.000000	68.424844 
7658.000000	68.541455 
7657.000000	68.557643 
7656.000000	68.481111 
7655.000000	68.343019 
7654.000000	68.190813 
7653.000000	68.077588 
7652.000000	68.049120 
7651.000000	68.134522 
7650.000000	68.336701 
7649.000000	68.635344 
7648.000000	68.987131 
7647.000000	69.337463 
7646.000000	69.629049 
7645.000000	69.821786 
7644.000000	69.888257 
7643.000000	69.826626 
7642.000000	69.640350 
7641.000000	69.333720 
7640.000000	68.904376 
7639.000000	68.346190 
7638.000000	67.654466 
7637.000000	66.834712 
7636.000000	65.915966 
7635.000000	64.957785 
7634.000000	64.041376 
7633.000000	63.257336 
7632.000000	62.691044 
7631.000000	62.403607 
7630.000000	62.433123 
7629.000000	62.784481 
7628.000000	63.430523 
7627.000000	64.310145 
7626.000000	65.329861 
7625.000000	66.374397 
7624.000000	67.313218 
7623.000000	68.027544 
7622.000000	68.424367 
7621.000000	68.462657 
7620.000000	68.161988 
7619.000000	67.601847 
7618.000000	66.904783 
7617.000000	66.212058 
7616.000000	65.657997 
7615.000000	65.340900 
7614.000000	65.311264 
7613.000000	65.560436 
7612.000000	66.037750 
7611.000000	66.655230 
7610.000000	67.311453 
7609.000000	67.911982 
7608.000000	68.389129 
7607.000000	68.703889 
7606.000000	68.843722 
7605.000000	68.822932 
7604.000000	68.672823 
7603.000000	68.430352 
7602.000000	68.130779 
7601.000000	67.810654 
7600.000000	67.505764 
7599.000000	67.258358 
7598.000000	67.110967 
7597.000000	67.098951 
7596.000000	67.241525 
7595.000000	67.540240 
7594.000000	67.972826 
7593.000000	68.480968 
7592.000000	68.994450 
7591.000000	69.445061 
7590.000000	69.787859 
7589.000000	70.004987 
7588.000000	70.117688 
7587.000000	70.173668 
7586.000000	70.242023 
7585.000000	70.389604 
7584.000000	70.671057 
7583.000000	71.111440 
7582.000000	71.709346 
7581.000000	72.439074 
7580.000000	73.258733 
7579.000000	74.121451 
7578.000000	74.977207 
7577.000000	75.777244 
7576.000000	76.471114 
7575.000000	77.004837 
7574.000000	77.318406 
7573.000000	77.347517 
7572.000000	77.035641 
7571.000000	76.342511 
7570.000000	75.266051 
7569.000000	73.844933 
7568.000000	72.161960 
7567.000000	70.336604 
7566.000000	68.510389 
7565.000000	66.831111 
7564.000000	65.430879 
7563.000000	64.411759 
7562.000000	63.826704 
7561.000000	63.681817 
7560.000000	63.932037 
7559.000000	64.498853 
7558.000000	65.272307 
7557.000000	66.142320 
7556.000000	67.005705 
7555.000000	67.782354 
7554.000000	68.410634 
7553.000000	68.856287 
7552.000000	69.104433 
7551.000000	69.154334 
7550.000000	69.012498 
7549.000000	68.695712 
7548.000000	68.230795 
7547.000000	67.657208 
7546.000000	67.025661 
7545.000000	66.401886 
7544.000000	65.854430 
7543.000000	65.445804 
7542.000000	65.217208 
7541.000000	65.174603 
7540.000000	65.291905 
7539.000000	65.511131 
7538.000000	65.767765 
7537.000000	65.997242 
7536.000000	66.165685 
7535.000000	66.277933 
7534.000000	66.373062 
7533.000000	66.505765 
7532.000000	66.725301 
7531.000000	67.058372 
7530.000000	67.486000 
7529.000000	67.943406 
7528.000000	68.331980 
7527.000000	68.545293 
7526.000000	68.501615 
7525.000000	68.172168 
7524.000000	67.588424 
7523.000000	66.838145 
7522.000000	66.039657 
7521.000000	65.312910 
7520.000000	64.745306 
7519.000000	64.374923 
7518.000000	64.189624 
7517.000000	64.138960 
7516.000000	64.161300 
7515.000000	64.203834 
7514.000000	64.234614 
7513.000000	64.252638 
7512.000000	64.275813 
7511.000000	64.337110 
7510.000000	64.461851 
7509.000000	64.661192 
7508.000000	64.924550 
7507.000000	65.216851 
7506.000000	65.487432 
7505.000000	65.678858 
7504.000000	65.742111 
7503.000000	65.650153 
7502.000000	65.409374 
7501.000000	65.054106 
7500.000000	64.639163 
7499.000000	64.225840 
7498.000000	63.867306 
7497.000000	63.599991 
7496.000000	63.438558 
7495.000000	63.377594 
7494.000000	63.397479 
7493.000000	63.476872 
7492.000000	63.599228 
7491.000000	63.750243 
7490.000000	63.921356 
7489.000000	64.104413 
7488.000000	64.293909 
7487.000000	64.479470 
7486.000000	64.653134 
7485.000000	64.808201 
7484.000000	64.943909 
7483.000000	65.073537 
7482.000000	65.210700 
7481.000000	65.372657 
7480.000000	65.558123 
7479.000000	65.748262 
7478.000000	65.898966 
7477.000000	65.950250 
7476.000000	65.843152 
7475.000000	65.535330 
7474.000000	65.026807 
7473.000000	64.365768 
7472.000000	63.651251 
7471.000000	63.013410 
7470.000000	62.590575 
7469.000000	62.496232 
7468.000000	62.792515 
7467.000000	63.471794 
7466.000000	64.459919 
7465.000000	65.627598 
7464.000000	66.815328 
7463.000000	67.862534 
7462.000000	68.638086 
7461.000000	69.059896 
7460.000000	69.103527 
7459.000000	68.799328 
7458.000000	68.215203 
7457.000000	67.442512 
7456.000000	66.579365 
7455.000000	65.715909 
7454.000000	64.928913 
7453.000000	64.275765 
7452.000000	63.803339 
7451.000000	63.540410 
7450.000000	63.502693 
7449.000000	63.687181 
7448.000000	64.069151 
7447.000000	64.605855 
7446.000000	65.234398 
7445.000000	65.888619 
7444.000000	66.503858 
7443.000000	67.034387 
7442.000000	67.456483 
7441.000000	67.774748 
7440.000000	68.013858 
7439.000000	68.209457 
7438.000000	68.392133 
7437.000000	68.580436 
7436.000000	68.769717 
7435.000000	68.936181 
7434.000000	69.038081 
7433.000000	69.038248 
7432.000000	68.905687 
7431.000000	68.628597 
7430.000000	68.214464 
7429.000000	67.692422 
7428.000000	67.106962 
7427.000000	66.505408 
7426.000000	65.938591 
7425.000000	65.449118 
7424.000000	65.075755 
7423.000000	64.850068 
7422.000000	64.794683 
7421.000000	64.919281 
7420.000000	65.217709 
7419.000000	65.666937 
7418.000000	66.220569 
7417.000000	66.811037 
7416.000000	67.356848 
7415.000000	67.773747 
7414.000000	67.989659 
7413.000000	67.956948 
7412.000000	67.661952 
7411.000000	67.126178 
7410.000000	66.400957 
7409.000000	65.557050 
7408.000000	64.671611 
7407.000000	63.816118 
7406.000000	63.052105 
7405.000000	62.421607 
7404.000000	61.950349 
7403.000000	61.643028 
7402.000000	61.486554 
7401.000000	61.454415 
7400.000000	61.505079 
7399.000000	61.599254 
7398.000000	61.695051 
7397.000000	61.770367 
7396.000000	61.813879 
7395.000000	61.840987 
7394.000000	61.880517 
7393.000000	61.975193 
7392.000000	62.165975 
7391.000000	62.480163 
7390.000000	62.919235 
7389.000000	63.460135 
7388.000000	64.058303 
7387.000000	64.660167 
7386.000000	65.213537 
7385.000000	65.682601 
7384.000000	66.050124 
7383.000000	66.311788 
7382.000000	66.471028 
7381.000000	66.531276 
7380.000000	66.493988 
7379.000000	66.360998 
7378.000000	66.137027 
7377.000000	65.842437 
7376.000000	65.506601 
7375.000000	65.172004 
7374.000000	64.879608 
7373.000000	64.664292 
7372.000000	64.542818 
7371.000000	64.509820 
7370.000000	64.541459 
7369.000000	64.596939 
7368.000000	64.640903 
7367.000000	64.652228 
7366.000000	64.636158 
7365.000000	64.619851 
7364.000000	64.650869 
7363.000000	64.780879 
7362.000000	65.052103 
7361.000000	65.481233 
7360.000000	66.060543 
7359.000000	66.755294 
7358.000000	67.515444 
7357.000000	68.280577 
7356.000000	68.989324 
7355.000000	69.582986 
7354.000000	70.014190 
7353.000000	70.245647 
7352.000000	70.255994 
7351.000000	70.035839 
7350.000000	69.597411 
7349.000000	68.964838 
7348.000000	68.180131 
7347.000000	67.291331 
7346.000000	66.359043 
7345.000000	65.440177 
7344.000000	64.586186 
7343.000000	63.836216 
7342.000000	63.216185 
7341.000000	62.738990 
7340.000000	62.405061 
7339.000000	62.206649 
7338.000000	62.127017 
7337.000000	62.147092 
7336.000000	62.244462 
7335.000000	62.398004 
7334.000000	62.586402 
7333.000000	62.802743 
7332.000000	63.053226 
7331.000000	63.356280 
7330.000000	63.734412 
7329.000000	64.207744 
7328.000000	64.781832 
7327.000000	65.437507 
7326.000000	66.130423 
7325.000000	66.799211 
7324.000000	67.376542 
7323.000000	67.804980 
7322.000000	68.050289 
7321.000000	68.113231 
7320.000000	68.025922 
7319.000000	67.850255 
7318.000000	67.654347 
7317.000000	67.497324 
7316.000000	67.413163 
7315.000000	67.410516 
7314.000000	67.467498 
7313.000000	67.544960 
7312.000000	67.598104 
7311.000000	67.597246 
7310.000000	67.525553 
7309.000000	67.383909 
7308.000000	67.185640 
7307.000000	66.950464 
7306.000000	66.697382 
7305.000000	66.439986 
7304.000000	66.185808 
7303.000000	65.937495 
7302.000000	65.699315 
7301.000000	65.478897 
7300.000000	65.284943 
7299.000000	65.128254 
7298.000000	65.019488 
7297.000000	64.968323 
7296.000000	64.973282 
7295.000000	65.028548 
7294.000000	65.125489 
7293.000000	65.254688 
7292.000000	65.406656 
7291.000000	65.571880 
7290.000000	65.740370 
7289.000000	65.900492 
7288.000000	66.036987 
7287.000000	66.134858 
7286.000000	66.179490 
7285.000000	66.165614 
7284.000000	66.099834 
7283.000000	66.001844 
7282.000000	65.901160 
7281.000000	65.830087 
7280.000000	65.815472 
7279.000000	65.869164 
7278.000000	65.983319 
7277.000000	66.128540 
7276.000000	66.259574 
7275.000000	66.326904 
7274.000000	66.288638 
7273.000000	66.121149 
7272.000000	65.825986 
7271.000000	65.428614 
7270.000000	64.975690 
7269.000000	64.518976 
7268.000000	64.112401 
7267.000000	63.800168 
7266.000000	63.614249 
7265.000000	63.570356 
7264.000000	63.668632 
7263.000000	63.894319 
7262.000000	64.222574 
7261.000000	64.622426 
7260.000000	65.059447 
7259.000000	65.496468 
7258.000000	65.898108 
7257.000000	66.232943 
7256.000000	66.473174 
7255.000000	66.596436 
7254.000000	66.588568 
7253.000000	66.445803 
7252.000000	66.175651 
7251.000000	65.795850 
7250.000000	65.334653 
7249.000000	64.824533 
7248.000000	64.297652 
7247.000000	63.778352 
7246.000000	63.282060 
7245.000000	62.813043 
7244.000000	62.364363 
7243.000000	61.927103 
7242.000000	61.491131 
7241.000000	61.061811 
7240.000000	60.653853 
7239.000000	60.305213 
7238.000000	60.060000 
7237.000000	59.973001 
7236.000000	60.087347 
7235.000000	60.431671 
7234.000000	61.003088 
7233.000000	61.769700 
7232.000000	62.670612 
7231.000000	63.624238 
7230.000000	64.539408 
7229.000000	65.331840 
7228.000000	65.937519 
7227.000000	66.320228 
7226.000000	66.474413 
7225.000000	66.423249 
7224.000000	66.210985 
7223.000000	65.893816 
7222.000000	65.528869 
7221.000000	65.168380 
7220.000000	64.852023 
7219.000000	64.610910 
7218.000000	64.462924 
7217.000000	64.412975 
7216.000000	64.454936 
7215.000000	64.577746 
7214.000000	64.765667 
7213.000000	64.997625 
7212.000000	65.249633 
7211.000000	65.498852 
7210.000000	65.719628 
7209.000000	65.882134 
7208.000000	65.958285 
7207.000000	65.925002 
7206.000000	65.771651 
7205.000000	65.504360 
7204.000000	65.147161 
7203.000000	64.740800 
7202.000000	64.333343 
7201.000000	63.973069 
7200.000000	63.692784 
7199.000000	63.503885 
7198.000000	63.396811 
7197.000000	63.347029 
7196.000000	63.320279 
7195.000000	63.285779 
7194.000000	63.225769 
7193.000000	63.143706 
7192.000000	63.060450 
7191.000000	63.012385 
7190.000000	63.035750 
7189.000000	63.161778 
7188.000000	63.402342 
7187.000000	63.752102 
7186.000000	64.189410 
7185.000000	64.681506 
7184.000000	65.192294 
7183.000000	65.687036 
7182.000000	66.139698 
7181.000000	66.530561 
7180.000000	66.846656 
7179.000000	67.078447 
7178.000000	67.219209 
7177.000000	67.264342 
7176.000000	67.215347 
7175.000000	67.077922 
7174.000000	66.865038 
7173.000000	66.598272 
7172.000000	66.308641 
7171.000000	66.030859 
7170.000000	65.799641 
7169.000000	65.645575 
7168.000000	65.589714 
7167.000000	65.641188 
7166.000000	65.792942 
7165.000000	66.024255 
7164.000000	66.299152 
7163.000000	66.572356 
7162.000000	66.793227 
7161.000000	66.911315 
7160.000000	66.887617 
7159.000000	66.700911 
7158.000000	66.356158 
7157.000000	65.881299 
7156.000000	65.328764 
7155.000000	64.765977 
7154.000000	64.265847 
7153.000000	63.890862 
7152.000000	63.687324 
7151.000000	63.679075 
7150.000000	63.862514 
7149.000000	64.208126 
7148.000000	64.667129 
7147.000000	65.180659 
7146.000000	65.686845 
7145.000000	66.129469 
7144.000000	66.465234 
7143.000000	66.667747 
7142.000000	66.729354 
7141.000000	66.659021 
7140.000000	66.479778 
7139.000000	66.221642 
7138.000000	65.921616 
7137.000000	65.612912 
7136.000000	65.322351 
7135.000000	65.064430 
7134.000000	64.845943 
7133.000000	64.663624 
7132.000000	64.510083 
7131.000000	64.375734 
7130.000000	64.251899 
7129.000000	64.134240 
7128.000000	64.022207 
7127.000000	63.919568 
7126.000000	63.829469 
7125.000000	63.755202 
7124.000000	63.695955 
7123.000000	63.649177 
7122.000000	63.610267 
7121.000000	63.573622 
7120.000000	63.533496 
7119.000000	63.485479 
7118.000000	63.427376 
7117.000000	63.358259 
7116.000000	63.279819 
7115.000000	63.193440 
7114.000000	63.102936 
7113.000000	63.019418 
7112.000000	62.960362 
7111.000000	62.947368 
7110.000000	63.000583 
7109.000000	63.132858 
7108.000000	63.343548 
7107.000000	63.617563 
7106.000000	63.924074 
7105.000000	64.220046 
7104.000000	64.458942 
7103.000000	64.602947 
7102.000000	64.628362 
7101.000000	64.531016 
7100.000000	64.326620 
7099.000000	64.046955 
7098.000000	63.733482 
7097.000000	63.428854 
7096.000000	63.169431 
7095.000000	62.980079 
7094.000000	62.872290 
7093.000000	62.846016 
7092.000000	62.888908 
7091.000000	62.981081 
7090.000000	63.093304 
7089.000000	63.192796 
7088.000000	63.245487 
7087.000000	63.225245 
7086.000000	63.117671 
7085.000000	62.927961 
7084.000000	62.683224 
7083.000000	62.429475 
7082.000000	62.222099 
7081.000000	62.113142 
7080.000000	62.141847 
7079.000000	62.320327 
7078.000000	62.629508 
7077.000000	63.020420 
7076.000000	63.426446 
7075.000000	63.775348 
7074.000000	64.008641 
7073.000000	64.088582 
7072.000000	64.005827 
7071.000000	63.776159 
7070.000000	63.434314 
7069.000000	63.023066 
7068.000000	62.581706 
7067.000000	62.144279 
7066.000000	61.736559 
7065.000000	61.381220 
7064.000000	61.101150 
7063.000000	60.917496 
7062.000000	60.849523 
7061.000000	60.911035 
7060.000000	61.107993 
7059.000000	61.429786 
7058.000000	61.853647 
7057.000000	62.343907 
7056.000000	62.862944 
7055.000000	63.378334 
7054.000000	63.867640 
7053.000000	64.323377 
7052.000000	64.743542 
7051.000000	65.128445 
7050.000000	65.468072 
7049.000000	65.743994 
7048.000000	65.923738 
7047.000000	65.973329 
7046.000000	65.860795 
7045.000000	65.573358 
7044.000000	65.119385 
7043.000000	64.536356 
7042.000000	63.882398 
7041.000000	63.226270 
7040.000000	62.641644 
7039.000000	62.194585 
7038.000000	61.937427 
7037.000000	61.901021 
7036.000000	62.095403 
7035.000000	62.508225 
7034.000000	63.108444 
7033.000000	63.848590 
7032.000000	64.665150 
7031.000000	65.486001 
7030.000000	66.234183 
7029.000000	66.841506 
7028.000000	67.256855 
7027.000000	67.456865 
7026.000000	67.451977 
7025.000000	67.280316 
7024.000000	67.005944 
7023.000000	66.694641 
7022.000000	66.409420 
7021.000000	66.184043 
7020.000000	66.027903 
7019.000000	65.914416 
7018.000000	65.798878 
7017.000000	65.626311 
7016.000000	65.353012 
7015.000000	64.958119 
7014.000000	64.452457 
7013.000000	63.877320 
7012.000000	63.293313 
7011.000000	62.770819 
7010.000000	62.372565 
7009.000000	62.142467 
7008.000000	62.096405 
7007.000000	62.223625 
7006.000000	62.491273 
7005.000000	62.851548 
7004.000000	63.254356 
7003.000000	63.651895 
7002.000000	64.010953 
7001.000000	64.315104 
7000.000000	64.566326 
6999.000000	64.776325 
6998.000000	64.960694 
6997.000000	65.134549 
6996.000000	65.301871 
6995.000000	65.456795 
6994.000000	65.580701 
6993.000000	65.650224 
6992.000000	65.643978 
6991.000000	65.552496 
6990.000000	65.384745 
6989.000000	65.169572 
6988.000000	64.953064 
6987.000000	64.789223 
6986.000000	64.727401 
6985.000000	64.800238 
6984.000000	65.013575 
6983.000000	65.344309 
6982.000000	65.743589 
6981.000000	66.148304 
6980.000000	66.497063 
6979.000000	66.744780 
6978.000000	66.869831 
6977.000000	66.878771 
6976.000000	66.802644 
6975.000000	66.687250 
6974.000000	66.579985 
6973.000000	66.517639 
6972.000000	66.518545 
6971.000000	66.579246 
6970.000000	66.684603 
6969.000000	66.807460 
6968.000000	66.923213 
6967.000000	67.007994 
6966.000000	67.048144 
6965.000000	67.034196 
6964.000000	66.960000 
6963.000000	66.821908 
6962.000000	66.618227 
6961.000000	66.350650 
6960.000000	66.025590 
6959.000000	65.657401 
6958.000000	65.269041 
6957.000000	64.891767 
6956.000000	64.561653 
6955.000000	64.315032 
6954.000000	64.182066 
6953.000000	64.181113 
6952.000000	64.314270 
6951.000000	64.566373 
6950.000000	64.906954 
6949.000000	65.292024 
6948.000000	65.672945 
6947.000000	66.005897 
6946.000000	66.257882 
6945.000000	66.409301 
6944.000000	66.455650 
6943.000000	66.405940 
6942.000000	66.277289 
6941.000000	66.093850 
6940.000000	65.877008 
6939.000000	65.644431 
6938.000000	65.406394 
6937.000000	65.170383 
6936.000000	64.940357 
6935.000000	64.721393 
6934.000000	64.521217 
6933.000000	64.351296 
6932.000000	64.225625 
6931.000000	64.156937 
6930.000000	64.155197 
6929.000000	64.223337 
6928.000000	64.357161 
6927.000000	64.543414 
6926.000000	64.761495 
6925.000000	64.984536 
6924.000000	65.180945 
6923.000000	65.319085 
6922.000000	65.371394 
6921.000000	65.321040 
6920.000000	65.163779 
6919.000000	64.913177 
6918.000000	64.598989 
6917.000000	64.264845 
6916.000000	63.961768 
6915.000000	63.738155 
6914.000000	63.630771 
6913.000000	63.657045 
6912.000000	63.811588 
6911.000000	64.068508 
6910.000000	64.386749 
6909.000000	64.721059 
6908.000000	65.030241 
6907.000000	65.286159 
6906.000000	65.477633 
6905.000000	65.605187 
6904.000000	65.675497 
6903.000000	65.695023 
6902.000000	65.665650 
6901.000000	65.583729 
6900.000000	65.443348 
6899.000000	65.243315 
6898.000000	64.992809 
6897.000000	64.715623 
6896.000000	64.448404 
6895.000000	64.234852 
6894.000000	64.116168 
6893.000000	64.121437 
6892.000000	64.259767 
6891.000000	64.514088 
6890.000000	64.846777 
6889.000000	65.207028 
6888.000000	65.543198 
6887.000000	65.812778 
6886.000000	65.992403 
6885.000000	66.078400 
6884.000000	66.088247 
6883.000000	66.051912 
6882.000000	66.004562 
6881.000000	65.976595 
6880.000000	65.987157 
6879.000000	66.042661 
6878.000000	66.133761 
6877.000000	66.241478 
6876.000000	66.339850 
6875.000000	66.404318 
6874.000000	66.417193 
6873.000000	66.372561 
6872.000000	66.275930 
6871.000000	66.142416 
6870.000000	65.992069 
6869.000000	65.844106 
6868.000000	65.713810 
6867.000000	65.608000 
6866.000000	65.525007 
6865.000000	65.455389 
6864.000000	65.386223 
6863.000000	65.305566 
6862.000000	65.205192 
6861.000000	65.085673 
6860.000000	64.953637 
6859.000000	64.824962 
6858.000000	64.718556 
6857.000000	64.655327 
6856.000000	64.650225 
6855.000000	64.711880 
6854.000000	64.840292 
6853.000000	65.024900 
6852.000000	65.246105 
6851.000000	65.476918 
6850.000000	65.687441 
6849.000000	65.849757 
6848.000000	65.942788 
6847.000000	65.957736 
6846.000000	65.899467 
6845.000000	65.787434 
6844.000000	65.650486 
6843.000000	65.520524 
6842.000000	65.423965 
6841.000000	65.377974 
6840.000000	65.384888 
6839.000000	65.432214 
6838.000000	65.496754 
6837.000000	65.551877 
6836.000000	65.575861 
6835.000000	65.557718 
6834.000000	65.501070 
6833.000000	65.421414 
6832.000000	65.343046 
6831.000000	65.290904 
6830.000000	65.283942 
6829.000000	65.329098 
6828.000000	65.419411 
6827.000000	65.536379 
6826.000000	65.654253 
6825.000000	65.748167 
6824.000000	65.798664 
6823.000000	65.796995 
6822.000000	65.745711 
6821.000000	65.657067 
6820.000000	65.553164 
6819.000000	65.461230 
6818.000000	65.408062 
6817.000000	65.414500 
6816.000000	65.494751 
6815.000000	65.651154 
6814.000000	65.875840 
6813.000000	66.147541 
6812.000000	66.434836 
6811.000000	66.698503 
6810.000000	66.898560 
6809.000000	67.001199 
6808.000000	66.984629 
6807.000000	66.845417 
6806.000000	66.599059 
6805.000000	66.278958 
6804.000000	65.931439 
6803.000000	65.606069 
6802.000000	65.347456 
6801.000000	65.185475 
6800.000000	65.133166 
6799.000000	65.180921 
6798.000000	65.302610 
6797.000000	65.456652 
6796.000000	65.596532 
6795.000000	65.677595 
6794.000000	65.666460 
6793.000000	65.547990 
6792.000000	65.328359 
6791.000000	65.034437 
6790.000000	64.708161 
6789.000000	64.399147 
6788.000000	64.153885 
6787.000000	64.008593 
6786.000000	63.980460 
6785.000000	64.065217 
6784.000000	64.237165 
6783.000000	64.456892 
6782.000000	64.678406 
6781.000000	64.858818 
6780.000000	64.966392 
6779.000000	64.983630 
6778.000000	64.910435 
6777.000000	64.760947 
6776.000000	64.559221 
6775.000000	64.331316 
6774.000000	64.101529 
6773.000000	63.888788 
6772.000000	63.705420 
6771.000000	63.558840 
6770.000000	63.451957 
6769.000000	63.385820 
6768.000000	63.361024 
6767.000000	63.378691 
6766.000000	63.438081 
6765.000000	63.536000 
6764.000000	63.665509 
6763.000000	63.817238 
6762.000000	63.982009 
6761.000000	64.152622 
6760.000000	64.325499 
6759.000000	64.499974 
6758.000000	64.676809 
6757.000000	64.855146 
6756.000000	65.032291 
6755.000000	65.199851 
6754.000000	65.346407 
6753.000000	65.455126 
6752.000000	65.511560 
6751.000000	65.500879 
6750.000000	65.414905 
6749.000000	65.250539 
6748.000000	65.012502 
6747.000000	64.713931 
6746.000000	64.375376 
6745.000000	64.025473 
6744.000000	63.697600 
6743.000000	63.426733 
6742.000000	63.243556 
6741.000000	63.170790 
6740.000000	63.218808 
6739.000000	63.379740 
6738.000000	63.627862 
6737.000000	63.921666 
6736.000000	64.211773 
6735.000000	64.450454 
6734.000000	64.601898 
6733.000000	64.648151 
6732.000000	64.592266 
6731.000000	64.456343 
6730.000000	64.274191 
6729.000000	64.082264 
6728.000000	63.910341 
6727.000000	63.778114 
6726.000000	63.689541 
6725.000000	63.637757 
6724.000000	63.606381 
6723.000000	63.576292 
6722.000000	63.533258 
6721.000000	63.471198 
6720.000000	63.397407 
6719.000000	63.327431 
6718.000000	63.285660 
6717.000000	63.296651 
6716.000000	63.379025 
6715.000000	63.537716 
6714.000000	63.763737 
6713.000000	64.034938 
6712.000000	64.318132 
6711.000000	64.575886 
6710.000000	64.774155 
6709.000000	64.888954 
6708.000000	64.912605 
6707.000000	64.853787 
6706.000000	64.733028 
6705.000000	64.577102 
6704.000000	64.413213 
6703.000000	64.263272 
6702.000000	64.138865 
6701.000000	64.043998 
6700.000000	63.978767 
6699.000000	63.943672 
6698.000000	63.943696 
6697.000000	63.988423 
6696.000000	64.086842 
6695.000000	64.247798 
6694.000000	64.471888 
6693.000000	64.754509 
6692.000000	65.082097 
6691.000000	65.437364 
6690.000000	65.800046 
6689.000000	66.151928 
6688.000000	66.479492 
6687.000000	66.770315 
6686.000000	67.012405 
6685.000000	67.190265 
6684.000000	67.285180 
6683.000000	67.275738 
6682.000000	67.142558 
6681.000000	66.875958 
6680.000000	66.480922 
6679.000000	65.982675 
6678.000000	65.424251 
6677.000000	64.860081 
6676.000000	64.348053 
6675.000000	63.937926 
6674.000000	63.665437 
6673.000000	63.545227 
6672.000000	63.573002 
6671.000000	63.728809 
6670.000000	63.981533 
6669.000000	64.293622 
6668.000000	64.626121 
6667.000000	64.943027 
6666.000000	65.211200 
6665.000000	65.400338 
6664.000000	65.485072 
6663.000000	65.446138 
6662.000000	65.274071 
6661.000000	64.972591 
6660.000000	64.559531 
6659.000000	64.067149 
6658.000000	63.540148 
6657.000000	63.030838 
6656.000000	62.590122 
6655.000000	62.260746 
6654.000000	62.072253 
6653.000000	62.037777 
6652.000000	62.151360 
6651.000000	62.392020 
6650.000000	62.724685 
6649.000000	63.110566 
6648.000000	63.507795 
6647.000000	63.884997 
6646.000000	64.217495 
6645.000000	64.498996 
6644.000000	64.734792 
6643.000000	64.943981 
6642.000000	65.151286 
6641.000000	65.380334 
6640.000000	65.649652 
6639.000000	65.961289 
6638.000000	66.303229 
6637.000000	66.644716 
6636.000000	66.946220 
6635.000000	67.165112 
6634.000000	67.268705 
6633.000000	67.240524 
6632.000000	67.086482 
6631.000000	66.831398 
6630.000000	66.514372 
6629.000000	66.181397 
6628.000000	65.876269 
6627.000000	65.632748 
6626.000000	65.468978 
6625.000000	65.388822 
6624.000000	65.381932 
6623.000000	65.429854 
6622.000000	65.509653 
6621.000000	65.597033 
6620.000000	65.672278 
6619.000000	65.722179 
6618.000000	65.741610 
6617.000000	65.727972 
6616.000000	65.683531 
6615.000000	65.614056 
6614.000000	65.525650 
6613.000000	65.423560 
6612.000000	65.311408 
6611.000000	65.191721 
6610.000000	65.067553 
6609.000000	64.942979 
6608.000000	64.826917 
6607.000000	64.732503 
6606.000000	64.677071 
6605.000000	64.677929 
6604.000000	64.747548 
6603.000000	64.887809 
6602.000000	65.086770 
6601.000000	65.316724 
6600.000000	65.535950 
6599.000000	65.695142 
6598.000000	65.748548 
6597.000000	65.663003 
6596.000000	65.424013 
6595.000000	65.041089 
6594.000000	64.547014 
6593.000000	63.993263 
6592.000000	63.439345 
6591.000000	62.944245 
6590.000000	62.554001 
6589.000000	62.299013 
6588.000000	62.191224 
6587.000000	62.225747 
6586.000000	62.382721 
6585.000000	62.634801 
6584.000000	62.950229 
6583.000000	63.299202 
6582.000000	63.652253 
6581.000000	63.987779 
6580.000000	64.289331 
6579.000000	64.549398 
6578.000000	64.766263 
6577.000000	64.944934 
6576.000000	65.093588 
6575.000000	65.224146 
6574.000000	65.348052 
6573.000000	65.474772 
6572.000000	65.607285 
6571.000000	65.744280 
6570.000000	65.876317 
6569.000000	65.990209 
6568.000000	66.067957 
6567.000000	66.093397 
6566.000000	66.052556 
6565.000000	65.939283 
6564.000000	65.755009 
6563.000000	65.511989 
6562.000000	65.228939 
6561.000000	64.928770 
6560.000000	64.634203 
6559.000000	64.366769 
6558.000000	64.140534 
6557.000000	63.960242 
6556.000000	63.823270 
6555.000000	63.721561 
6554.000000	63.647246 
6553.000000	63.595175 
6552.000000	63.566422 
6551.000000	63.566780 
6550.000000	63.606238 
6549.000000	63.693809 
6548.000000	63.833022 
6547.000000	64.017891 
6546.000000	64.231824 
6545.000000	64.449214 
6544.000000	64.639973 
6543.000000	64.775395 
6542.000000	64.835572 
6541.000000	64.812994 
6540.000000	64.713978 
6539.000000	64.557123 
6538.000000	64.369821 
6537.000000	64.181923 
6536.000000	64.019393 
6535.000000	63.900494 
6534.000000	63.834047 
6533.000000	63.819527 
6532.000000	63.850164 
6531.000000	63.916015 
6530.000000	64.006924 
6529.000000	64.116001 
6528.000000	64.238834 
6527.000000	64.375662 
6526.000000	64.527893 
6525.000000	64.700031 
6524.000000	64.896130 
6523.000000	65.119957 
6522.000000	65.371632 
6521.000000	65.649223 
6520.000000	65.945291 
6519.000000	66.246676 
6518.000000	66.532516 
6517.000000	66.777825 
6516.000000	66.954541 
6515.000000	67.037391 
6514.000000	67.008399 
6513.000000	66.863036 
6512.000000	66.611886 
6511.000000	66.283369 
6510.000000	65.916156 
6509.000000	65.557003 
6508.000000	65.245962 
6507.000000	65.010857 
6506.000000	64.859485 
6505.000000	64.780449 
6504.000000	64.747905 
6503.000000	64.729857 
6502.000000	64.699482 
6501.000000	64.640998 
6500.000000	64.557886 
6499.000000	64.469933 
6498.000000	64.408636 
6497.000000	64.405369 
6496.000000	64.484763 
6495.000000	64.655518 
6494.000000	64.906978 
6493.000000	65.209817 
6492.000000	65.524101 
6491.000000	65.807485 
6490.000000	66.022825 
6489.000000	66.147017 
6488.000000	66.174077 
6487.000000	66.117167 
6486.000000	66.002273 
6485.000000	65.864229 
6484.000000	65.740609 
6483.000000	65.661311 
6482.000000	65.648198 
6481.000000	65.703868 
6480.000000	65.815806 
6479.000000	65.954399 
6478.000000	66.083121 
6477.000000	66.164493 
6476.000000	66.168260 
6475.000000	66.081666 
6474.000000	65.911936 
6473.000000	65.686631 
6472.000000	65.446591 
6471.000000	65.236783 
6470.000000	65.094923 
6469.000000	65.040946 
6468.000000	65.072154 
6467.000000	65.163040 
6466.000000	65.272688 
6465.000000	65.357398 
6464.000000	65.382933 
6463.000000	65.332365 
6462.000000	65.211439 
6461.000000	65.045523 
6460.000000	64.872574 
6459.000000	64.729118 
6458.000000	64.642691 
6457.000000	64.625310 
6456.000000	64.671325 
6455.000000	64.761996 
6454.000000	64.869642 
6453.000000	64.966654 
6452.000000	65.031337 
6451.000000	65.052962 
6450.000000	65.033125 
6449.000000	64.982128 
6448.000000	64.916753 
6447.000000	64.853191 
6446.000000	64.805483 
6445.000000	64.782094 
6444.000000	64.784717 
6443.000000	64.809250 
6442.000000	64.844036 
6441.000000	64.872860 
6440.000000	64.878058 
6439.000000	64.844560 
6438.000000	64.760899 
6437.000000	64.623141 
6436.000000	64.437460 
6435.000000	64.220333 
6434.000000	63.994860 
6433.000000	63.787817 
6432.000000	63.623666 
6431.000000	63.521027 
6430.000000	63.489532 
6429.000000	63.528203 
6428.000000	63.626575 
6427.000000	63.766312 
6426.000000	63.924455 
6425.000000	64.077138 
6424.000000	64.203214 
6423.000000	64.286851 
6422.000000	64.318108 
6421.000000	64.295053 
6420.000000	64.221477 
6419.000000	64.109539 
6418.000000	63.977336 
6417.000000	63.848614 
6416.000000	63.749337 
6415.000000	63.704419 
6414.000000	63.733315 
6413.000000	63.846874 
6412.000000	64.044690 
6411.000000	64.314413 
6410.000000	64.632844 
6409.000000	64.969253 
6408.000000	65.289831 
6407.000000	65.562677 
6406.000000	65.762853 
6405.000000	65.876436 
6404.000000	65.901851 
6403.000000	65.848135 
6402.000000	65.733408 
6401.000000	65.583109 
6400.000000	65.423417 
6399.000000	65.278983 
6398.000000	65.167093 
6397.000000	65.099120 
6396.000000	65.075802 
6395.000000	65.090489 
6394.000000	65.129947 
6393.000000	65.177917 
6392.000000	65.221071 
6391.000000	65.252161 
6390.000000	65.270328 
6389.000000	65.279555 
6388.000000	65.287232 
6387.000000	65.300607 
6386.000000	65.321969 
6385.000000	65.347838 
6384.000000	65.369844 
6383.000000	65.378284 
6382.000000	65.366315 
6381.000000	65.333676 
6380.000000	65.288257 
6379.000000	65.245294 
6378.000000	65.223050 
6377.000000	65.238070 
6376.000000	65.300536 
6375.000000	65.410590 
6374.000000	65.555715 
6373.000000	65.715479 
6372.000000	65.867733 
6371.000000	65.992569 
6370.000000	66.078996 
6369.000000	66.123533 
6368.000000	66.130924 
6367.000000	66.107726 
6366.000000	66.060686 
6365.000000	65.989184 
6364.000000	65.885519 
6363.000000	65.736913 
6362.000000	65.531563 
6361.000000	65.264415 
6360.000000	64.943122 
6359.000000	64.590072 
6358.000000	64.241480 
6357.000000	63.941502 
6356.000000	63.733768 
6355.000000	63.651013 
6354.000000	63.707065 
6353.000000	63.892889 
6352.000000	64.177036 
6351.000000	64.510917 
6350.000000	64.838123 
6349.000000	65.105485 
6348.000000	65.273427 
6347.000000	65.319943 
6346.000000	65.246367 
6345.000000	65.071702 
6344.000000	64.831280 
6343.000000	64.566564 
6342.000000	64.319586 
6341.000000	64.125943 
6340.000000	64.009428 
6339.000000	63.981580 
6338.000000	64.038872 
6337.000000	64.166450 
6336.000000	64.340114 
6335.000000	64.532184 
6334.000000	64.714717 
6333.000000	64.864301 
6332.000000	64.965629 
6331.000000	65.013098 
6330.000000	65.010571 
6329.000000	64.968371 
6328.000000	64.901947 
6327.000000	64.825773 
6326.000000	64.748716 
6325.000000	64.672851 
6324.000000	64.595532 
6323.000000	64.511489 
6322.000000	64.417076 
6321.000000	64.313364 
6320.000000	64.208745 
6319.000000	64.116978 
6318.000000	64.053249 
6317.000000	64.030981 
6316.000000	64.054179 
6315.000000	64.120459 
6314.000000	64.220690 
6313.000000	64.342308 
6312.000000	64.471936 
6311.000000	64.598965 
6310.000000	64.716887 
6309.000000	64.823174 
6308.000000	64.917826 
6307.000000	65.000224 
6306.000000	65.067744 
6305.000000	65.115594 
6304.000000	65.138411 
6303.000000	65.134143 
6302.000000	65.105962 
6301.000000	65.063500 
6300.000000	65.021467 
6299.000000	64.996337 
6298.000000	65.003395 
6297.000000	65.052103 
6296.000000	65.145301 
6295.000000	65.279936 
6294.000000	65.445899 
6293.000000	65.632009 
6292.000000	65.821504 
6291.000000	65.996503 
6290.000000	66.135430 
6289.000000	66.215896 
6288.000000	66.218090 
6287.000000	66.128826 
6286.000000	65.946888 
6285.000000	65.685272 
6284.000000	65.372133 
6283.000000	65.047025 
6282.000000	64.754462 
6281.000000	64.535403 
6280.000000	64.417457 
6279.000000	64.409375 
6278.000000	64.497494 
6277.000000	64.650416 
6276.000000	64.827418 
6275.000000	64.989423 
6274.000000	65.107250 
6273.000000	65.168380 
6272.000000	65.177178 
6271.000000	65.151572 
6270.000000	65.114641 
6269.000000	65.086650 
6268.000000	65.079212 
6267.000000	65.090131 
6266.000000	65.107512 
6265.000000	65.109992 
6264.000000	65.075683 
6263.000000	64.987516 
6262.000000	64.838933 
6261.000000	64.638447 
6260.000000	64.408040 
6259.000000	64.180660 
6258.000000	63.991403 
6257.000000	63.872241 
6256.000000	63.844060 
6255.000000	63.912677 
6254.000000	64.067459 
6253.000000	64.281940 
6252.000000	64.519214 
6251.000000	64.739680 
6250.000000	64.909768 
6249.000000	65.006971 
6248.000000	65.024948 
6247.000000	64.973950 
6246.000000	64.877462 
6245.000000	64.765262 
6244.000000	64.666104 
6243.000000	64.601278 
6242.000000	64.580273 
6241.000000	64.603042 
6240.000000	64.658737 
6239.000000	64.732718 
6238.000000	64.807701 
6237.000000	64.869070 
6236.000000	64.906716 
6235.000000	64.915442 
6234.000000	64.896535 
6233.000000	64.855027 
6232.000000	64.800214 
6231.000000	64.742612 
6230.000000	64.693355 
6229.000000	64.662051 
6228.000000	64.656043 
6227.000000	64.679694 
6226.000000	64.733099 
6225.000000	64.812541 
6224.000000	64.911055 
6223.000000	65.020275 
6222.000000	65.133309 
6221.000000	65.245532 
6220.000000	65.354132 
6219.000000	65.456557 
6218.000000	65.550851 
6217.000000	65.632820 
6216.000000	65.694332 
6215.000000	65.725207 
6214.000000	65.717196 
6213.000000	65.665459 
6212.000000	65.572500 
6211.000000	65.447592 
6210.000000	65.306520 
6209.000000	65.168261 
6208.000000	65.051698 
6207.000000	64.971709 
6206.000000	64.936184 
6205.000000	64.945030 
6204.000000	64.991259 
6203.000000	65.062117 
6202.000000	65.142464 
6201.000000	65.217065 
6200.000000	65.273618 
6199.000000	65.302419 
6198.000000	65.296792 
6197.000000	65.254020 
6196.000000	65.174508 
6195.000000	65.060853 
6194.000000	64.916396 
6193.000000	64.747714 
6192.000000	64.561390 
6191.000000	64.363479 
6190.000000	64.158225 
6189.000000	63.947176 
6188.000000	63.731861 
6187.000000	63.514900 
6186.000000	63.303232 
6185.000000	63.105630 
6184.000000	62.936305 
6183.000000	62.811255 
6182.000000	62.747168 
6181.000000	62.754511 
6180.000000	62.837433 
6179.000000	62.989521 
6178.000000	63.195943 
6177.000000	63.433599 
6176.000000	63.677287 
6175.000000	63.903069 
6174.000000	64.095115 
6173.000000	64.247608 
6172.000000	64.368081 
6171.000000	64.474344 
6170.000000	64.591073 
6169.000000	64.742279 
6168.000000	64.946508 
6167.000000	65.208888 
6166.000000	65.521597 
6165.000000	65.860223 
6164.000000	66.189289 
6163.000000	66.465663 
6162.000000	66.650795 
6161.000000	66.715145 
6160.000000	66.645121 
6159.000000	66.445279 
6158.000000	66.140294 
6157.000000	65.768051 
6156.000000	65.373277 
6155.000000	64.999318 
6154.000000	64.683246 
6153.000000	64.448475 
6152.000000	64.304280 
6151.000000	64.245414 
6150.000000	64.257192 
6149.000000	64.318299 
6148.000000	64.406085 
6147.000000	64.499497 
6146.000000	64.581251 
6145.000000	64.641523 
6144.000000	64.677762 
6143.000000	64.692068 
6142.000000	64.689469 
6141.000000	64.677166 
6140.000000	64.662551 
6139.000000	64.651632 
6138.000000	64.648509 
6137.000000	64.656496 
6136.000000	64.677214 
6135.000000	64.711666 
6134.000000	64.759063 
6133.000000	64.817118 
6132.000000	64.882016 
6131.000000	64.947056 
6130.000000	65.006351 
6129.000000	65.055632 
6128.000000	65.094041 
6127.000000	65.124297 
6126.000000	65.151810 
6125.000000	65.183091 
6124.000000	65.223193 
6123.000000	65.275025 
6122.000000	65.335845 
6121.000000	65.397357 
6120.000000	65.447759 
6119.000000	65.475010 
6118.000000	65.469503 
6117.000000	65.427327 
6116.000000	65.352058 
6115.000000	65.255117 
6114.000000	65.153169 
6113.000000	65.065503 
6112.000000	65.009450 
6111.000000	64.997315 
6110.000000	65.035176 
6109.000000	65.120339 
6108.000000	65.243649 
6107.000000	65.388870 
6106.000000	65.536451 
6105.000000	65.665507 
6104.000000	65.756630 
6103.000000	65.795636 
6102.000000	65.775871 
6101.000000	65.699195 
6100.000000	65.575575 
6099.000000	65.420532 
6098.000000	65.252304 
6097.000000	65.088486 
6096.000000	64.943599 
6095.000000	64.827919 
6094.000000	64.746904 
6093.000000	64.702844 
6092.000000	64.695978 
6091.000000	64.725804 
6090.000000	64.791107 
6089.000000	64.889574 
6088.000000	65.016698 
6087.000000	65.163803 
6086.000000	65.318226 
6085.000000	65.463757 
6084.000000	65.583252 
6083.000000	65.661954 
6082.000000	65.690088 
6081.000000	65.665841 
6080.000000	65.595149 
6079.000000	65.490961 
6078.000000	65.369892 
6077.000000	65.247845 
6076.000000	65.138721 
6075.000000	65.053462 
6074.000000	64.999032 
6073.000000	64.978265 
6072.000000	64.991521 
6071.000000	65.038275 
6070.000000	65.116429 
6069.000000	65.221858 
6068.000000	65.348768 
6067.000000	65.489053 
6066.000000	65.633153 
6065.000000	65.770387 
6064.000000	65.892004 
6063.000000	65.992307 
6062.000000	66.070675 
6061.000000	66.131091 
6060.000000	66.181707 
6059.000000	66.230535 
6058.000000	66.284179 
6057.000000	66.342568 
6056.000000	66.399168 
6055.000000	66.439223 
6054.000000	66.445255 
6053.000000	66.398453 
6052.000000	66.285324 
6051.000000	66.100287 
6050.000000	65.850186 
6049.000000	65.552210 
6048.000000	65.231871 
6047.000000	64.917922 
6046.000000	64.637517 
6045.000000	64.410686 
6044.000000	64.247369 
6043.000000	64.146065 
6042.000000	64.095878 
6041.000000	64.079737 
6040.000000	64.078807 
6039.000000	64.076542 
6038.000000	64.061427 
6037.000000	64.029312 
6036.000000	63.982772 
6035.000000	63.928866 
6034.000000	63.876509 
6033.000000	63.834118 
6032.000000	63.808155 
6031.000000	63.801383 
6030.000000	63.814592 
6029.000000	63.847637 
6028.000000	63.901090 
6027.000000	63.976383 
6026.000000	64.075660 
6025.000000	64.200568 
6024.000000	64.350104 
6023.000000	64.519214 
6022.000000	64.697647 
6021.000000	64.870500 
6020.000000	65.020275 
6019.000000	65.131068 
6018.000000	65.191006 
6017.000000	65.194964 
6016.000000	65.146803 
6015.000000	65.059924 
6014.000000	64.953398 
6013.000000	64.848208 
6012.000000	64.764022 
6011.000000	64.716172 
6010.000000	64.712572 
6009.000000	64.752888 
6008.000000	64.829778 
6007.000000	64.930915 
6006.000000	65.041470 
6005.000000	65.146565 
6004.000000	65.233135 
6003.000000	65.291738 
6002.000000	65.316152 
6001.000000	65.304899 
6000.000000	65.260338 
5999.000000	65.188717 
5998.000000	65.099239 
5997.000000	65.002584 
5996.000000	64.910030 
5995.000000	64.830803 
5994.000000	64.772295 
5993.000000	64.737439 
5992.000000	64.724636 
5991.000000	64.728784 
5990.000000	64.742970 
5989.000000	64.760637 
5988.000000	64.776372 
5987.000000	64.788818 
5986.000000	64.800167 
5985.000000	64.814949 
5984.000000	64.837694 
5983.000000	64.870572 
5982.000000	64.912009 
5981.000000	64.956212 
5980.000000	64.994978 
5979.000000	65.020418 
5978.000000	65.028095 
5977.000000	65.019273 
5976.000000	65.001010 
5975.000000	64.985513 
5974.000000	64.985680 
5973.000000	65.011763 
5972.000000	65.066957 
5971.000000	65.145730 
5970.000000	65.234565 
5969.000000	65.315389 
5968.000000	65.370392 
5967.000000	65.387439 
5966.000000	65.362763 
5965.000000	65.303373 
5964.000000	65.223550 
5963.000000	65.140748 
5962.000000	65.070867 
5961.000000	65.023994 
5960.000000	65.002512 
5959.000000	65.001416 
5958.000000	65.010881 
5957.000000	65.020203 
5956.000000	65.020108 
5955.000000	65.005683 
5954.000000	64.975786 
5953.000000	64.933204 
5952.000000	64.882183 
5951.000000	64.828085 
5950.000000	64.775085 
5949.000000	64.727210 
5948.000000	64.689540 
5947.000000	64.667558 
5946.000000	64.667367 
5945.000000	64.693069 
5944.000000	64.745998 
5943.000000	64.822602 
5942.000000	64.913129 
5941.000000	65.004181 
5940.000000	65.080356 
5939.000000	65.128946 
5938.000000	65.143346 
5937.000000	65.124654 
5936.000000	65.080952 
5935.000000	65.025424 
5934.000000	64.972949 
5933.000000	64.935564 
5932.000000	64.919519 
5931.000000	64.924716 
5930.000000	64.945507 
5929.000000	64.973282 
5928.000000	64.999198 
5927.000000	65.017318 
5926.000000	65.025186 
5925.000000	65.023398 
5924.000000	65.013670 
5923.000000	64.996147 
5922.000000	64.968585 
5921.000000	64.926099 
5920.000000	64.863395 
5919.000000	64.776492 
5918.000000	64.666080 
5917.000000	64.538574 
5916.000000	64.407563 
5915.000000	64.290165 
5914.000000	64.206218 
5913.000000	64.172744 
5912.000000	64.201664 
5911.000000	64.295697 
5910.000000	64.448666 
5909.000000	64.646077 
5908.000000	64.867353 
5907.000000	65.089130 
5906.000000	65.289211 
5905.000000	65.450024 
5904.000000	65.560817 
5903.000000	65.618228 
5902.000000	65.626120 
5901.000000	65.593266 
5900.000000	65.532302 
5899.000000	65.456271 
5898.000000	65.376520 
5897.000000	65.299987 
5896.000000	65.229868 
5895.000000	65.164995 
5894.000000	65.101313 
5893.000000	65.034127 
5892.000000	64.960050 
5891.000000	64.879608 
5890.000000	64.797711 
5889.000000	64.723253 
5888.000000	64.667487 
5887.000000	64.640069 
5886.000000	64.645648 
5885.000000	64.682030 
5884.000000	64.739704 
5883.000000	64.804029 
5882.000000	64.857769 
5881.000000	64.886164 
5880.000000	64.880013 
5879.000000	64.838600 
5878.000000	64.769506 
5877.000000	64.686584 
5876.000000	64.605665 
5875.000000	64.542341 
5874.000000	64.508295 
5873.000000	64.509153 
5872.000000	64.543485 
5871.000000	64.605069 
5870.000000	64.684247 
5869.000000	64.770269 
5868.000000	64.853310 
5867.000000	64.923977 
5866.000000	64.976215 
5865.000000	65.006017 
5864.000000	65.014362 
5863.000000	65.005493 
5862.000000	64.988017 
5861.000000	64.973902 
5860.000000	64.974975 
5859.000000	65.001606 
5858.000000	65.057992 
5857.000000	65.141963 
5856.000000	65.243434 
5855.000000	65.346956 
5854.000000	65.434598 
5853.000000	65.490794 
5852.000000	65.505909 
5851.000000	65.478730 
5850.000000	65.416216 
5849.000000	65.331697 
5848.000000	65.240955 
5847.000000	65.158438 
5846.000000	65.093779 
5845.000000	65.050387 
5844.000000	65.026497 
5843.000000	65.017104 
5842.000000	65.017414 
5841.000000	65.024781 
5840.000000	65.039777 
5839.000000	65.065121 
5838.000000	65.103125 
5837.000000	65.153765 
5836.000000	65.212655 
5835.000000	65.271234 
5834.000000	65.317487 
5833.000000	65.339493 
5832.000000	65.328788 
5831.000000	65.282797 
5830.000000	65.206885 
5829.000000	65.112447 
5828.000000	65.014767 
5827.000000	64.928984 
5826.000000	64.866590 
5825.000000	64.832878 
5824.000000	64.825963 
5823.000000	64.838337 
5822.000000	64.859390 
5821.000000	64.878773 
5820.000000	64.889168 
5819.000000	64.887022 
5818.000000	64.873051 
5817.000000	64.850831 
5816.000000	64.825391 
5815.000000	64.800882 
5814.000000	64.779949 
5813.000000	64.763116 
5812.000000	64.749383 
5811.000000	64.738106 
5810.000000	64.729213 
5809.000000	64.723587 
5808.000000	64.722871 
5807.000000	64.728426 
5806.000000	64.741134 
5805.000000	64.759969 
5804.000000	64.783382 
5803.000000	64.808559 
5802.000000	64.833736 
5801.000000	64.858579 
5800.000000	64.884781 
5799.000000	64.915490 
5798.000000	64.953780 
5797.000000	65.001487 
5796.000000	65.056872 
5795.000000	65.114545 
5794.000000	65.164566 
5793.000000	65.194582 
5792.000000	65.192747 
5791.000000	65.151524 
5790.000000	65.070366 
5789.000000	64.957284 
5788.000000	64.828133 
5787.000000	64.703750 
5786.000000	64.605379 
5785.000000	64.550447 
5784.000000	64.548254 
5783.000000	64.598464 
5782.000000	64.691758 
5781.000000	64.811897 
5780.000000	64.940261 
5779.000000	65.059089 
5778.000000	65.154600 
5777.000000	65.218901 
5776.000000	65.249776 
5775.000000	65.250039 
5774.000000	65.224719 
5773.000000	65.179944 
5772.000000	65.121054 
5771.000000	65.053081 
5770.000000	64.981555 
5769.000000	64.911699 
5768.000000	64.848875 
5767.000000	64.798426 
5766.000000	64.765262 
5765.000000	64.752149 
5764.000000	64.759325 
5763.000000	64.784479 
5762.000000	64.823317 
5761.000000	64.870238 
5760.000000	64.919281 
5759.000000	64.964222 
5758.000000	64.999961 
5757.000000	65.022230 
5756.000000	65.029835 
5755.000000	65.023517 
5754.000000	65.007781 
5753.000000	64.990139 
5752.000000	64.979672 
5751.000000	64.986109 
5750.000000	65.015506 
5749.000000	65.070414 
5748.000000	65.144848 
5747.000000	65.226340 
5746.000000	65.295219 
5745.000000	65.329623 
5744.000000	65.309238 
5743.000000	65.220880 
5742.000000	65.062570 
5741.000000	64.845323 
5740.000000	64.592051 
5739.000000	64.333558 
5738.000000	64.103126 
5737.000000	63.930106 
5736.000000	63.834691 
5735.000000	63.824486 
5734.000000	63.894224 
5733.000000	64.027571 
5732.000000	64.200377 
5731.000000	64.386272 
5730.000000	64.560580 
5729.000000	64.705753 
5728.000000	64.811062 
5727.000000	64.875388 
5726.000000	64.903807 
5725.000000	64.906597 
5724.000000	64.895486 
5723.000000	64.881515 
5722.000000	64.873504 
5721.000000	64.876198 
5720.000000	64.892148 
5719.000000	64.919781 
5718.000000	64.956045 
5717.000000	64.995718 
5716.000000	65.033316 
5715.000000	65.063261 
5714.000000	65.080952 
5713.000000	65.083646 
5712.000000	65.071249 
5711.000000	65.046572 
5710.000000	65.015363 
5709.000000	64.985132 
5708.000000	64.964485 
5707.000000	64.961647 
5706.000000	64.983677 
5705.000000	65.034461 
5704.000000	65.114855 
5703.000000	65.222835 
5702.000000	65.353369 
5701.000000	65.500402 
5700.000000	65.655350 
5699.000000	65.808773 
5698.000000	65.948653 
5697.000000	66.062903 
5696.000000	66.138434 
5695.000000	66.163182 
5694.000000	66.128897 
5693.000000	66.034054 
5692.000000	65.884923 
5691.000000	65.696477 
5690.000000	65.489745 
5689.000000	65.288877 
5688.000000	65.116262 
5687.000000	64.988851 
5686.000000	64.914751 
5685.000000	64.892435 
5684.000000	64.911603 
5683.000000	64.956498 
5682.000000	65.008950 
5681.000000	65.053224 
5680.000000	65.078544 
5679.000000	65.081715 
5678.000000	65.065622 
5677.000000	65.038633 
5676.000000	65.011000 
5675.000000	64.991784 
5674.000000	64.986920 
5673.000000	64.996623 
5672.000000	65.016651 
5671.000000	65.037989 
5670.000000	65.050625 
5669.000000	65.044879 
5668.000000	65.013933 
5667.000000	64.956259 
5666.000000	64.875841 
5665.000000	64.781808 
5664.000000	64.686036 
5663.000000	64.600753 
5662.000000	64.535403 
5661.000000	64.495801 
5660.000000	64.483380 
5659.000000	64.496588 
5658.000000	64.532256 
5657.000000	64.587616 
5656.000000	64.661216 
5655.000000	64.752483 
5654.000000	64.861130 
5653.000000	64.984965 
5652.000000	65.119123 
5651.000000	65.256023 
5650.000000	65.385532 
5649.000000	65.496778 
5648.000000	65.579581 
5647.000000	65.627336 
5646.000000	65.637612 
5645.000000	65.613579 
5644.000000	65.562486 
5643.000000	65.494275 
5642.000000	65.420103 
5641.000000	65.351080 
5640.000000	65.296578 
5639.000000	65.263867 
5638.000000	65.256977 
5637.000000	65.277767 
5636.000000	65.323877 
5635.000000	65.389347 
5634.000000	65.464186 
5633.000000	65.535807 
5632.000000	65.590333 
5631.000000	65.615034 
5630.000000	65.600681 
5629.000000	65.543627 
5628.000000	65.446376 
5627.000000	65.317392 
5626.000000	65.169239 
5625.000000	65.016531 
5624.000000	64.874219 
5623.000000	64.755129 
5622.000000	64.667558 
5621.000000	64.615345 
5620.000000	64.597678 
5619.000000	64.611148 
5618.000000	64.649033 
5617.000000	64.705395 
5616.000000	64.775133 
5615.000000	64.855504 
5614.000000	64.944219 
5613.000000	65.040183 
5612.000000	65.141105 
5611.000000	65.243983 
5610.000000	65.344262 
5609.000000	65.436244 
5608.000000	65.513777 
5607.000000	65.571975 
5606.000000	65.608477 
5605.000000	65.623450 
5604.000000	65.619468 
5603.000000	65.600609 
5602.000000	65.571284 
5601.000000	65.534710 
5600.000000	65.492510 
5599.000000	65.445041 
5598.000000	65.392184 
5597.000000	65.335273 
5596.000000	65.277433 
5595.000000	65.224480 
5594.000000	65.183281 
5593.000000	65.159797 
5592.000000	65.157413 
5591.000000	65.174794 
5590.000000	65.207052 
5589.000000	65.246081 
5588.000000	65.283966 
5587.000000	65.313839 
5586.000000	65.333247 
5585.000000	65.344476 
5584.000000	65.353655 
5583.000000	65.368270 
5582.000000	65.394639 
5581.000000	65.435671 
5580.000000	65.489268 
5579.000000	65.548539 
5578.000000	65.604472 
5577.000000	65.648269 
5576.000000	65.674042 
5575.000000	65.680098 
5574.000000	65.669107 
5573.000000	65.646696 
5572.000000	65.620017 
5571.000000	65.594863 
5570.000000	65.573883 
5569.000000	65.555238 
5568.000000	65.535330 
5567.000000	65.508031 
5566.000000	65.467333 
5565.000000	65.408277 
5564.000000	65.328788 
5563.000000	65.230298 
5562.000000	65.117454 
5561.000000	64.998507 
5560.000000	64.882850 
5559.000000	64.781594 
5558.000000	64.705705 
5557.000000	64.663910 
5556.000000	64.661216 
5555.000000	64.696836 
5554.000000	64.763975 
5553.000000	64.849805 
5552.000000	64.937639 
5551.000000	65.010762 
5550.000000	65.056443 
5549.000000	65.069222 
5548.000000	65.052938 
5547.000000	65.020966 
5546.000000	64.993000 
5545.000000	64.990615 
5544.000000	65.030980 
5543.000000	65.122914 
5542.000000	65.263104 
5541.000000	65.437531 
5540.000000	65.622615 
5539.000000	65.791749 
5538.000000	65.919518 
5537.000000	65.988802 
5536.000000	65.992569 
5535.000000	65.934681 
5534.000000	65.828275 
5533.000000	65.691971 
5532.000000	65.546154 
5531.000000	65.409040 
5530.000000	65.294218 
5529.000000	65.210127 
5528.000000	65.159416 
5527.000000	65.140962 
5526.000000	65.150260 
5525.000000	65.181350 
5524.000000	65.227103 
5523.000000	65.280294 
5522.000000	65.333199 
5521.000000	65.378451 
5520.000000	65.410351 
5519.000000	65.425443 
5518.000000	65.423250 
5517.000000	65.406370 
5516.000000	65.380263 
5515.000000	65.351843 
5514.000000	65.328550 
5513.000000	65.315914 
5512.000000	65.316867 
5511.000000	65.330576 
5510.000000	65.353488 
5509.000000	65.379524 
5508.000000	65.402603 
5507.000000	65.416622 
5506.000000	65.417003 
5505.000000	65.400791 
5504.000000	65.367221 
5503.000000	65.317130 
5502.000000	65.252900 
5501.000000	65.177607 
5500.000000	65.094971 
5499.000000	65.009617 
5498.000000	64.926934 
5497.000000	64.852595 
5496.000000	64.792203 
5495.000000	64.749765 
5494.000000	64.727616 
5493.000000	64.725923 
5492.000000	64.743399 
5491.000000	64.776754 
5490.000000	64.822340 
5489.000000	64.876842 
5488.000000	64.937949 
5487.000000	65.004086 
5486.000000	65.073513 
5485.000000	65.143394 
5484.000000	65.209269 
5483.000000	65.264701 
5482.000000	65.302944 
5481.000000	65.317797 
5480.000000	65.306305 
5479.000000	65.270185 
5478.000000	65.216040 
5477.000000	65.155196 
5476.000000	65.100264 
5475.000000	65.062880 
5474.000000	65.049219 
5473.000000	65.058851 
5472.000000	65.083384 
5471.000000	65.109038 
5470.000000	65.119600 
5469.000000	65.101170 
5468.000000	65.046000 
5467.000000	64.954900 
5466.000000	64.837050 
5465.000000	64.708280 
5464.000000	64.587116 
5463.000000	64.490985 
5462.000000	64.432430 
5461.000000	64.416861 
5460.000000	64.442467 
5459.000000	64.500641 
5458.000000	64.579176 
5457.000000	64.664149 
5456.000000	64.742732 
5455.000000	64.804959 
5454.000000	64.844632 
5453.000000	64.859700 
5452.000000	64.850616 
5451.000000	64.820575 
5450.000000	64.774322 
5449.000000	64.717268 
5448.000000	64.655351 
5447.000000	64.593029 
5446.000000	64.533329 
5445.000000	64.477658 
5444.000000	64.426732 
5443.000000	64.380049 
5442.000000	64.336895 
5441.000000	64.297676 
5440.000000	64.264130 
5439.000000	64.238524 
5438.000000	64.223337 
5437.000000	64.220714 
5436.000000	64.231944 
5435.000000	64.256477 
5434.000000	64.292192 
5433.000000	64.335989 
5432.000000	64.383840 
5431.000000	64.431190 
5430.000000	64.473414 
5429.000000	64.506793 
5428.000000	64.528346 
5427.000000	64.535641 
5426.000000	64.527964 
5425.000000	64.505696 
5424.000000	64.472031 
5423.000000	64.432573 
5422.000000	64.395642 
5421.000000	64.370393 
5420.000000	64.366149 
5419.000000	64.390659 
5418.000000	64.448308 
5417.000000	64.538884 
5416.000000	64.658331 
5415.000000	64.799451 
5414.000000	64.953422 
5413.000000	65.110898 
5412.000000	65.263676 
5411.000000	65.405011 
5410.000000	65.529632 
5409.000000	65.633535 
5408.000000	65.714097 
5407.000000	65.769720 
5406.000000	65.800094 
5405.000000	65.806245 
5404.000000	65.791893 
5403.000000	65.762543 
5402.000000	65.727138 
5401.000000	65.694260 
5400.000000	65.672326 
5399.000000	65.665650 
5398.000000	65.675568 
5397.000000	65.697264 
5396.000000	65.721940 
5395.000000	65.737390 
5394.000000	65.731835 
5393.000000	65.695405 
5392.000000	65.622830 
5391.000000	65.514993 
5390.000000	65.378999 
5389.000000	65.227317 
5388.000000	65.075063 
5387.000000	64.936685 
5386.000000	64.822554 
5385.000000	64.737033 
5384.000000	64.677882 
5383.000000	64.635944 
5382.000000	64.599204 
5381.000000	64.555883 
5380.000000	64.499664 
5379.000000	64.429640 
5378.000000	64.353942 
5377.000000	64.286494 
5376.000000	64.245438 
5375.000000	64.246058 
5374.000000	64.298462 
5373.000000	64.403557 
5372.000000	64.553141 
5371.000000	64.729642 
5370.000000	64.912128 
5369.000000	65.081095 
5368.000000	65.222096 
5367.000000	65.328073 
5366.000000	65.399169 
5365.000000	65.440917 
5364.000000	65.460681 
5363.000000	65.464830 
5362.000000	65.455889 
5361.000000	65.431857 
5360.000000	65.389966 
5359.000000	65.328979 
5358.000000	65.249586 
5357.000000	65.156388 
5356.000000	65.059065 
5355.000000	64.970827 
5354.000000	64.905214 
5353.000000	64.872932 
5352.000000	64.879035 
5351.000000	64.920926 
5350.000000	64.989781 
5349.000000	65.070176 
5348.000000	65.144658 
5347.000000	65.194129 
5346.000000	65.202116 
5345.000000	65.156006 
5344.000000	65.048956 
5343.000000	64.881587 
5342.000000	64.662480 
5341.000000	64.407682 
5340.000000	64.135956 
5339.000000	63.873076 
5338.000000	63.648819 
5337.000000	63.493132 
5336.000000	63.430738 
5335.000000	63.480925 
5334.000000	63.653016 
5333.000000	63.943147 
5332.000000	64.331960 
5331.000000	64.786005 
5330.000000	65.259671 
5329.000000	65.701460 
5328.000000	66.060829 
5327.000000	66.292881 
5326.000000	66.369247 
5325.000000	66.283607 
5324.000000	66.054797 
5323.000000	65.725421 
5322.000000	65.351724 
5321.000000	64.999628 
5320.000000	64.721536 
5319.000000	64.553999 
5318.000000	64.498353 
5317.000000	64.528250 
5316.000000	64.587545 
5315.000000	64.608740 
5314.000000	64.526176 
5313.000000	64.292907 
5312.000000	63.895535 
5311.000000	63.358330 
5310.000000	62.738180 
5309.000000	62.110400 
5308.000000	61.551570 
5307.000000	61.122322 
5306.000000	60.856652 
5305.000000	60.758972 
5304.000000	60.809898 
5303.000000	60.976791 
5302.000000	61.227321 
5301.000000	61.537170 
5300.000000	61.890625 
5299.000000	62.278747 
5298.000000	62.689828 
5297.000000	63.105630 
5296.000000	63.494801 
5295.000000	63.817381 
5294.000000	64.033603 
5293.000000	64.110159 
5292.000000	64.033675 
5291.000000	63.809347 
5290.000000	63.470435 
5289.000000	63.058948 
5288.000000	62.619495 
5287.000000	62.186074 
5286.000000	61.779141 
5285.000000	61.403107 
5284.000000	61.051678 
5283.000000	60.719156 
5282.000000	60.409259 
5281.000000	60.139799 
5280.000000	59.942150 
5279.000000	59.853625 
5278.000000	59.908986 
5277.000000	60.126757 
5276.000000	60.505485 
5275.000000	61.019921 
5274.000000	61.628341 
5273.000000	62.280988 
5272.000000	62.929987 
5271.000000	63.537383 
5270.000000	64.078140 
5269.000000	64.541411 
5268.000000	64.924740 
5267.000000	65.226674 
5266.000000	65.445375 
5265.000000	65.580034 
5264.000000	65.630531 
5263.000000	65.605115 
5262.000000	65.518116 
5261.000000	65.395975 
5260.000000	65.268778 
5259.000000	65.170288 
5258.000000	65.125584 
5257.000000	65.147185 
5256.000000	65.232849 
5255.000000	65.367794 
5254.000000	65.527296 
5253.000000	65.683317 
5252.000000	65.813350 
5251.000000	65.904378 
5250.000000	65.953016 
5249.000000	65.963196 
5248.000000	65.942096 
5247.000000	65.895652 
5246.000000	65.826678 
5245.000000	65.732836 
5244.000000	65.609264 
5243.000000	65.450215 
5242.000000	65.256524 
5241.000000	65.034532 
5240.000000	64.795637 
5239.000000	64.555740 
5238.000000	64.334011 
5237.000000	64.148569 
5236.000000	64.010000 
5235.000000	63.924145 
5234.000000	63.890600 
5233.000000	63.905239 
5232.000000	63.960099 
5231.000000	64.047145 
5230.000000	64.158177 
5229.000000	64.286565 
5228.000000	64.425730 
5227.000000	64.571523 
5226.000000	64.720392 
5225.000000	64.869403 
5224.000000	65.014672 
5223.000000	65.151309 
5222.000000	65.272665 
5221.000000	65.369939 
5220.000000	65.433645 
5219.000000	65.457201 
5218.000000	65.438008 
5217.000000	65.380382 
5216.000000	65.294027 
5215.000000	65.193223 
5214.000000	65.093493 
5213.000000	65.010213 
5212.000000	64.953994 
5211.000000	64.928269 
5210.000000	64.930081 
5209.000000	64.952230 
5208.000000	64.985466 
5207.000000	65.020799 
5206.000000	65.052628 
5205.000000	65.080547 
5204.000000	65.106296 
5203.000000	65.131759 
5202.000000	65.156102 
5201.000000	65.174174 
5200.000000	65.176701 
5199.000000	65.152025 
5198.000000	65.088677 
5197.000000	64.978957 
5196.000000	64.821934 
5195.000000	64.625430 
5194.000000	64.404010 
5193.000000	64.178037 
5192.000000	63.969659 
5191.000000	63.800215 
5190.000000	63.685274 
5189.000000	63.633823 
5188.000000	63.646888 
5187.000000	63.719153 
5186.000000	63.838863 
5185.000000	63.992404 
5184.000000	64.164733 
5183.000000	64.343428 
5182.000000	64.517688 
5181.000000	64.680743 
5180.000000	64.827823 
5179.000000	64.956307 
5178.000000	65.064954 
5177.000000	65.151906 
5176.000000	65.214490 
5175.000000	65.248870 
5174.000000	65.251827 
5173.000000	65.220522 
5172.000000	65.154457 
5171.000000	65.057063 
5170.000000	64.936757 
5169.000000	64.806222 
5168.000000	64.681291 
5167.000000	64.578723 
5166.000000	64.512848 
5165.000000	64.493036 
5164.000000	64.521002 
5163.000000	64.590835 
5162.000000	64.689302 
5161.000000	64.798045 
5160.000000	64.897775 
5159.000000	64.971733 
5158.000000	65.009784 
5157.000000	65.008854 
5156.000000	64.974617 
5155.000000	64.918255 
5154.000000	64.854979 
5153.000000	64.799952 
5152.000000	64.765477 
5151.000000	64.758396 
5150.000000	64.780735 
5149.000000	64.830923 
5148.000000	64.904093 
5147.000000	64.993619 
5146.000000	65.091943 
5145.000000	65.191531 
5144.000000	65.284371 
5143.000000	65.362477 
5142.000000	65.418195 
5141.000000	65.445160 
5140.000000	65.440034 
5139.000000	65.402746 
5138.000000	65.337085 
5137.000000	65.249800 
5136.000000	65.150809 
5135.000000	65.050673 
5134.000000	64.958858 
5133.000000	64.882564 
5132.000000	64.826107 
5131.000000	64.791059 
5130.000000	64.777159 
5129.000000	64.782500 
5128.000000	64.804291 
5127.000000	64.838361 
5126.000000	64.879369 
5125.000000	64.920496 
5124.000000	64.953136 
5123.000000	64.969396 
5122.000000	64.963126 
5121.000000	64.932179 
5120.000000	64.879226 
5119.000000	64.812254 
5118.000000	64.743399 
5117.000000	64.686059 
5116.000000	64.652085 
5115.000000	64.649629 
5114.000000	64.681124 
5113.000000	64.742684 
5112.000000	64.824867 
5111.000000	64.915084 
5110.000000	65.000438 
5109.000000	65.070199 
5108.000000	65.118026 
5107.000000	65.142154 
5106.000000	65.145444 
5105.000000	65.134119 
5104.000000	65.115523 
5103.000000	65.096330 
5102.000000	65.080976 
5101.000000	65.072107 
5100.000000	65.068864 
5099.000000	65.068626 
5098.000000	65.066647 
5097.000000	65.058422 
5096.000000	65.039443 
5095.000000	65.006542 
5094.000000	64.957714 
5093.000000	64.892935 
5092.000000	64.813947 
5091.000000	64.724421 
5090.000000	64.629483 
5089.000000	64.535593 
5088.000000	64.450407 
5087.000000	64.382028 
5086.000000	64.337778 
5085.000000	64.323019 
5084.000000	64.340066 
5083.000000	64.387369 
5082.000000	64.459085 
5081.000000	64.546585 
5080.000000	64.639425 
5079.000000	64.727520 
5078.000000	64.801907 
5077.000000	64.856696 
5076.000000	64.889144 
5075.000000	64.900302 
5074.000000	64.893674 
5073.000000	64.874935 
5072.000000	64.850664 
5071.000000	64.827394 
5070.000000	64.811301 
5069.000000	64.806008 
5068.000000	64.812660 
5067.000000	64.829158 
5066.000000	64.851212 
5065.000000	64.872360 
5064.000000	64.885473 
5063.000000	64.884400 
5062.000000	64.865469 
5061.000000	64.828038 
5060.000000	64.774537 
5059.000000	64.710903 
5058.000000	64.644765 
5057.000000	64.583635 
5056.000000	64.533305 
5055.000000	64.496946 
5054.000000	64.474916 
5053.000000	64.464735 
5052.000000	64.462852 
5051.000000	64.465332 
5050.000000	64.469790 
5049.000000	64.475655 
5048.000000	64.484810 
5047.000000	64.499449 
5046.000000	64.522480 
5045.000000	64.556074 
5044.000000	64.600706 
5043.000000	64.654207 
5042.000000	64.712572 
5041.000000	64.770555 
5040.000000	64.822983 
5039.000000	64.865994 
5038.000000	64.898371 
5037.000000	64.921617 
5036.000000	64.940214 
5035.000000	64.959836 
5034.000000	64.985656 
5033.000000	65.020656 
5032.000000	65.065169 
5031.000000	65.116071 
5030.000000	65.168142 
5029.000000	65.214991 
5028.000000	65.251350 
5027.000000	65.273952 
5026.000000	65.282249 
5025.000000	65.277814 
5024.000000	65.264534 
5023.000000	65.246152 
5022.000000	65.225768 
5021.000000	65.204334 
5020.000000	65.181326 
5019.000000	65.154170 
5018.000000	65.120339 
5017.000000	65.077352 
5016.000000	65.024280 
5015.000000	64.962291 
5014.000000	64.894723 
5013.000000	64.826846 
5012.000000	64.764738 
5011.000000	64.715480 
5010.000000	64.685678 
5009.000000	64.680767 
5008.000000	64.703798 
5007.000000	64.755058 
5006.000000	64.831471 
5005.000000	64.926171 
5004.000000	65.029215 
5003.000000	65.129089 
5002.000000	65.214538 
5001.000000	65.276455 
5000.000000	65.309786 
4999.000000	65.314006 
4998.000000	65.293574 
4997.000000	65.256834 
4996.000000	65.213584 
4995.000000	65.173459 
4994.000000	65.143036 
4993.000000	65.125226 
4992.000000	65.118527 
4991.000000	65.118455 
4990.000000	65.119123 
4989.000000	65.115237 
4988.000000	65.104269 
4987.000000	65.087270 
4986.000000	65.068459 
4985.000000	65.053367 
4984.000000	65.047073 
4983.000000	65.052175 
4982.000000	65.067386 
4981.000000	65.087771 
4980.000000	65.105962 
4979.000000	65.114736 
4978.000000	65.109324 
4977.000000	65.089702 
4976.000000	65.061020 
4975.000000	65.032982 
4974.000000	65.017294 
4973.000000	65.024495 
4972.000000	65.061783 
4971.000000	65.129804 
4970.000000	65.222668 
4969.000000	65.327763 
4968.000000	65.429759 
4967.000000	65.511655 
4966.000000	65.559887 
4965.000000	65.565252 
4964.000000	65.524959 
4963.000000	65.442228 
4962.000000	65.325713 
4961.000000	65.186834 
4960.000000	65.037798 
4959.000000	64.889764 
4958.000000	64.752054 
4957.000000	64.631175 
4956.000000	64.531135 
4955.000000	64.453744 
4954.000000	64.399766 
4953.000000	64.368438 
4952.000000	64.358448 
4951.000000	64.367246 
4950.000000	64.391827 
4949.000000	64.428067 
4948.000000	64.471578 
4947.000000	64.517116 
4946.000000	64.559626 
4945.000000	64.594268 
4944.000000	64.617252 
4943.000000	64.625859 
4942.000000	64.619374 
4941.000000	64.598894 
4940.000000	64.567923 
4939.000000	64.531350 
4938.000000	64.495515 
4937.000000	64.467549 
4936.000000	64.453792 
4935.000000	64.458680 
4934.000000	64.484262 
4933.000000	64.529490 
4932.000000	64.590716 
4931.000000	64.662432 
4930.000000	64.738440 
4929.000000	64.812946 
4928.000000	64.881992 
4927.000000	64.943790 
4926.000000	64.998030 
4925.000000	65.045332 
4924.000000	65.086770 
4923.000000	65.122890 
4922.000000	65.153741 
4921.000000	65.178489 
4920.000000	65.196800 
4919.000000	65.207815 
4918.000000	65.211606 
4917.000000	65.207815 
4916.000000	65.196847 
4915.000000	65.178489 
4914.000000	65.152335 
4913.000000	65.117979 
4912.000000	65.075230 
4911.000000	65.025091 
4910.000000	64.970088 
4909.000000	64.914512 
4908.000000	64.863967 
4907.000000	64.824032 
4906.000000	64.799118 
4905.000000	64.790892 
4904.000000	64.797949 
4903.000000	64.815402 
4902.000000	64.835953 
4901.000000	64.851450 
4900.000000	64.854764 
4899.000000	64.841198 
4898.000000	64.809870 
4897.000000	64.762926 
4896.000000	64.705562 
4895.000000	64.644837 
4894.000000	64.588713 
4893.000000	64.543557 
4892.000000	64.514017 
4891.000000	64.502573 
4890.000000	64.509463 
4889.000000	64.532852 
4888.000000	64.569258 
4887.000000	64.614200 
4886.000000	64.662814 
4885.000000	64.709711 
4884.000000	64.750170 
4883.000000	64.780211 
4882.000000	64.797925 
4881.000000	64.803171 
4880.000000	64.798784 
4879.000000	64.789557 
4878.000000	64.782047 
4877.000000	64.783334 
4876.000000	64.799118 
4875.000000	64.832305 
4874.000000	64.882111 
4873.000000	64.943885 
4872.000000	65.009355 
4871.000000	65.068149 
4870.000000	65.110015 
4869.000000	65.126800 
4868.000000	65.114212 
4867.000000	65.072631 
4866.000000	65.007376 
4865.000000	64.927315 
4864.000000	64.842820 
4863.000000	64.763784 
4862.000000	64.698266 
4861.000000	64.650535 
4860.000000	64.621400 
4859.000000	64.608025 
4858.000000	64.605617 
4857.000000	64.608430 
4856.000000	64.611124 
4855.000000	64.610123 
4854.000000	64.603376 
4853.000000	64.591240 
4852.000000	64.575505 
4851.000000	64.559054 
4850.000000	64.544558 
4849.000000	64.534521 
4848.000000	64.530372 
4847.000000	64.532542 
4846.000000	64.540481 
4845.000000	64.552927 
4844.000000	64.568471 
4843.000000	64.585876 
4842.000000	64.604735 
4841.000000	64.625549 
4840.000000	64.649415 
4839.000000	64.677715 
4838.000000	64.711117 
4837.000000	64.749217 
4836.000000	64.790010 
4835.000000	64.830112 
4834.000000	64.865303 
4833.000000	64.891552 
4832.000000	64.906215 
4831.000000	64.909315 
4830.000000	64.903354 
4829.000000	64.893078 
4828.000000	64.884161 
4827.000000	64.882254 
4826.000000	64.890718 
4825.000000	64.909934 
4824.000000	64.936947 
4823.000000	64.966607 
4822.000000	64.992761 
4821.000000	65.010380 
4820.000000	65.016937 
4819.000000	65.013337 
4818.000000	65.003085 
4817.000000	64.991211 
4816.000000	64.982867 
4815.000000	64.981579 
4814.000000	64.988088 
4813.000000	65.000176 
4812.000000	65.013766 
4811.000000	65.023422 
4810.000000	65.024590 
4809.000000	65.014219 
4808.000000	64.991497 
4807.000000	64.958214 
4806.000000	64.918279 
4805.000000	64.876914 
4804.000000	64.838767 
4803.000000	64.808011 
4802.000000	64.787387 
4801.000000	64.778280 
4800.000000	64.780497 
4799.000000	64.792895 
4798.000000	64.813804 
4797.000000	64.841151 
4796.000000	64.872765 
4795.000000	64.906740 
4794.000000	64.941477 
4793.000000	64.975929 
4792.000000	65.009450 
4791.000000	65.041923 
4790.000000	65.073800 
4789.000000	65.105867 
4788.000000	65.138840 
4787.000000	65.173530 
4786.000000	65.209698 
4785.000000	65.246605 
4784.000000	65.281748 
4783.000000	65.311217 
4782.000000	65.329670 
4781.000000	65.331792 
4780.000000	65.313267 
4779.000000	65.272450 
4778.000000	65.210938 
4777.000000	65.134024 
4776.000000	65.049862 
4775.000000	64.968180 
4774.000000	64.898347 
4773.000000	64.847540 
4772.000000	64.819574 
4771.000000	64.814233 
4770.000000	64.827799 
4769.000000	64.854359 
4768.000000	64.887475 
4767.000000	64.921951 
4766.000000	64.954423 
4765.000000	64.983725 
4764.000000	65.010476 
4763.000000	65.036177 
4762.000000	65.062093 
4761.000000	65.088510 
4760.000000	65.115022 
4759.000000	65.140080 
4758.000000	65.162205 
4757.000000	65.179491 
4756.000000	65.190672 
4755.000000	65.194249 
4754.000000	65.189123 
4753.000000	65.174341 
4752.000000	65.149307 
4751.000000	65.114045 
4750.000000	65.069842 
4749.000000	65.019297 
4748.000000	64.966177 
4747.000000	64.915156 
4746.000000	64.871072 
4745.000000	64.837670 
4744.000000	64.816570 
4743.000000	64.807271 
4742.000000	64.807271 
4741.000000	64.812827 
4740.000000	64.820051 
4739.000000	64.826130 
4738.000000	64.830017 
4737.000000	64.832496 
4736.000000	64.835786 
4735.000000	64.842081 
4734.000000	64.852809 
4733.000000	64.868021 
4732.000000	64.886212 
4731.000000	64.904689 
4730.000000	64.920592 
4729.000000	64.931535 
4728.000000	64.936399 
4727.000000	64.935970 
4726.000000	64.932584 
4725.000000	64.929389 
4724.000000	64.929676 
4723.000000	64.935898 
4722.000000	64.949369 
4721.000000	64.969825 
4720.000000	64.995908 
4719.000000	65.025782 
4718.000000	65.057277 
4717.000000	65.088629 
4716.000000	65.118384 
4715.000000	65.145635 
4714.000000	65.169048 
4713.000000	65.186905 
4712.000000	65.197110 
4711.000000	65.197610 
4710.000000	65.187001 
4709.000000	65.165257 
4708.000000	65.134167 
4707.000000	65.097451 
4706.000000	65.060424 
4705.000000	65.029358 
4704.000000	65.010070 
4703.000000	65.006995 
4702.000000	65.022182 
4701.000000	65.055155 
4700.000000	65.102815 
4699.000000	65.160107 
4698.000000	65.220952 
4697.000000	65.278792 
4696.000000	65.327882 
4695.000000	65.364003 
4694.000000	65.384626 
4693.000000	65.389466 
4692.000000	65.380191 
4691.000000	65.360307 
4690.000000	65.334296 
4689.000000	65.306830 
4688.000000	65.282320 
4687.000000	65.263414 
4686.000000	65.250802 
4685.000000	65.242743 
4684.000000	65.235781 
4683.000000	65.225505 
4682.000000	65.208220 
4681.000000	65.181565 
4680.000000	65.146160 
4679.000000	65.105676 
4678.000000	65.066409 
4677.000000	65.035748 
4676.000000	65.020632 
4675.000000	65.025758 
4674.000000	65.052342 
4673.000000	65.097332 
4672.000000	65.154576 
4671.000000	65.215635 
4670.000000	65.272259 
4669.000000	65.317487 
4668.000000	65.347719 
4667.000000	65.362811 
4666.000000	65.366125 
4665.000000	65.362572 
4664.000000	65.357995 
4663.000000	65.357613 
4662.000000	65.364789 
4661.000000	65.380430 
4660.000000	65.403103 
4659.000000	65.429854 
4658.000000	65.456748 
4657.000000	65.480256 
4656.000000	65.497756 
4655.000000	65.508031 
4654.000000	65.511274 
4653.000000	65.508675 
4652.000000	65.502023 
4651.000000	65.492677 
4650.000000	65.481853 
4649.000000	65.470147 
4648.000000	65.457582 
4647.000000	65.444087 
4646.000000	65.429711 
4645.000000	65.415000 
4644.000000	65.400934 
4643.000000	65.388727 
4642.000000	65.379381 
4641.000000	65.373301 
4640.000000	65.370416 
4639.000000	65.369367 
4638.000000	65.367770 
4637.000000	65.362834 
4636.000000	65.352368 
4635.000000	65.334701 
4634.000000	65.309333 
4633.000000	65.276861 
4632.000000	65.239000 
4631.000000	65.198016 
4630.000000	65.156650 
4629.000000	65.117764 
4628.000000	65.084171 
4627.000000	65.058374 
4626.000000	65.042352 
4625.000000	65.037322 
4624.000000	65.043735 
4623.000000	65.061092 
4622.000000	65.087795 
4621.000000	65.121126 
4620.000000	65.157222 
4619.000000	65.191960 
4618.000000	65.220713 
4617.000000	65.239143 
4616.000000	65.243244 
4615.000000	65.230464 
4614.000000	65.199637 
4613.000000	65.151548 
4612.000000	65.089035 
4611.000000	65.016937 
4610.000000	64.941668 
4609.000000	64.870429 
4608.000000	64.810132 
4607.000000	64.766454 
4606.000000	64.742660 
4605.000000	64.739203 
4604.000000	64.753413 
4603.000000	64.780521 
4602.000000	64.815044 
4601.000000	64.852499 
4600.000000	64.890027 
4599.000000	64.927387 
4598.000000	64.966559 
4597.000000	65.011000 
4596.000000	65.064001 
4595.000000	65.127182 
4594.000000	65.199184 
4593.000000	65.275335 
4592.000000	65.348887 
4591.000000	65.411472 
4590.000000	65.455698 
4589.000000	65.475821 
4588.000000	65.469932 
4587.000000	65.439724 
4586.000000	65.390372 
4585.000000	65.329122 
4584.000000	65.263891 
4583.000000	65.201616 
4582.000000	65.147423 
4581.000000	65.103721 
4580.000000	65.070676 
4579.000000	65.046072 
4578.000000	65.026497 
4577.000000	65.007734 
4576.000000	64.986038 
4575.000000	64.958238 
4574.000000	64.922952 
4573.000000	64.880084 
4572.000000	64.831829 
4571.000000	64.782428 
4570.000000	64.738154 
4569.000000	64.705944 
4568.000000	64.691948 
4567.000000	64.700889 
4566.000000	64.733910 
4565.000000	64.788126 
4564.000000	64.856243 
4563.000000	64.927864 
4562.000000	64.991140 
4561.000000	65.034914 
4560.000000	65.051102 
4559.000000	65.036249 
4558.000000	64.992308 
4557.000000	64.926028 
4556.000000	64.847183 
4555.000000	64.766073 
4554.000000	64.691615 
4553.000000	64.629864 
4552.000000	64.582848 
4551.000000	64.548993 
4550.000000	64.524602 
4549.000000	64.505338 
4548.000000	64.487218 
4547.000000	64.467883 
4546.000000	64.446473 
4545.000000	64.424180 
4544.000000	64.403128 
4543.000000	64.386105 
4542.000000	64.375162 
4541.000000	64.371633 
4540.000000	64.374923 
4539.000000	64.383459 
4538.000000	64.394593 
4537.000000	64.405965 
4536.000000	64.416050 
4535.000000	64.425110 
4534.000000	64.434647 
4533.000000	64.447307 
4532.000000	64.465880 
4531.000000	64.492344 
4530.000000	64.526820 
4529.000000	64.567637 
4528.000000	64.611506 
4527.000000	64.654231 
4526.000000	64.691758 
4525.000000	64.720582 
4524.000000	64.738392 
4523.000000	64.744639 
4522.000000	64.740514 
4521.000000	64.727997 
4520.000000	64.709520 
4519.000000	64.687705 
4518.000000	64.664840 
4517.000000	64.642786 
4516.000000	64.622521 
4515.000000	64.604854 
4514.000000	64.589643 
4513.000000	64.576244 
4512.000000	64.563345 
4511.000000	64.549112 
4510.000000	64.531874 
4509.000000	64.510226 
4508.000000	64.483642 
4507.000000	64.452648 
4506.000000	64.418888 
4505.000000	64.384770 
4504.000000	64.353442 
4503.000000	64.327788 
4502.000000	64.310145 
4501.000000	64.301872 
4500.000000	64.303421 
4499.000000	64.314079 
4498.000000	64.332365 
4497.000000	64.356350 
4496.000000	64.383602 
4495.000000	64.411592 
4494.000000	64.437508 
4493.000000	64.458537 
4492.000000	64.472079 
4491.000000	64.475941 
4490.000000	64.469242 
4489.000000	64.452075 
4488.000000	64.426136 
4487.000000	64.393806 
4486.000000	64.358282 
4485.000000	64.322304 
4484.000000	64.287972 
4483.000000	64.256381 
4482.000000	64.227581 
4481.000000	64.201235 
4480.000000	64.177346 
4479.000000	64.156532 
4478.000000	64.140176 
4477.000000	64.130306 
4476.000000	64.129042 
4475.000000	64.137864 
4474.000000	64.156675 
4473.000000	64.183878 
4472.000000	64.216303 
4471.000000	64.250278 
4470.000000	64.282369 
4469.000000	64.310550 
4468.000000	64.334416 
4467.000000	64.354729 
4466.000000	64.372444 
4465.000000	64.388155 
4464.000000	64.400887 
4463.000000	64.407849 
4462.000000	64.404773 
4461.000000	64.386987 
4460.000000	64.351129 
4459.000000	64.296960 
4458.000000	64.228296 
4457.000000	64.152622 
4456.000000	64.080238 
4455.000000	64.022421 
4454.000000	63.988804 
4453.000000	63.984966 
4452.000000	64.011073 
4451.000000	64.062213 
4450.000000	64.128732 
4449.000000	64.198684 
4448.000000	64.259886 
4447.000000	64.302062 
4446.000000	64.319396 
4445.000000	64.310860 
4444.000000	64.281487 
4443.000000	64.240670 
4442.000000	64.201068 
4441.000000	64.175319 
4440.000000	64.173030 
4439.000000	64.198136 
4438.000000	64.248561 
4437.000000	64.316153 
4436.000000	64.389634 
4435.000000	64.455819 
4434.000000	64.503335 
4433.000000	64.523148 
4432.000000	64.510917 
4431.000000	64.466285 
4430.000000	64.390754 
4429.000000	64.288854 
4428.000000	64.169239 
4427.000000	64.041805 
4426.000000	63.915753 
4425.000000	63.799619 
4424.000000	63.700461 
4423.000000	63.623905 
4422.000000	63.576579 
4421.000000	63.559603 
4420.000000	63.564515 
4419.000000	63.585877 
4418.000000	63.624620 
4417.000000	63.681149 
4416.000000	63.754200 
4415.000000	63.844561 
4414.000000	63.953042 
4413.000000	64.078927 
4412.000000	64.218163 
4411.000000	64.362168 
4410.000000	64.496946 
4409.000000	64.608979 
4408.000000	64.683127 
4407.000000	64.705514 
4406.000000	64.661240 
4405.000000	64.549207 
4404.000000	64.366245 
4403.000000	64.111638 
4402.000000	63.779592 
4401.000000	63.350248 
4400.000000	62.818050 
4399.000000	62.174224 
4398.000000	61.468720 
4397.000000	60.800600 
4396.000000	60.335159 
4395.000000	60.266709 
4394.000000	60.782289 
4393.000000	62.005615 
4392.000000	63.953471 
4391.000000	66.509819 
4390.000000	69.440150 
4389.000000	72.426772 
4388.000000	75.131201 
4387.000000	77.254462 
4386.000000	78.586339 
4385.000000	79.033470 
4384.000000	78.626871 
4383.000000	77.497720 
4382.000000	75.844287 
4381.000000	73.884367 
4380.000000	71.834015 
4379.000000	69.864845 
4378.000000	68.117547 
4377.000000	66.670823 
4376.000000	65.578746 
4375.000000	64.844083 
4374.000000	64.434266 
4373.000000	64.285850 
4372.000000	64.299178 
4371.000000	64.381837 
4370.000000	64.448928 
4369.000000	64.457845 
4368.000000	64.400362 
4367.000000	64.306402 
4366.000000	64.220285 
4365.000000	64.186787 
4364.000000	64.226865 
4363.000000	64.345026 
4362.000000	64.526176 
4361.000000	64.745950 
4360.000000	64.976525 
4359.000000	65.195369 
4358.000000	65.387725 
4357.000000	65.535092 
4356.000000	65.620422 
4355.000000	65.636229 
4354.000000	65.583539 
4353.000000	65.471816 
4352.000000	65.317082 
4351.000000	65.137910 
4350.000000	64.953351 
4349.000000	64.787197 
4348.000000	64.658164 
4347.000000	64.573502 
4346.000000	64.532780 
4345.000000	64.534473 
4344.000000	64.571046 
4343.000000	64.628744 
4342.000000	64.693427 
4341.000000	64.752912 
4340.000000	64.798521 
4339.000000	64.825129 
4338.000000	64.831662 
4337.000000	64.819455 
4336.000000	64.792633 
4335.000000	64.756417 
4334.000000	64.716768 
4333.000000	64.679121 
4332.000000	64.647245 
4331.000000	64.623141 
4330.000000	64.606499 
4329.000000	64.595770 
4328.000000	64.589905 
4327.000000	64.589047 
4326.000000	64.593911 
4325.000000	64.606070 
4324.000000	64.627337 
4323.000000	64.658474 
4322.000000	64.697790 
4321.000000	64.741373 
4320.000000	64.783096 
4319.000000	64.816498 
4318.000000	64.836645 
4317.000000	64.841103 
4316.000000	64.830350 
4315.000000	64.808201 
4314.000000	64.781260 
4313.000000	64.756917 
4312.000000	64.741396 
4311.000000	64.738488 
4310.000000	64.748597 
4309.000000	64.769554 
4308.000000	64.797520 
4307.000000	64.828276 
4306.000000	64.858198 
4305.000000	64.885234 
4304.000000	64.908671 
4303.000000	64.928698 
4302.000000	64.945173 
4301.000000	64.957141 
4300.000000	64.962244 
4299.000000	64.957451 
4298.000000	64.939475 
4297.000000	64.906311 
4296.000000	64.858269 
4295.000000	64.798617 
4294.000000	64.733672 
4293.000000	64.671730 
4292.000000	64.621853 
4291.000000	64.591956 
4290.000000	64.587259 
4289.000000	64.609003 
4288.000000	64.653849 
4287.000000	64.714884 
4286.000000	64.782190 
4285.000000	64.845085 
4284.000000	64.893627 
4283.000000	64.920520 
4282.000000	64.922046 
4281.000000	64.898443 
4280.000000	64.853501 
4279.000000	64.793229 
4278.000000	64.724802 
4277.000000	64.654827 
4276.000000	64.588332 
4275.000000	64.528179 
4274.000000	64.475417 
4273.000000	64.429855 
4272.000000	64.390826 
4271.000000	64.358496 
4270.000000	64.333868 
4269.000000	64.319610 
4268.000000	64.318561 
4267.000000	64.334011 
4266.000000	64.367032 
4265.000000	64.417171 
4264.000000	64.481139 
4263.000000	64.553928 
4262.000000	64.629030 
4261.000000	64.699864 
4260.000000	64.761185 
4259.000000	64.809179 
4258.000000	64.841866 
4257.000000	64.858675 
4256.000000	64.860272 
4255.000000	64.847612 
4254.000000	64.821887 
4253.000000	64.784193 
4252.000000	64.736080 
4251.000000	64.679789 
4250.000000	64.618659 
4249.000000	64.557027 
4248.000000	64.500069 
4247.000000	64.452433 
4246.000000	64.418148 
4245.000000	64.399361 
4244.000000	64.397096 
4243.000000	64.410257 
4242.000000	64.437270 
4241.000000	64.475750 
4240.000000	64.523553 
4239.000000	64.578413 
4238.000000	64.638185 
4237.000000	64.700222 
4236.000000	64.761567 
4235.000000	64.818525 
4234.000000	64.867329 
4233.000000	64.904713 
4232.000000	64.928579 
4231.000000	64.938855 
4230.000000	64.937186 
4229.000000	64.926624 
4228.000000	64.910697 
4227.000000	64.892721 
4226.000000	64.874768 
4225.000000	64.857578 
4224.000000	64.840483 
4223.000000	64.822244 
4222.000000	64.802312 
4221.000000	64.781355 
4220.000000	64.761114 
4219.000000	64.744305 
4218.000000	64.733886 
4217.000000	64.732360 
4216.000000	64.740180 
4215.000000	64.756441 
4214.000000	64.778447 
4213.000000	64.803218 
4212.000000	64.828228 
4211.000000	64.852070 
4210.000000	64.874863 
4209.000000	64.897298 
4208.000000	64.920616 
4207.000000	64.944720 
4206.000000	64.967584 
4205.000000	64.985966 
4204.000000	64.996147 
4203.000000	64.995312 
4202.000000	64.982676 
4201.000000	64.960718 
4200.000000	64.935255 
4199.000000	64.914202 
4198.000000	64.905834 
4197.000000	64.916396 
4196.000000	64.948391 
4195.000000	64.999818 
4194.000000	65.064501 
4193.000000	65.133500 
4192.000000	65.197110 
4191.000000	65.247726 
4190.000000	65.280628 
4189.000000	65.295147 
4188.000000	65.293622 
4187.000000	65.280461 
4186.000000	65.260195 
4185.000000	65.236759 
4184.000000	65.211868 
4183.000000	65.185570 
4182.000000	65.156149 
4181.000000	65.121936 
4180.000000	65.081429 
4179.000000	65.034914 
4178.000000	64.984178 
4177.000000	64.932584 
4176.000000	64.884519 
4175.000000	64.844202 
4174.000000	64.815235 
4173.000000	64.799928 
4172.000000	64.798951 
4171.000000	64.811444 
4170.000000	64.835381 
4169.000000	64.868140 
4168.000000	64.906644 
4167.000000	64.947772 
4166.000000	64.989113 
4165.000000	65.028667 
4164.000000	65.064954 
4163.000000	65.096211 
4162.000000	65.120482 
4161.000000	65.135097 
4160.000000	65.137362 
4159.000000	65.124845 
4158.000000	65.096664 
4157.000000	65.053844 
4156.000000	65.000033 
4155.000000	64.940905 
4154.000000	64.883232 
4153.000000	64.834117 
4152.000000	64.799761 
4151.000000	64.784550 
4150.000000	64.790248 
4149.000000	64.816093 
4148.000000	64.859032 
4147.000000	64.913940 
4146.000000	64.974260 
4145.000000	65.033006 
4144.000000	65.083503 
4143.000000	65.119743 
4142.000000	65.137410 
4141.000000	65.134572 
4140.000000	65.112328 
4139.000000	65.074419 
4138.000000	65.026998 
4137.000000	64.978098 
4136.000000	64.935684 
4135.000000	64.906692 
4134.000000	64.895582 
4133.000000	64.903521 
4132.000000	64.928317 
4131.000000	64.965462 
4130.000000	65.009045 
4129.000000	65.053200 
4128.000000	65.093231 
4127.000000	65.126299 
4126.000000	65.151715 
4125.000000	65.170097 
4124.000000	65.182805 
4123.000000	65.190649 
4122.000000	65.194082 
4121.000000	65.192866 
4120.000000	65.187191 
4119.000000	65.178394 
4118.000000	65.169167 
4117.000000	65.163493 
4116.000000	65.166211 
4115.000000	65.181827 
4114.000000	65.212726 
4113.000000	65.258693 
4112.000000	65.316939 
4111.000000	65.382480 
4110.000000	65.449118 
4109.000000	65.510368 
4108.000000	65.560650 
4107.000000	65.596008 
4106.000000	65.614795 
4105.000000	65.617394 
4104.000000	65.605711 
4103.000000	65.583109 
4102.000000	65.554118 
4101.000000	65.523242 
4100.000000	65.494990 
4099.000000	65.472459 
4098.000000	65.457749 
4097.000000	65.450429 
4096.000000	65.448284 
4095.000000	65.446758 
4094.000000	65.440368 
4093.000000	65.423393 
4092.000000	65.391445 
4091.000000	65.342593 
4090.000000	65.277862 
4089.000000	65.201139 
4088.000000	65.118551 
4087.000000	65.036988 
4086.000000	64.963102 
4085.000000	64.901804 
4084.000000	64.856219 
4083.000000	64.826869 
4082.000000	64.813065 
4081.000000	64.813232 
4080.000000	64.826250 
4079.000000	64.850854 
4078.000000	64.886832 
4077.000000	64.933538 
4076.000000	64.990139 
4075.000000	65.054202 
4074.000000	65.122365 
4073.000000	65.190196 
4072.000000	65.253090 
4071.000000	65.306997 
4070.000000	65.348625 
4069.000000	65.376091 
4068.000000	65.388917 
4067.000000	65.388083 
4066.000000	65.375638 
4065.000000	65.354347 
4064.000000	65.327668 
4063.000000	65.299224 
4062.000000	65.272545 
4061.000000	65.250396 
4060.000000	65.234827 
4059.000000	65.227055 
4058.000000	65.227007 
4057.000000	65.233922 
4056.000000	65.246343 
4055.000000	65.262961 
4054.000000	65.282392 
4053.000000	65.303945 
4052.000000	65.327405 
4051.000000	65.352773 
4050.000000	65.380001 
4049.000000	65.408229 
4048.000000	65.435981 
4047.000000	65.460681 
4046.000000	65.479826 
4045.000000	65.490865 
4044.000000	65.492081 
4043.000000	65.482568 
4042.000000	65.462923 
4041.000000	65.434575 
4040.000000	65.399742 
4039.000000	65.361142 
4038.000000	65.321683 
4037.000000	65.284061 
4036.000000	65.250372 
4035.000000	65.221714 
4034.000000	65.198111 
4033.000000	65.178775 
4032.000000	65.162205 
4031.000000	65.146541 
4030.000000	65.129995 
4029.000000	65.111303 
4028.000000	65.090203 
4027.000000	65.067243 
4026.000000	65.043926 
4025.000000	65.022182 
4024.000000	65.003967 
4023.000000	64.990830 
4022.000000	64.983391 
4021.000000	64.981126 
4020.000000	64.982533 
4019.000000	64.985370 
4018.000000	64.987134 
4017.000000	64.985537 
4016.000000	64.979028 
4015.000000	64.966988 
4014.000000	64.949989 
4013.000000	64.929723 
4012.000000	64.909100 
4011.000000	64.891600 
4010.000000	64.880943 
4009.000000	64.880156 
4008.000000	64.891147 
4007.000000	64.914178 
4006.000000	64.947462 
4005.000000	64.987730 
4004.000000	65.030479 
4003.000000	65.071034 
4002.000000	65.105557 
4001.000000	65.131759 
4000.000000	65.149092 
3999.000000	65.158843 
3998.000000	65.163946 
3997.000000	65.167856 
3996.000000	65.173602 
3995.000000	65.183305 
3994.000000	65.197873 
3993.000000	65.216922 
3992.000000	65.239405 
3991.000000	65.263748 
3990.000000	65.288734 
3989.000000	65.313124 
3988.000000	65.335893 
3987.000000	65.355753 
3986.000000	65.371179 
3985.000000	65.380120 
3984.000000	65.380382 
3983.000000	65.370035 
3982.000000	65.348172 
3981.000000	65.315127 
3980.000000	65.273046 
3979.000000	65.225696 
3978.000000	65.178012 
3977.000000	65.135502 
3976.000000	65.103387 
3975.000000	65.085554 
3974.000000	65.084099 
3973.000000	65.099358 
3972.000000	65.129542 
3971.000000	65.171098 
3970.000000	65.219044 
3969.000000	65.267729 
3968.000000	65.311551 
3967.000000	65.345072 
3966.000000	65.364432 
3965.000000	65.367650 
3964.000000	65.355324 
3963.000000	65.330195 
3962.000000	65.296936 
3961.000000	65.261459 
3960.000000	65.229558 
3959.000000	65.205860 
3958.000000	65.193223 
3957.000000	65.192294 
3956.000000	65.201449 
3955.000000	65.217280 
3954.000000	65.235757 
3953.000000	65.253114 
3952.000000	65.266489 
3951.000000	65.274477 
3950.000000	65.276885 
3949.000000	65.274477 
3948.000000	65.268659 
3947.000000	65.260815 
3946.000000	65.252041 
3945.000000	65.242838 
3944.000000	65.233731 
3943.000000	65.224695 
3942.000000	65.216064 
3941.000000	65.207886 
3940.000000	65.200304 
3939.000000	65.193295 
3938.000000	65.186762 
3937.000000	65.180397 
3936.000000	65.173459 
3935.000000	65.165114 
3934.000000	65.154385 
3933.000000	65.140509 
3932.000000	65.123224 
3931.000000	65.102648 
3930.000000	65.079379 
3929.000000	65.054607 
3928.000000	65.030050 
3927.000000	65.007567 
3926.000000	64.989161 
3925.000000	64.976453 
3924.000000	64.970707 
3923.000000	64.972376 
3922.000000	64.981150 
3921.000000	64.995622 
3920.000000	65.013480 
3919.000000	65.032029 
3918.000000	65.048527 
3917.000000	65.060520 
3916.000000	65.066289 
3915.000000	65.065050 
3914.000000	65.057158 
3913.000000	65.043997 
3912.000000	65.027904 
3911.000000	65.011811 
3910.000000	64.999175 
3909.000000	64.993333 
3908.000000	64.997363 
3907.000000	65.013527 
3906.000000	65.043115 
3905.000000	65.085935 
3904.000000	65.140104 
3903.000000	65.201973 
3902.000000	65.266275 
3901.000000	65.326619 
3900.000000	65.376210 
3899.000000	65.408754 
3898.000000	65.419673 
3897.000000	65.407013 
3896.000000	65.371751 
3895.000000	65.317845 
3894.000000	65.252208 
3893.000000	65.183138 
3892.000000	65.119194 
3891.000000	65.067291 
3890.000000	65.032267 
3889.000000	65.015840 
3888.000000	65.016531 
3887.000000	65.030503 
3886.000000	65.052437 
3885.000000	65.076923 
3884.000000	65.099501 
3883.000000	65.117502 
3882.000000	65.129780 
3881.000000	65.136957 
3880.000000	65.140390 
3879.000000	65.141391 
3878.000000	65.140581 
3877.000000	65.137815 
3876.000000	65.132355 
3875.000000	65.123057 
3874.000000	65.109205 
3873.000000	65.091109 
3872.000000	65.070199 
3871.000000	65.048956 
3870.000000	65.030431 
3869.000000	65.017795 
3868.000000	65.013527 
3867.000000	65.018844 
3866.000000	65.033698 
3865.000000	65.056729 
3864.000000	65.085840 
3863.000000	65.118598 
3862.000000	65.152835 
3861.000000	65.186619 
3860.000000	65.218615 
3859.000000	65.248060 
3858.000000	65.274286 
3857.000000	65.296292 
3856.000000	65.312790 
3855.000000	65.322470 
3854.000000	65.323638 
3853.000000	65.314865 
3852.000000	65.295243 
3851.000000	65.265083 
3850.000000	65.225672 
3849.000000	65.179610 
3848.000000	65.130424 
3847.000000	65.082359 
3846.000000	65.039658 
3845.000000	65.006160 
3844.000000	64.984774 
3843.000000	64.976787 
3842.000000	64.981913 
3841.000000	64.998340 
3840.000000	65.022754 
3839.000000	65.051126 
3838.000000	65.079283 
3837.000000	65.103745 
3836.000000	65.121698 
3835.000000	65.132236 
3834.000000	65.136146 
3833.000000	65.135884 
3832.000000	65.134620 
3831.000000	65.135812 
3830.000000	65.142703 
3829.000000	65.157270 
3828.000000	65.180182 
3827.000000	65.210556 
3826.000000	65.246438 
3825.000000	65.285086 
3824.000000	65.323638 
3823.000000	65.359187 
3822.000000	65.388941 
3821.000000	65.410804 
3820.000000	65.423464 
3819.000000	65.426206 
3818.000000	65.419197 
3817.000000	65.403723 
3816.000000	65.381884 
3815.000000	65.356349 
3814.000000	65.329480 
3813.000000	65.303683 
3812.000000	65.280079 
3811.000000	65.258860 
3810.000000	65.238857 
3809.000000	65.217947 
3808.000000	65.194106 
3807.000000	65.166234 
3806.000000	65.134716 
3805.000000	65.101146 
3804.000000	65.068602 
3803.000000	65.040898 
3802.000000	65.021753 
3801.000000	65.013408 
3800.000000	65.016770 
3799.000000	65.030980 
3798.000000	65.053939 
3797.000000	65.082740 
3796.000000	65.114593 
3795.000000	65.147280 
3794.000000	65.179443 
3793.000000	65.210556 
3792.000000	65.240645 
3791.000000	65.269684 
3790.000000	65.297532 
3789.000000	65.323066 
3788.000000	65.344810 
3787.000000	65.360331 
3786.000000	65.367650 
3785.000000	65.364813 
3784.000000	65.350389 
3783.000000	65.323662 
3782.000000	65.285086 
3781.000000	65.236186 
3780.000000	65.179347 
3779.000000	65.117907 
3778.000000	65.055823 
3777.000000	64.997363 
3776.000000	64.946508 
3775.000000	64.906620 
3774.000000	64.879751 
3773.000000	64.866685 
3772.000000	64.866638 
3771.000000	64.877796 
3770.000000	64.897298 
3769.000000	64.922213 
3768.000000	64.949703 
3767.000000	64.977669 
3766.000000	65.004730 
3765.000000	65.030074 
3764.000000	65.053510 
3763.000000	65.074872 
3762.000000	65.094137 
3761.000000	65.111446 
3760.000000	65.126872 
3759.000000	65.140724 
3758.000000	65.153264 
3757.000000	65.164995 
3756.000000	65.176105 
3755.000000	65.186619 
3754.000000	65.196037 
3753.000000	65.203475 
3752.000000	65.207648 
3751.000000	65.207600 
3750.000000	65.202450 
3749.000000	65.191841 
3748.000000	65.176057 
3747.000000	65.156316 
3746.000000	65.134477 
3745.000000	65.112590 
3744.000000	65.093064 
3743.000000	65.078186 
3742.000000	65.070199 
3741.000000	65.070843 
3740.000000	65.081405 
3739.000000	65.102386 
3738.000000	65.133213 
3737.000000	65.172147 
3736.000000	65.216255 
3735.000000	65.261459 
3734.000000	65.303301 
3733.000000	65.337634 
3732.000000	65.361285 
3731.000000	65.372633 
3730.000000	65.371990 
3729.000000	65.361475 
3728.000000	65.344858 
3727.000000	65.326356 
3726.000000	65.310168 
3725.000000	65.299057 
3724.000000	65.294551 
3723.000000	65.296053 
3722.000000	65.301775 
3721.000000	65.308713 
3720.000000	65.313816 
3719.000000	65.314602 
3718.000000	65.309715 
3717.000000	65.299391 
3716.000000	65.285038 
3715.000000	65.269184 
3714.000000	65.254735 
3713.000000	65.244364 
3712.000000	65.239787 
3711.000000	65.241146 
3710.000000	65.247249 
3709.000000	65.255546 
3708.000000	65.262889 
3707.000000	65.266656 
3706.000000	65.265488 
3705.000000	65.259575 
3704.000000	65.250945 
3703.000000	65.242719 
3702.000000	65.238499 
3701.000000	65.240955 
3700.000000	65.251064 
3699.000000	65.267848 
3698.000000	65.288114 
3697.000000	65.307307 
3696.000000	65.320372 
3695.000000	65.323019 
3694.000000	65.312862 
3693.000000	65.290212 
3692.000000	65.258121 
3691.000000	65.221548 
3690.000000	65.186643 
3689.000000	65.159320 
3688.000000	65.143704 
3687.000000	65.141439 
3686.000000	65.151381 
3685.000000	65.170001 
3684.000000	65.192127 
3683.000000	65.212416 
3682.000000	65.226483 
3681.000000	65.231990 
3680.000000	65.229034 
3679.000000	65.219807 
3678.000000	65.207982 
3677.000000	65.197300 
3676.000000	65.190505 
3675.000000	65.188455 
3674.000000	65.190124 
3673.000000	65.192890 
3672.000000	65.193700 
3671.000000	65.189886 
3670.000000	65.180325 
3669.000000	65.165758 
3668.000000	65.148758 
3667.000000	65.133190 
3666.000000	65.122795 
3665.000000	65.120744 
3664.000000	65.128588 
3663.000000	65.146112 
3662.000000	65.171265 
3661.000000	65.200924 
3660.000000	65.231609 
3659.000000	65.260171 
3658.000000	65.284323 
3657.000000	65.302610 
3656.000000	65.314507 
3655.000000	65.320253 
3654.000000	65.320634 
3653.000000	65.317010 
3652.000000	65.310978 
3651.000000	65.304589 
3650.000000	65.299558 
3649.000000	65.297079 
3648.000000	65.297317 
3647.000000	65.299677 
3646.000000	65.302395 
3645.000000	65.303206 
3644.000000	65.299773 
3643.000000	65.290355 
3642.000000	65.274357 
3641.000000	65.252065 
3640.000000	65.224933 
3639.000000	65.195131 
3638.000000	65.165138 
3637.000000	65.137314 
3636.000000	65.113568 
3635.000000	65.095186 
3634.000000	65.082716 
3633.000000	65.076041 
3632.000000	65.074539 
3631.000000	65.077090 
3630.000000	65.082168 
3629.000000	65.088248 
3628.000000	65.093493 
3627.000000	65.096497 
3626.000000	65.096640 
3625.000000	65.094470 
3624.000000	65.091538 
3623.000000	65.090274 
3622.000000	65.093231 
3621.000000	65.102577 
3620.000000	65.119218 
3619.000000	65.142774 
3618.000000	65.171313 
3617.000000	65.201902 
3616.000000	65.231275 
3615.000000	65.256404 
3614.000000	65.275216 
3613.000000	65.286731 
3612.000000	65.291357 
3611.000000	65.290403 
3610.000000	65.285563 
3609.000000	65.278530 
3608.000000	65.270781 
3607.000000	65.262961 
3606.000000	65.255141 
3605.000000	65.247154 
3604.000000	65.239024 
3603.000000	65.230774 
3602.000000	65.222597 
3601.000000	65.214800 
3600.000000	65.207839 
3599.000000	65.201783 
3598.000000	65.196275 
3597.000000	65.190458 
3596.000000	65.182995 
3595.000000	65.172457 
3594.000000	65.157699 
3593.000000	65.138101 
3592.000000	65.114307 
3591.000000	65.088081 
3590.000000	65.062499 
3589.000000	65.041160 
3588.000000	65.027642 
3587.000000	65.024828 
3586.000000	65.034079 
3585.000000	65.054726 
3584.000000	65.084457 
3583.000000	65.119552 
3582.000000	65.155911 
3581.000000	65.189528 
3580.000000	65.217685 
3579.000000	65.239143 
3578.000000	65.254378 
3577.000000	65.265059 
3576.000000	65.273666 
3575.000000	65.282440 
3574.000000	65.292859 
3573.000000	65.304994 
3572.000000	65.317726 
3571.000000	65.328764 
3570.000000	65.335607 
3569.000000	65.335750 
3568.000000	65.327620 
3567.000000	65.310811 
3566.000000	65.286540 
3565.000000	65.257000 
3564.000000	65.224838 
3563.000000	65.193080 
3562.000000	65.164351 
3561.000000	65.140748 
3560.000000	65.123486 
3559.000000	65.113067 
3558.000000	65.109491 
3557.000000	65.112471 
3556.000000	65.121459 
3555.000000	65.135741 
3554.000000	65.154194 
3553.000000	65.175223 
3552.000000	65.196776 
3551.000000	65.216135 
3550.000000	65.230393 
3549.000000	65.237140 
3548.000000	65.234923 
3547.000000	65.223383 
3546.000000	65.203619 
3545.000000	65.177965 
3544.000000	65.149784 
3543.000000	65.122532 
3542.000000	65.099620 
3541.000000	65.083646 
3540.000000	65.076231 
3539.000000	65.077996 
3538.000000	65.088534 
3537.000000	65.106487 
3536.000000	65.129685 
3535.000000	65.155601 
3534.000000	65.181636 
3533.000000	65.205121 
3532.000000	65.224123 
3531.000000	65.237569 
3530.000000	65.245318 
3529.000000	65.248155 
3528.000000	65.247631 
3527.000000	65.245795 
3526.000000	65.244317 
3525.000000	65.244054 
3524.000000	65.244698 
3523.000000	65.244865 
3522.000000	65.242171 
3521.000000	65.234208 
3520.000000	65.219163 
3519.000000	65.196657 
3518.000000	65.168237 
3517.000000	65.137481 
3516.000000	65.109062 
3515.000000	65.088295 
3514.000000	65.079903 
3513.000000	65.086889 
3512.000000	65.109753 
3511.000000	65.146470 
3510.000000	65.192723 
3509.000000	65.242958 
3508.000000	65.291261 
3507.000000	65.332841 
3506.000000	65.364694 
3505.000000	65.385913 
3504.000000	65.397357 
3503.000000	65.401077 
3502.000000	65.399241 
3501.000000	65.393781 
3500.000000	65.385723 
3499.000000	65.375375 
3498.000000	65.362620 
3497.000000	65.347838 
3496.000000	65.332150 
3495.000000	65.317630 
3494.000000	65.306663 
3493.000000	65.301656 
3492.000000	65.303826 
3491.000000	65.312552 
3490.000000	65.325045 
3489.000000	65.336894 
3488.000000	65.342950 
3487.000000	65.338492 
3486.000000	65.320730 
3485.000000	65.289473 
3484.000000	65.247297 
3483.000000	65.198826 
3482.000000	65.149736 
3481.000000	65.105485 
3480.000000	65.070366 
3479.000000	65.046477 
3478.000000	65.034317 
3477.000000	65.032529 
3476.000000	65.039467 
3475.000000	65.053749 
3474.000000	65.074849 
3473.000000	65.102672 
3472.000000	65.137648 
3471.000000	65.179800 
3470.000000	65.228295 
3469.000000	65.280747 
3468.000000	65.333771 
3467.000000	65.383267 
3466.000000	65.425419 
3465.000000	65.456938 
3464.000000	65.476036 
3463.000000	65.482068 
3462.000000	65.475988 
3461.000000	65.459609 
3460.000000	65.435504 
3459.000000	65.406394 
3458.000000	65.375280 
3457.000000	65.345168 
3456.000000	65.319085 
3455.000000	65.299630 
3454.000000	65.289092 
3453.000000	65.288424 
3452.000000	65.297365 
3451.000000	65.313935 
3450.000000	65.334916 
3449.000000	65.356278 
3448.000000	65.373611 
3447.000000	65.383315 
3446.000000	65.383243 
3445.000000	65.372657 
3444.000000	65.352416 
3443.000000	65.324282 
3442.000000	65.290760 
3441.000000	65.254545 
3440.000000	65.218305 
3439.000000	65.184450 
3438.000000	65.154743 
3437.000000	65.130853 
3436.000000	65.113639 
3435.000000	65.103292 
3434.000000	65.098953 
3433.000000	65.098810 
3432.000000	65.100526 
3431.000000	65.101194 
3430.000000	65.098261 
3429.000000	65.089869 
3428.000000	65.075731 
3427.000000	65.057158 
3426.000000	65.037178 
3425.000000	65.019655 
3424.000000	65.008878 
3423.000000	65.008139 
3422.000000	65.019512 
3421.000000	65.043306 
3420.000000	65.077996 
3419.000000	65.120506 
3418.000000	65.166950 
3417.000000	65.213370 
3416.000000	65.256118 
3415.000000	65.292334 
3414.000000	65.320062 
3413.000000	65.338039 
3412.000000	65.345978 
3411.000000	65.344381 
3410.000000	65.334320 
3409.000000	65.317225 
3408.000000	65.295720 
3407.000000	65.272784 
3406.000000	65.251970 
3405.000000	65.236306 
3404.000000	65.228581 
3403.000000	65.230059 
3402.000000	65.240502 
3401.000000	65.257525 
3400.000000	65.277385 
3399.000000	65.295076 
3398.000000	65.305638 
3397.000000	65.304660 
3396.000000	65.289306 
3395.000000	65.258789 
3394.000000	65.214538 
3393.000000	65.160155 
3392.000000	65.100574 
3391.000000	65.041995 
3390.000000	64.990663 
3389.000000	64.952301 
3388.000000	64.931130 
3387.000000	64.929533 
3386.000000	64.947819 
3385.000000	64.983630 
3384.000000	65.032529 
3383.000000	65.088891 
3382.000000	65.146565 
3381.000000	65.199732 
3380.000000	65.243983 
3379.000000	65.276479 
3378.000000	65.296602 
3377.000000	65.305590 
3376.000000	65.305924 
3375.000000	65.300559 
3374.000000	65.292215 
3373.000000	65.283060 
3372.000000	65.274071 
3371.000000	65.265369 
3370.000000	65.256166 
3369.000000	65.245842 
3368.000000	65.233683 
3367.000000	65.219712 
3366.000000	65.204501 
3365.000000	65.189027 
3364.000000	65.174698 
3363.000000	65.162682 
3362.000000	65.153908 
3361.000000	65.148758 
3360.000000	65.146875 
3359.000000	65.147280 
3358.000000	65.148854 
3357.000000	65.150642 
3356.000000	65.152025 
3355.000000	65.152764 
3354.000000	65.153288 
3353.000000	65.154290 
3352.000000	65.156435 
3351.000000	65.159940 
3350.000000	65.164351 
3349.000000	65.168833 
3348.000000	65.172457 
3347.000000	65.174603 
3346.000000	65.175080 
3345.000000	65.174341 
3344.000000	65.173149 
3343.000000	65.172576 
3342.000000	65.173459 
3341.000000	65.176081 
3340.000000	65.180015 
3339.000000	65.184092 
3338.000000	65.186786 
3337.000000	65.186476 
3336.000000	65.181899 
3335.000000	65.172386 
3334.000000	65.158224 
3333.000000	65.140676 
3332.000000	65.121865 
3331.000000	65.104365 
3330.000000	65.090966 
3329.000000	65.084195 
3328.000000	65.085864 
3327.000000	65.096735 
3326.000000	65.116310 
3325.000000	65.142798 
3324.000000	65.173459 
3323.000000	65.204834 
3322.000000	65.233516 
3321.000000	65.256810 
3320.000000	65.273141 
3319.000000	65.282464 
3318.000000	65.285968 
3317.000000	65.285754 
3316.000000	65.284156 
3315.000000	65.283155 
3314.000000	65.283656 
3313.000000	65.285587 
3312.000000	65.287804 
3311.000000	65.288782 
3310.000000	65.286874 
3309.000000	65.280938 
3308.000000	65.270733 
3307.000000	65.257024 
3306.000000	65.241217 
3305.000000	65.224933 
3304.000000	65.209341 
3303.000000	65.195012 
3302.000000	65.181565 
3301.000000	65.167975 
3300.000000	65.152931 
3299.000000	65.135478 
3298.000000	65.115642 
3297.000000	65.094709 
3296.000000	65.074872 
3295.000000	65.059065 
3294.000000	65.049910 
3293.000000	65.049266 
3292.000000	65.057229 
3291.000000	65.072536 
3290.000000	65.092754 
3289.000000	65.114760 
3288.000000	65.135622 
3287.000000	65.153098 
3286.000000	65.166163 
3285.000000	65.175223 
3284.000000	65.181541 
3283.000000	65.187048 
3282.000000	65.193533 
3281.000000	65.202307 
3280.000000	65.213727 
3279.000000	65.226864 
3278.000000	65.239477 
3277.000000	65.248775 
3276.000000	65.251874 
3275.000000	65.246295 
3274.000000	65.230965 
3273.000000	65.206360 
3272.000000	65.174841 
3271.000000	65.140128 
3270.000000	65.106821 
3269.000000	65.079569 
3268.000000	65.062141 
3267.000000	65.056586 
3266.000000	65.062999 
3265.000000	65.079450 
3264.000000	65.102458 
3263.000000	65.127849 
3262.000000	65.151572 
3261.000000	65.170407 
3260.000000	65.182733 
3259.000000	65.188288 
3258.000000	65.188312 
3257.000000	65.184736 
3256.000000	65.179991 
3255.000000	65.176439 
3254.000000	65.175962 
3253.000000	65.179514 
3252.000000	65.187144 
3251.000000	65.197920 
3250.000000	65.210318 
3249.000000	65.222263 
3248.000000	65.231752 
3247.000000	65.236854 
3246.000000	65.236353 
3245.000000	65.229988 
3244.000000	65.218472 
3243.000000	65.203237 
3242.000000	65.186595 
3241.000000	65.170860 
3240.000000	65.158081 
3239.000000	65.149664 
3238.000000	65.146017 
3237.000000	65.146660 
3236.000000	65.150427 
3235.000000	65.155696 
3234.000000	65.160870 
3233.000000	65.164661 
3232.000000	65.166378 
3231.000000	65.165710 
3230.000000	65.162682 
3229.000000	65.157651 
3228.000000	65.151047 
3227.000000	65.143513 
3226.000000	65.135765 
3225.000000	65.128850 
3224.000000	65.124106 
3223.000000	65.122842 
3222.000000	65.126466 
3221.000000	65.135836 
3220.000000	65.151214 
3219.000000	65.171647 
3218.000000	65.195274 
3217.000000	65.219306 
3216.000000	65.240573 
3215.000000	65.256094 
3214.000000	65.263557 
3213.000000	65.261960 
3212.000000	65.251445 
3211.000000	65.233516 
3210.000000	65.210580 
3209.000000	65.185189 
3208.000000	65.159988 
3207.000000	65.137219 
3206.000000	65.118670 
3205.000000	65.105676 
3204.000000	65.099263 
3203.000000	65.100073 
3202.000000	65.108251 
3201.000000	65.123343 
3200.000000	65.144062 
3199.000000	65.168237 
3198.000000	65.192937 
3197.000000	65.214991 
3196.000000	65.231466 
3195.000000	65.240311 
3194.000000	65.240907 
3193.000000	65.233993 
3192.000000	65.221786 
3191.000000	65.207195 
3190.000000	65.193176 
3189.000000	65.182065 
3188.000000	65.175080 
3187.000000	65.172338 
3186.000000	65.173339 
3185.000000	65.177130 
3184.000000	65.182995 
3183.000000	65.190482 
3182.000000	65.199589 
3181.000000	65.210318 
3180.000000	65.222406 
3179.000000	65.235137 
3178.000000	65.247130 
3177.000000	65.256619 
3176.000000	65.261912 
3175.000000	65.261793 
3174.000000	65.255856 
3173.000000	65.244793 
3172.000000	65.230441 
3171.000000	65.215253 
3170.000000	65.201902 
3169.000000	65.192627 
3168.000000	65.188789 
3167.000000	65.190696 
3166.000000	65.197563 
3165.000000	65.207648 
3164.000000	65.218758 
3163.000000	65.228676 
3162.000000	65.235519 
3161.000000	65.238189 
3160.000000	65.236282 
3159.000000	65.230178 
3158.000000	65.220761 
3157.000000	65.209317 
3156.000000	65.197277 
3155.000000	65.185689 
3154.000000	65.175127 
3153.000000	65.165877 
3152.000000	65.157675 
3151.000000	65.149927 
3150.000000	65.141916 
3149.000000	65.133023 
3148.000000	65.123081 
3147.000000	65.112376 
3146.000000	65.101742 
3145.000000	65.092277 
3144.000000	65.084958 
3143.000000	65.080595 
3142.000000	65.079474 
3141.000000	65.081238 
3140.000000	65.085196 
3139.000000	65.090417 
3138.000000	65.096306 
3137.000000	65.102410 
3136.000000	65.108466 
3135.000000	65.114521 
3134.000000	65.120673 
3133.000000	65.127253 
3132.000000	65.134525 
3131.000000	65.142893 
3130.000000	65.152955 
3129.000000	65.165162 
3128.000000	65.179944 
3127.000000	65.197396 
3126.000000	65.217161 
3125.000000	65.238213 
3124.000000	65.258812 
3123.000000	65.276861 
3122.000000	65.290236 
3121.000000	65.297269 
3120.000000	65.297174 
3119.000000	65.290379 
3118.000000	65.278625 
3117.000000	65.264678 
3116.000000	65.251755 
3115.000000	65.242838 
3114.000000	65.240168 
3113.000000	65.244626 
3112.000000	65.255713 
3111.000000	65.271639 
3110.000000	65.289902 
3109.000000	65.307950 
3108.000000	65.323781 
3107.000000	65.335988 
3106.000000	65.344095 
3105.000000	65.348267 
3104.000000	65.349054 
3103.000000	65.346765 
3102.000000	65.341758 
3101.000000	65.334367 
3100.000000	65.324997 
3099.000000	65.314221 
3098.000000	65.302872 
3097.000000	65.292167 
3096.000000	65.283322 
3095.000000	65.277457 
3094.000000	65.275430 
3093.000000	65.277791 
3092.000000	65.284562 
3091.000000	65.295147 
3090.000000	65.308499 
3089.000000	65.323042 
3088.000000	65.336871 
3087.000000	65.348005 
3086.000000	65.354418 
3085.000000	65.354514 
3084.000000	65.347576 
3083.000000	65.333843 
3082.000000	65.314602 
3081.000000	65.291762 
3080.000000	65.268039 
3079.000000	65.245842 
3078.000000	65.227007 
3077.000000	65.212035 
3076.000000	65.200233 
3075.000000	65.189909 
3074.000000	65.178894 
3073.000000	65.165638 
3072.000000	65.149378 
3071.000000	65.130853 
3070.000000	65.112185 
3069.000000	65.096259 
3068.000000	65.085840 
3067.000000	65.082979 
3066.000000	65.088200 
3065.000000	65.100169 
3064.000000	65.115952 
3063.000000	65.131807 
3062.000000	65.144109 
3061.000000	65.150284 
3060.000000	65.149688 
3059.000000	65.143609 
3058.000000	65.135192 
3057.000000	65.128326 
3056.000000	65.126967 
3055.000000	65.133881 
3054.000000	65.150237 
3053.000000	65.175223 
3052.000000	65.206265 
3051.000000	65.239739 
3050.000000	65.271568 
3049.000000	65.298557 
3048.000000	65.318441 
3047.000000	65.330243 
3046.000000	65.333938 
3045.000000	65.330553 
3044.000000	65.321040 
3043.000000	65.305948 
3042.000000	65.285372 
3041.000000	65.259265 
3040.000000	65.227770 
3039.000000	65.191674 
3038.000000	65.152812 
3037.000000	65.113997 
3036.000000	65.078520 
3035.000000	65.049624 
3034.000000	65.029573 
3033.000000	65.019512 
3032.000000	65.018963 
3031.000000	65.026283 
3030.000000	65.038847 
3029.000000	65.054011 
3028.000000	65.069484 
3027.000000	65.084123 
3026.000000	65.097451 
3025.000000	65.109920 
3024.000000	65.122127 
3023.000000	65.134811 
3022.000000	65.148258 
3021.000000	65.162396 
3020.000000	65.176725 
3019.000000	65.190458 
3018.000000	65.202951 
3017.000000	65.213465 
3016.000000	65.221309 
3015.000000	65.225911 
3014.000000	65.226936 
3013.000000	65.224599 
3012.000000	65.219640 
3011.000000	65.213632 
3010.000000	65.208649 
3009.000000	65.207004 
3008.000000	65.210485 
3007.000000	65.219974 
3006.000000	65.234899 
3005.000000	65.253210 
3004.000000	65.271782 
3003.000000	65.286970 
3002.000000	65.295648 
3001.000000	65.296077 
3000.000000	65.288376 
2999.000000	65.274572 
2998.000000	65.258216 
2997.000000	65.243315 
2996.000000	65.233588 
2995.000000	65.231323 
2994.000000	65.237140 
2993.000000	65.249967 
2992.000000	65.267443 
2991.000000	65.286684 
2990.000000	65.304708 
2989.000000	65.319156 
2988.000000	65.328478 
2987.000000	65.331912 
2986.000000	65.329265 
2985.000000	65.320801 
2984.000000	65.306878 
2983.000000	65.287780 
2982.000000	65.263915 
2981.000000	65.235543 
2980.000000	65.203332 
2979.000000	65.168166 
2978.000000	65.131282 
2977.000000	65.093994 
2976.000000	65.057730 
2975.000000	65.024042 
2974.000000	64.994168 
2973.000000	64.969325 
2972.000000	64.950323 
2971.000000	64.937710 
2970.000000	64.931464 
2969.000000	64.931011 
2968.000000	64.935207 
2967.000000	64.942550 
2966.000000	64.951324 
2965.000000	64.959979 
2964.000000	64.967060 
2963.000000	64.971733 
2962.000000	64.973688 
2961.000000	64.973282 
2960.000000	64.971137 
2959.000000	64.968228 
2958.000000	64.965748 
2957.000000	64.964818 
2956.000000	64.966082 
2955.000000	64.969849 
2954.000000	64.976096 
2953.000000	64.984178 
2952.000000	64.993309 
2951.000000	65.002274 
2950.000000	65.010023 
2949.000000	65.015792 
2948.000000	65.019512 
2947.000000	65.021657 
2946.000000	65.023231 
2945.000000	65.025949 
2944.000000	65.031147 
2943.000000	65.039420 
2942.000000	65.050196 
2941.000000	65.061879 
2940.000000	65.071725 
2939.000000	65.076398 
2938.000000	65.072822 
2937.000000	65.059137 
2936.000000	65.034937 
2935.000000	65.001797 
2934.000000	64.962649 
2933.000000	64.921450 
2932.000000	64.882040 
2931.000000	64.847373 
2930.000000	64.818859 
2929.000000	64.796304 
2928.000000	64.778304 
2927.000000	64.763212 
2926.000000	64.749550 
2925.000000	64.736938 
2924.000000	64.726090 
2923.000000	64.718914 
2922.000000	64.717245 
2921.000000	64.722919 
2920.000000	64.736604 
2919.000000	64.757847 
2918.000000	64.784765 
2917.000000	64.814639 
2916.000000	64.844608 
2915.000000	64.872455 
2914.000000	64.896845 
2913.000000	64.917635 
2912.000000	64.935755 
2911.000000	64.952850 
2910.000000	64.970374 
2909.000000	64.989328 
2908.000000	65.009808 
2907.000000	65.030884 
2906.000000	65.051126 
2905.000000	65.068507 
2904.000000	65.081167 
2903.000000	65.088033 
2902.000000	65.089106 
2901.000000	65.085315 
2900.000000	65.078425 
2899.000000	65.070772 
2898.000000	65.064525 
2897.000000	65.061283 
2896.000000	65.061521 
2895.000000	65.064573 
2894.000000	65.068840 
2893.000000	65.072321 
2892.000000	65.073060 
2891.000000	65.069699 
2890.000000	65.061783 
2889.000000	65.049767 
2888.000000	65.034914 
2887.000000	65.018653 
2886.000000	65.002751 
2885.000000	64.988541 
2884.000000	64.976835 
2883.000000	64.967799 
2882.000000	64.961409 
2881.000000	64.957690 
2880.000000	64.956951 
2879.000000	64.959692 
2878.000000	64.966630 
2877.000000	64.978504 
2876.000000	64.995527 
2875.000000	65.017151 
2874.000000	65.042090 
2873.000000	65.068221 
2872.000000	65.092945 
2871.000000	65.113449 
2870.000000	65.127325 
2869.000000	65.132951 
2868.000000	65.130043 
2867.000000	65.119791 
2866.000000	65.104818 
2865.000000	65.088582 
2864.000000	65.075111 
2863.000000	65.067481 
2862.000000	65.067577 
2861.000000	65.074944 
2860.000000	65.087366 
2859.000000	65.100860 
2858.000000	65.110731 
2857.000000	65.112924 
2856.000000	65.105009 
2855.000000	65.087008 
2854.000000	65.061354 
2853.000000	65.032553 
2852.000000	65.006017 
2851.000000	64.986681 
2850.000000	64.977693 
2849.000000	64.979863 
2848.000000	64.991474 
2847.000000	65.009140 
2846.000000	65.028715 
2845.000000	65.046691 
2844.000000	65.060710 
2843.000000	65.070247 
2842.000000	65.076422 
2841.000000	65.080881 
2840.000000	65.085625 
2839.000000	65.091967 
2838.000000	65.100312 
2837.000000	65.110206 
2836.000000	65.120530 
2835.000000	65.130233 
2834.000000	65.138649 
2833.000000	65.146040 
2832.000000	65.153479 
2831.000000	65.162420 
2830.000000	65.174365 
2829.000000	65.190243 
2828.000000	65.210270 
2827.000000	65.233635 
2826.000000	65.258622 
2825.000000	65.283060 
2824.000000	65.304517 
2823.000000	65.320777 
2822.000000	65.330243 
2821.000000	65.332031 
2820.000000	65.326380 
2819.000000	65.314435 
2818.000000	65.298295 
2817.000000	65.280532 
2816.000000	65.263986 
2815.000000	65.251111 
2814.000000	65.243768 
2813.000000	65.242958 
2812.000000	65.248799 
2811.000000	65.260696 
2810.000000	65.277338 
2809.000000	65.296959 
2808.000000	65.317463 
2807.000000	65.336656 
2806.000000	65.352416 
2805.000000	65.362858 
2804.000000	65.366387 
2803.000000	65.362119 
2802.000000	65.350031 
2801.000000	65.330958 
2800.000000	65.306925 
2799.000000	65.280747 
2798.000000	65.255641 
2797.000000	65.234756 
2796.000000	65.220475 
2795.000000	65.214014 
2794.000000	65.215182 
2793.000000	65.222549 
2792.000000	65.233874 
2791.000000	65.246486 
2790.000000	65.257978 
2789.000000	65.266489 
2788.000000	65.271043 
2787.000000	65.271401 
2786.000000	65.268158 
2785.000000	65.262317 
2784.000000	65.255093 
2783.000000	65.247774 
2782.000000	65.241527 
2781.000000	65.237331 
2780.000000	65.235972 
2779.000000	65.237998 
2778.000000	65.243554 
2777.000000	65.252470 
2776.000000	65.263915 
2775.000000	65.276479 
2774.000000	65.288329 
2773.000000	65.297603 
2772.000000	65.302515 
2771.000000	65.301871 
2770.000000	65.295195 
2769.000000	65.283083 
2768.000000	65.267062 
2767.000000	65.249371 
2766.000000	65.232586 
2765.000000	65.218925 
2764.000000	65.210270 
2763.000000	65.207552 
2762.000000	65.210676 
2761.000000	65.218687 
2760.000000	65.229868 
2759.000000	65.242314 
2758.000000	65.254259 
2757.000000	65.264296 
2756.000000	65.271782 
2755.000000	65.276694 
2754.000000	65.279459 
2753.000000	65.280723 
2752.000000	65.281152 
2751.000000	65.281128 
2750.000000	65.280413 
2749.000000	65.278363 
2748.000000	65.274167 
2747.000000	65.266942 
2746.000000	65.256142 
2745.000000	65.241765 
2744.000000	65.224528 
2743.000000	65.205907 
2742.000000	65.187954 
2741.000000	65.172767 
2740.000000	65.162229 
2739.000000	65.157675 
2738.000000	65.159559 
2737.000000	65.167450 
2736.000000	65.180039 
2735.000000	65.195560 
2734.000000	65.212225 
2733.000000	65.228343 
2732.000000	65.242958 
2731.000000	65.255618 
2730.000000	65.266561 
2729.000000	65.276169 
2728.000000	65.285253 
2727.000000	65.294289 
2726.000000	65.303587 
2725.000000	65.313053 
2724.000000	65.322685 
2723.000000	65.332198 
2722.000000	65.341615 
2721.000000	65.351033 
2720.000000	65.360856 
2719.000000	65.371370 
2718.000000	65.382599 
2717.000000	65.394186 
2716.000000	65.405273 
2715.000000	65.414500 
2714.000000	65.420246 
2713.000000	65.421032 
2712.000000	65.415596 
2711.000000	65.403604 
2710.000000	65.385508 
2709.000000	65.362715 
2708.000000	65.337443 
2707.000000	65.312385 
2706.000000	65.290164 
2705.000000	65.272855 
2704.000000	65.261888 
2703.000000	65.257620 
2702.000000	65.259432 
2701.000000	65.265989 
2700.000000	65.275645 
2699.000000	65.286898 
2698.000000	65.298390 
2697.000000	65.309524 
2696.000000	65.319967 
2695.000000	65.329885 
2694.000000	65.339303 
2693.000000	65.348196 
2692.000000	65.356254 
2691.000000	65.362787 
2690.000000	65.366983 
2689.000000	65.368103 
2688.000000	65.365648 
2687.000000	65.359520 
2686.000000	65.350127 
2685.000000	65.337991 
2684.000000	65.323925 
2683.000000	65.308475 
2682.000000	65.292072 
2681.000000	65.274882 
2680.000000	65.257096 
2679.000000	65.238952 
2678.000000	65.220975 
2677.000000	65.204071 
2676.000000	65.189361 
2675.000000	65.178084 
2674.000000	65.171504 
2673.000000	65.170192 
2672.000000	65.174317 
2671.000000	65.183186 
2670.000000	65.195536 
2669.000000	65.209841 
2668.000000	65.224480 
2667.000000	65.238165 
2666.000000	65.250062 
2665.000000	65.259838 
2664.000000	65.267634 
2663.000000	65.273737 
2662.000000	65.278410 
2661.000000	65.281701 
2660.000000	65.283370 
2659.000000	65.283012 
2658.000000	65.280103 
2657.000000	65.274286 
2656.000000	65.265560 
2655.000000	65.254592 
2654.000000	65.242552 
2653.000000	65.230846 
2652.000000	65.221047 
2651.000000	65.214252 
2650.000000	65.210938 
2649.000000	65.210604 
2648.000000	65.211915 
2647.000000	65.213203 
2646.000000	65.212631 
2645.000000	65.209150 
2644.000000	65.202450 
2643.000000	65.193414 
2642.000000	65.183639 
2641.000000	65.175271 
2640.000000	65.170240 
2639.000000	65.169882 
2638.000000	65.174555 
2637.000000	65.183615 
2636.000000	65.195608 
2635.000000	65.208745 
2634.000000	65.221500 
2633.000000	65.232944 
2632.000000	65.243005 
2631.000000	65.252304 
2630.000000	65.261864 
2629.000000	65.272688 
2628.000000	65.285348 
2627.000000	65.299534 
2626.000000	65.314173 
2625.000000	65.327644 
2624.000000	65.337991 
2623.000000	65.343332 
2622.000000	65.342378 
2621.000000	65.334725 
2620.000000	65.321111 
2619.000000	65.303134 
2618.000000	65.283131 
2617.000000	65.263795 
2616.000000	65.247774 
2615.000000	65.237331 
2614.000000	65.233850 
2613.000000	65.237903 
2612.000000	65.249013 
2611.000000	65.265893 
2610.000000	65.286755 
2609.000000	65.309500 
2608.000000	65.332174 
2607.000000	65.353178 
2606.000000	65.371346 
2605.000000	65.385961 
2604.000000	65.396881 
2603.000000	65.404057 
2602.000000	65.407514 
2601.000000	65.407371 
2600.000000	65.403604 
2599.000000	65.396213 
2598.000000	65.385508 
2597.000000	65.371799 
2596.000000	65.355753 
2595.000000	65.337920 
2594.000000	65.319013 
2593.000000	65.299582 
2592.000000	65.279912 
2591.000000	65.260052 
2590.000000	65.239953 
2589.000000	65.219855 
2588.000000	65.200066 
2587.000000	65.181398 
2586.000000	65.165162 
2585.000000	65.152788 
2584.000000	65.145587 
2583.000000	65.144491 
2582.000000	65.149569 
2581.000000	65.160202 
2580.000000	65.174913 
2579.000000	65.191841 
2578.000000	65.208911 
2577.000000	65.224504 
2576.000000	65.237712 
2575.000000	65.248298 
2574.000000	65.256690 
2573.000000	65.263772 
2572.000000	65.270733 
2571.000000	65.278458 
2570.000000	65.287470 
2569.000000	65.298032 
2568.000000	65.310096 
2567.000000	65.323567 
2566.000000	65.338230 
2565.000000	65.353918 
2564.000000	65.370512 
2563.000000	65.387892 
2562.000000	65.405654 
2561.000000	65.423059 
2560.000000	65.439200 
2559.000000	65.452980 
2558.000000	65.463376 
2557.000000	65.469503 
2556.000000	65.470910 
2555.000000	65.467715 
2554.000000	65.460371 
2553.000000	65.449666 
2552.000000	65.436577 
2551.000000	65.422081 
2550.000000	65.407037 
2549.000000	65.391969 
2548.000000	65.377259 
2547.000000	65.363073 
2546.000000	65.349578 
2545.000000	65.336894 
2544.000000	65.324902 
2543.000000	65.313673 
2542.000000	65.303134 
2541.000000	65.293240 
2540.000000	65.284013 
2539.000000	65.275526 
2538.000000	65.268158 
2537.000000	65.262436 
2536.000000	65.258908 
2535.000000	65.258097 
2534.000000	65.260314 
2533.000000	65.265369 
2532.000000	65.272545 
2531.000000	65.280604 
2530.000000	65.288066 
2529.000000	65.293455 
2528.000000	65.295767 
2527.000000	65.294575 
2526.000000	65.290307 
2525.000000	65.284061 
2524.000000	65.277433 
2523.000000	65.272116 
2522.000000	65.269517 
2521.000000	65.270352 
2520.000000	65.274834 
2519.000000	65.282392 
2518.000000	65.291953 
2517.000000	65.302515 
2516.000000	65.313196 
2515.000000	65.323424 
2514.000000	65.332984 
2513.000000	65.341806 
2512.000000	65.349769 
2511.000000	65.356469 
2510.000000	65.361237 
2509.000000	65.363240 
2508.000000	65.361785 
2507.000000	65.356636 
2506.000000	65.348315 
2505.000000	65.338206 
2504.000000	65.328407 
2503.000000	65.321254 
2502.000000	65.318679 
2501.000000	65.321826 
2500.000000	65.330410 
2499.000000	65.342831 
2498.000000	65.356421 
2497.000000	65.368032 
2496.000000	65.374898 
2495.000000	65.375328 
2494.000000	65.368962 
2493.000000	65.356898 
2492.000000	65.341234 
2491.000000	65.324497 
2490.000000	65.308976 
2489.000000	65.296077 
2488.000000	65.286350 
2487.000000	65.279126 
2486.000000	65.273404 
2485.000000	65.268039 
2484.000000	65.262317 
2483.000000	65.256094 
2482.000000	65.249657 
2481.000000	65.243792 
2480.000000	65.239167 
2479.000000	65.236449 
2478.000000	65.235686 
2477.000000	65.236783 
2476.000000	65.239405 
2475.000000	65.243315 
2474.000000	65.248584 
2473.000000	65.255379 
2472.000000	65.263795 
2471.000000	65.273594 
2470.000000	65.284085 
2469.000000	65.294051 
2468.000000	65.301918 
2467.000000	65.306186 
2466.000000	65.305852 
2465.000000	65.301179 
2464.000000	65.293431 
2463.000000	65.284872 
2462.000000	65.278005 
2461.000000	65.274906 
2460.000000	65.276408 
2459.000000	65.281867 
2458.000000	65.289139 
2457.000000	65.295195 
2456.000000	65.296959 
2455.000000	65.292358 
2454.000000	65.280914 
2453.000000	65.264010 
2452.000000	65.244650 
2451.000000	65.226888 
2450.000000	65.214633 
2449.000000	65.210819 
2448.000000	65.216732 
2447.000000	65.231776 
2446.000000	65.253663 
2445.000000	65.278863 
2444.000000	65.303516 
2443.000000	65.324187 
2442.000000	65.338349 
2441.000000	65.344858 
2440.000000	65.343642 
2439.000000	65.335655 
2438.000000	65.322518 
2437.000000	65.306186 
2436.000000	65.288591 
2435.000000	65.271282 
2434.000000	65.255427 
2433.000000	65.241718 
2432.000000	65.230464 
2431.000000	65.221643 
2430.000000	65.215134 
2429.000000	65.210914 
2428.000000	65.209007 
2427.000000	65.209746 
2426.000000	65.213513 
2425.000000	65.220761 
2424.000000	65.231823 
2423.000000	65.246844 
2422.000000	65.265536 
2421.000000	65.287208 
2420.000000	65.310621 
2419.000000	65.334224 
2418.000000	65.356135 
2417.000000	65.374422 
2416.000000	65.387487 
2415.000000	65.394163 
2414.000000	65.393924 
2413.000000	65.386939 
2412.000000	65.373873 
2411.000000	65.355992 
2410.000000	65.334630 
2409.000000	65.311312 
2408.000000	65.287375 
2407.000000	65.263915 
2406.000000	65.241909 
2405.000000	65.222215 
2404.000000	65.205883 
2403.000000	65.193867 
2402.000000	65.187263 
2401.000000	65.186834 
2400.000000	65.192985 
2399.000000	65.205407 
2398.000000	65.223240 
2397.000000	65.244698 
2396.000000	65.267705 
2395.000000	65.289974 
2394.000000	65.309524 
2393.000000	65.324902 
2392.000000	65.335273 
2391.000000	65.340566 
2390.000000	65.341114 
2389.000000	65.337538 
2388.000000	65.330672 
2387.000000	65.321397 
2386.000000	65.310692 
2385.000000	65.299367 
2384.000000	65.288281 
2383.000000	65.278244 
2382.000000	65.270113 
2381.000000	65.264558 
2380.000000	65.262031 
2379.000000	65.262699 
2378.000000	65.266323 
2377.000000	65.272569 
2376.000000	65.280675 
2375.000000	65.289855 
2374.000000	65.299296 
2373.000000	65.308237 
2372.000000	65.315961 
2371.000000	65.322136 
2370.000000	65.326356 
2369.000000	65.328550 
2368.000000	65.328812 
2367.000000	65.327453 
2366.000000	65.324974 
2365.000000	65.321755 
2364.000000	65.318226 
2363.000000	65.314483 
2362.000000	65.310382 
2361.000000	65.305685 
2360.000000	65.300107 
2359.000000	65.293407 
2358.000000	65.285658 
2357.000000	65.277194 
2356.000000	65.268754 
2355.000000	65.261220 
2354.000000	65.255665 
2353.000000	65.252780 
2352.000000	65.252876 
2351.000000	65.255928 
2350.000000	65.261268 
2349.000000	65.267705 
2348.000000	65.273857 
2347.000000	65.278315 
2346.000000	65.279936 
2345.000000	65.278029 
2344.000000	65.272498 
2343.000000	65.263819 
2342.000000	65.253019 
2341.000000	65.241408 
2340.000000	65.230250 
2339.000000	65.220618 
2338.000000	65.212988 
2337.000000	65.207147 
2336.000000	65.202283 
2335.000000	65.197300 
2334.000000	65.190982 
2333.000000	65.182447 
2332.000000	65.171480 
2331.000000	65.158867 
2330.000000	65.145874 
2329.000000	65.134501 
2328.000000	65.126824 
2327.000000	65.124511 
2326.000000	65.128707 
2325.000000	65.139603 
2324.000000	65.156674 
2323.000000	65.178418 
2322.000000	65.202975 
2321.000000	65.228295 
2320.000000	65.252447 
2319.000000	65.273928 
2318.000000	65.291595 
2317.000000	65.304732 
2316.000000	65.313076 
2315.000000	65.316820 
2314.000000	65.316534 
2313.000000	65.313172 
2312.000000	65.307950 
2311.000000	65.302276 
2310.000000	65.297794 
2309.000000	65.295863 
2308.000000	65.297436 
2307.000000	65.303015 
2306.000000	65.312409 
2305.000000	65.324687 
2304.000000	65.338444 
2303.000000	65.352058 
2302.000000	65.364003 
2301.000000	65.373063 
2300.000000	65.378475 
2299.000000	65.380239 
2298.000000	65.378761 
2297.000000	65.374970 
2296.000000	65.370130 
2295.000000	65.365362 
2294.000000	65.361690 
2293.000000	65.359973 
2292.000000	65.360593 
2291.000000	65.363812 
2290.000000	65.369343 
2289.000000	65.376567 
2288.000000	65.384387 
2287.000000	65.391469 
2286.000000	65.396237 
2285.000000	65.397119 
2284.000000	65.392875 
2283.000000	65.382742 
2282.000000	65.366721 
2281.000000	65.345621 
2280.000000	65.321016 
2279.000000	65.295147 
2278.000000	65.270400 
2277.000000	65.249013 
2276.000000	65.232896 
2275.000000	65.223479 
2274.000000	65.221285 
2273.000000	65.226292 
2272.000000	65.237689 
2271.000000	65.254616 
2270.000000	65.275502 
2269.000000	65.298843 
2268.000000	65.323019 
2267.000000	65.346693 
2266.000000	65.368366 
2265.000000	65.387034 
2264.000000	65.401983 
2263.000000	65.412855 
2262.000000	65.419745 
2261.000000	65.423226 
2260.000000	65.424013 
2259.000000	65.422940 
2258.000000	65.420866 
2257.000000	65.418338 
2256.000000	65.415596 
2255.000000	65.412592 
2254.000000	65.409088 
2253.000000	65.404629 
2252.000000	65.398788 
2251.000000	65.391397 
2250.000000	65.382575 
2249.000000	65.372538 
2248.000000	65.361762 
2247.000000	65.350794 
2246.000000	65.340089 
2245.000000	65.330004 
2244.000000	65.320444 
2243.000000	65.311288 
2242.000000	65.302157 
2241.000000	65.292716 
2240.000000	65.282869 
2239.000000	65.272474 
2238.000000	65.261626 
2237.000000	65.250635 
2236.000000	65.239858 
2235.000000	65.229511 
2234.000000	65.219902 
2233.000000	65.211415 
2232.000000	65.204501 
2231.000000	65.199685 
2230.000000	65.197610 
2229.000000	65.198874 
2228.000000	65.203976 
2227.000000	65.213203 
2226.000000	65.226531 
2225.000000	65.243530 
2224.000000	65.263438 
2223.000000	65.285158 
2222.000000	65.307474 
2221.000000	65.329074 
2220.000000	65.348815 
2219.000000	65.365433 
2218.000000	65.377783 
2217.000000	65.384936 
2216.000000	65.386056 
2215.000000	65.380954 
2214.000000	65.369939 
2213.000000	65.354037 
2212.000000	65.335083 
2211.000000	65.315270 
2210.000000	65.296983 
2209.000000	65.282273 
2208.000000	65.272665 
2207.000000	65.268850 
2206.000000	65.270686 
2205.000000	65.277481 
2204.000000	65.288090 
2203.000000	65.301346 
2202.000000	65.316081 
2201.000000	65.331411 
2200.000000	65.346479 
2199.000000	65.360474 
2198.000000	65.372419 
2197.000000	65.381288 
2196.000000	65.385985 
2195.000000	65.385746 
2194.000000	65.380311 
2193.000000	65.370154 
2192.000000	65.356302 
2191.000000	65.340518 
2190.000000	65.324759 
2189.000000	65.310621 
2188.000000	65.299248 
2187.000000	65.291094 
2186.000000	65.285778 
2185.000000	65.282464 
2184.000000	65.280222 
2183.000000	65.278172 
2182.000000	65.275788 
2181.000000	65.273189 
2180.000000	65.270853 
2179.000000	65.269351 
2178.000000	65.269327 
2177.000000	65.271139 
2176.000000	65.274858 
2175.000000	65.280294 
2174.000000	65.287065 
2173.000000	65.294861 
2172.000000	65.303421 
2171.000000	65.312457 
2170.000000	65.321660 
2169.000000	65.330553 
2168.000000	65.338253 
2167.000000	65.343761 
2166.000000	65.345811 
2165.000000	65.343308 
2164.000000	65.335631 
2163.000000	65.322875 
2162.000000	65.305924 
2161.000000	65.286278 
2160.000000	65.265893 
2159.000000	65.246701 
2158.000000	65.230464 
2157.000000	65.218520 
2156.000000	65.211582 
2155.000000	65.209841 
2154.000000	65.212893 
2153.000000	65.219974 
2152.000000	65.229964 
2151.000000	65.241599 
2150.000000	65.253472 
2149.000000	65.264487 
2148.000000	65.274047 
2147.000000	65.282201 
2146.000000	65.289592 
2145.000000	65.297532 
2144.000000	65.307450 
2143.000000	65.320754 
2142.000000	65.337991 
2141.000000	65.358710 
2140.000000	65.381407 
2139.000000	65.403580 
2138.000000	65.422463 
2137.000000	65.435647 
2136.000000	65.441751 
2135.000000	65.440869 
2134.000000	65.434503 
2133.000000	65.425229 
2132.000000	65.415716 
2131.000000	65.408396 
2130.000000	65.404534 
2129.000000	65.404033 
2128.000000	65.405344 
2127.000000	65.406179 
2126.000000	65.403890 
2125.000000	65.396308 
2124.000000	65.382170 
2123.000000	65.361547 
2122.000000	65.335869 
2121.000000	65.307641 
2120.000000	65.280008 
2119.000000	65.255951 
2118.000000	65.237975 
2117.000000	65.227675 
2116.000000	65.225458 
2115.000000	65.230512 
2114.000000	65.241217 
2113.000000	65.255665 
2112.000000	65.271592 
2111.000000	65.287160 
2110.000000	65.301227 
2109.000000	65.313458 
2108.000000	65.324163 
2107.000000	65.333890 
2106.000000	65.343451 
2105.000000	65.353226 
2104.000000	65.363168 
2103.000000	65.372490 
2102.000000	65.380024 
2101.000000	65.384292 
2100.000000	65.384244 
2099.000000	65.379381 
2098.000000	65.369939 
2097.000000	65.357041 
2096.000000	65.342545 
2095.000000	65.328693 
2094.000000	65.317535 
2093.000000	65.310668 
2092.000000	65.308809 
2091.000000	65.311646 
2090.000000	65.317940 
2089.000000	65.325784 
2088.000000	65.333032 
2087.000000	65.337467 
2086.000000	65.337300 
2085.000000	65.331530 
2084.000000	65.319943 
2083.000000	65.303397 
2082.000000	65.283536 
2081.000000	65.262484 
2080.000000	65.242600 
2079.000000	65.226221 
2078.000000	65.215277 
2077.000000	65.210843 
2076.000000	65.213274 
2075.000000	65.221881 
2074.000000	65.235471 
2073.000000	65.252256 
2072.000000	65.270495 
2071.000000	65.288686 
2070.000000	65.305685 
2069.000000	65.320944 
2068.000000	65.334153 
2067.000000	65.345263 
2066.000000	65.354228 
2065.000000	65.360856 
2064.000000	65.364909 
2063.000000	65.366077 
2062.000000	65.364193 
2061.000000	65.359187 
2060.000000	65.351343 
2059.000000	65.341234 
2058.000000	65.329456 
2057.000000	65.316820 
2056.000000	65.304136 
2055.000000	65.292263 
2054.000000	65.281844 
2053.000000	65.273737 
2052.000000	65.268516 
2051.000000	65.266656 
2050.000000	65.268301 
2049.000000	65.273237 
2048.000000	65.280699 
2047.000000	65.289807 
2046.000000	65.299367 
2045.000000	65.308380 
2044.000000	65.316200 
2043.000000	65.322780 
2042.000000	65.328574 
2041.000000	65.334272 
2040.000000	65.340280 
2039.000000	65.346598 
2038.000000	65.352606 
2037.000000	65.357112 
2036.000000	65.358877 
2035.000000	65.356922 
2034.000000	65.351200 
2033.000000	65.342807 
2032.000000	65.333700 
2031.000000	65.326547 
2030.000000	65.323758 
2029.000000	65.327072 
2028.000000	65.336346 
2027.000000	65.350055 
2026.000000	65.364861 
2025.000000	65.376877 
2024.000000	65.382385 
2023.000000	65.378761 
2022.000000	65.365433 
2021.000000	65.343832 
2020.000000	65.317392 
2019.000000	65.290474 
2018.000000	65.267801 
2017.000000	65.253257 
2016.000000	65.249085 
2015.000000	65.255594 
2014.000000	65.271306 
2013.000000	65.293455 
2012.000000	65.318608 
2011.000000	65.343546 
2010.000000	65.365934 
2009.000000	65.384411 
2008.000000	65.398764 
2007.000000	65.409398 
2006.000000	65.417003 
2005.000000	65.421938 
2004.000000	65.424299 
2003.000000	65.423560 
2002.000000	65.418958 
2001.000000	65.409755 
2000.000000	65.395975 
1999.000000	65.378379 
1998.000000	65.358567 
1997.000000	65.338754 
1996.000000	65.321493 
1995.000000	65.309071 
1994.000000	65.303087 
1993.000000	65.304207 
1992.000000	65.311956 
1991.000000	65.325140 
1990.000000	65.341925 
1989.000000	65.360474 
1988.000000	65.379142 
1987.000000	65.396523 
1986.000000	65.411591 
1985.000000	65.423679 
1984.000000	65.432238 
1983.000000	65.436768 
1982.000000	65.436816 
1981.000000	65.432000 
1980.000000	65.422129 
1979.000000	65.407776 
1978.000000	65.390205 
1977.000000	65.371203 
1976.000000	65.353035 
1975.000000	65.338087 
1974.000000	65.328383 
1973.000000	65.325260 
1972.000000	65.329098 
1971.000000	65.339207 
1970.000000	65.353918 
1969.000000	65.371060 
1968.000000	65.387988 
1967.000000	65.402054 
1966.000000	65.411210 
1965.000000	65.414094 
1964.000000	65.410494 
1963.000000	65.401148 
1962.000000	65.387940 
1961.000000	65.373420 
1960.000000	65.360331 
1959.000000	65.351009 
1958.000000	65.346908 
1957.000000	65.348243 
1956.000000	65.353870 
1955.000000	65.361785 
1954.000000	65.369296 
1953.000000	65.373897 
1952.000000	65.373826 
1951.000000	65.368437 
1950.000000	65.358400 
1949.000000	65.345692 
1948.000000	65.332865 
1947.000000	65.322637 
1946.000000	65.316987 
1945.000000	65.316987 
1944.000000	65.322184 
1943.000000	65.331268 
1942.000000	65.342211 
1941.000000	65.352940 
1940.000000	65.361785 
1939.000000	65.368175 
1938.000000	65.372467 
1937.000000	65.376067 
1936.000000	65.380644 
1935.000000	65.387773 
1934.000000	65.398240 
1933.000000	65.411710 
1932.000000	65.426611 
1931.000000	65.440511 
1930.000000	65.450692 
1929.000000	65.454721 
1928.000000	65.451097 
1927.000000	65.439867 
1926.000000	65.422320 
1925.000000	65.400862 
1924.000000	65.378475 
1923.000000	65.357828 
1922.000000	65.340971 
1921.000000	65.328836 
1920.000000	65.321397 
1919.000000	65.317726 
1918.000000	65.316700 
1917.000000	65.317249 
1916.000000	65.318989 
1915.000000	65.321969 
1914.000000	65.326833 
1913.000000	65.334463 
1912.000000	65.345454 
1911.000000	65.359711 
1910.000000	65.376353 
1909.000000	65.393757 
1908.000000	65.409827 
1907.000000	65.422415 
1906.000000	65.430068 
1905.000000	65.432405 
1904.000000	65.430164 
1903.000000	65.425109 
1902.000000	65.419459 
1901.000000	65.415263 
1900.000000	65.413904 
1899.000000	65.415859 
1898.000000	65.420484 
1897.000000	65.426325 
1896.000000	65.431785 
1895.000000	65.435314 
1894.000000	65.436148 
1893.000000	65.434265 
1892.000000	65.430426 
1891.000000	65.425658 
1890.000000	65.420913 
1889.000000	65.416598 
1888.000000	65.412425 
1887.000000	65.407633 
1886.000000	65.401244 
1885.000000	65.392589 
1884.000000	65.381598 
1883.000000	65.369081 
1882.000000	65.356683 
1881.000000	65.346479 
1880.000000	65.340304 
1879.000000	65.339589 
1878.000000	65.344953 
1877.000000	65.355896 
1876.000000	65.370798 
1875.000000	65.387511 
1874.000000	65.403509 
1873.000000	65.416407 
1872.000000	65.424489 
1871.000000	65.426659 
1870.000000	65.422892 
1869.000000	65.414071 
1868.000000	65.401768 
1867.000000	65.387916 
1866.000000	65.374565 
1865.000000	65.363669 
1864.000000	65.356564 
1863.000000	65.354275 
1862.000000	65.356969 
1861.000000	65.364217 
1860.000000	65.374898 
1859.000000	65.387558 
1858.000000	65.400338 
1857.000000	65.411424 
1856.000000	65.419244 
1855.000000	65.422654 
1854.000000	65.421128 
1853.000000	65.414690 
1852.000000	65.404200 
1851.000000	65.391016 
1850.000000	65.376901 
1849.000000	65.363764 
1848.000000	65.353536 
1847.000000	65.347790 
1846.000000	65.347766 
1845.000000	65.353846 
1844.000000	65.365815 
1843.000000	65.382742 
1842.000000	65.403103 
1841.000000	65.424942 
1840.000000	65.446090 
1839.000000	65.464448 
1838.000000	65.478372 
1837.000000	65.486764 
1836.000000	65.489196 
1835.000000	65.486049 
1834.000000	65.478467 
1833.000000	65.467929 
1832.000000	65.456056 
1831.000000	65.444278 
1830.000000	65.433764 
1829.000000	65.425062 
1828.000000	65.418028 
1827.000000	65.412044 
1826.000000	65.406203 
1825.000000	65.399551 
1824.000000	65.391302 
1823.000000	65.381073 
1822.000000	65.368866 
1821.000000	65.355205 
1820.000000	65.340948 
1819.000000	65.327119 
1818.000000	65.314626 
1817.000000	65.304327 
1816.000000	65.296578 
1815.000000	65.291523 
1814.000000	65.288877 
1813.000000	65.288186 
1812.000000	65.288949 
1811.000000	65.290594 
1810.000000	65.292978 
1809.000000	65.296053 
1808.000000	65.300321 
1807.000000	65.306210 
1806.000000	65.314388 
1805.000000	65.325188 
1804.000000	65.338683 
1803.000000	65.354323 
1802.000000	65.371060 
1801.000000	65.387439 
1800.000000	65.401911 
1799.000000	65.413045 
1798.000000	65.419650 
1797.000000	65.421175 
1796.000000	65.417718 
1795.000000	65.409898 
1794.000000	65.398859 
1793.000000	65.385818 
1792.000000	65.371966 
1791.000000	65.358424 
1790.000000	65.345954 
1789.000000	65.335202 
1788.000000	65.326595 
1787.000000	65.320634 
1786.000000	65.317726 
1785.000000	65.318489 
1784.000000	65.323281 
1783.000000	65.332412 
1782.000000	65.345931 
1781.000000	65.363383 
1780.000000	65.383768 
1779.000000	65.405464 
1778.000000	65.426635 
1777.000000	65.445208 
1776.000000	65.459060 
1775.000000	65.466356 
1774.000000	65.465831 
1773.000000	65.456986 
1772.000000	65.440201 
1771.000000	65.416717 
1770.000000	65.388679 
1769.000000	65.358805 
1768.000000	65.329885 
1767.000000	65.304589 
1766.000000	65.284943 
1765.000000	65.272068 
1764.000000	65.265941 
1763.000000	65.265727 
1762.000000	65.269804 
1761.000000	65.276241 
1760.000000	65.283107 
1759.000000	65.288591 
1758.000000	65.291333 
1757.000000	65.290260 
1756.000000	65.284752 
1755.000000	65.274405 
1754.000000	65.259218 
1753.000000	65.239453 
1752.000000	65.215778 
1751.000000	65.189170 
1750.000000	65.160965 
1749.000000	65.132927 
1748.000000	65.106940 
1747.000000	65.084719 
1746.000000	65.067648 
1745.000000	65.056562 
1744.000000	65.051579 
1743.000000	65.052151 
1742.000000	65.057229 
1741.000000	65.065360 
1740.000000	65.074968 
1739.000000	65.084385 
1738.000000	65.092277 
1737.000000	65.097689 
1736.000000	65.099740 
1735.000000	65.098047 
1734.000000	65.092444 
1733.000000	65.083336 
1732.000000	65.071368 
1731.000000	65.057730 
1730.000000	65.043854 
1729.000000	65.031409 
1728.000000	65.022134 
1727.000000	65.017580 
1726.000000	65.018796 
1725.000000	65.026211 
1724.000000	65.039515 
1723.000000	65.057873 
1722.000000	65.079951 
1721.000000	65.104103 
1720.000000	65.128540 
1719.000000	65.151739 
1718.000000	65.172457 
1717.000000	65.189695 
1716.000000	65.202808 
1715.000000	65.211725 
1714.000000	65.216732 
1713.000000	65.218615 
1712.000000	65.218305 
1711.000000	65.217161 
1710.000000	65.216541 
1709.000000	65.217757 
1708.000000	65.221524 
1707.000000	65.228056 
1706.000000	65.236616 
1705.000000	65.245628 
1704.000000	65.253043 
1703.000000	65.256571 
1702.000000	65.254330 
1701.000000	65.245461 
1700.000000	65.230345 
1699.000000	65.210723 
1698.000000	65.189075 
1697.000000	65.168285 
1696.000000	65.150713 
1695.000000	65.137767 
1694.000000	65.129590 
1693.000000	65.125203 
1692.000000	65.123105 
1691.000000	65.121555 
1690.000000	65.119791 
1689.000000	65.118145 
1688.000000	65.118193 
1687.000000	65.122199 
1686.000000	65.132498 
1685.000000	65.150690 
1684.000000	65.177011 
1683.000000	65.209913 
1682.000000	65.246272 
1681.000000	65.281867 
1680.000000	65.312480 
1679.000000	65.334343 
1678.000000	65.345311 
1677.000000	65.344786 
1676.000000	65.334129 
1675.000000	65.315914 
1674.000000	65.293645 
1673.000000	65.270948 
1672.000000	65.251111 
1671.000000	65.236353 
1670.000000	65.227961 
1669.000000	65.225934 
1668.000000	65.229487 
1667.000000	65.236949 
1666.000000	65.246367 
1665.000000	65.255546 
1664.000000	65.262484 
1663.000000	65.265607 
1662.000000	65.264105 
1661.000000	65.257883 
1660.000000	65.247726 
1659.000000	65.235257 
1658.000000	65.222501 
1657.000000	65.211796 
1656.000000	65.204930 
1655.000000	65.203094 
1654.000000	65.206432 
1653.000000	65.213942 
1652.000000	65.223789 
1651.000000	65.233898 
1650.000000	65.242409 
1649.000000	65.247941 
1648.000000	65.250015 
1647.000000	65.249156 
1646.000000	65.246653 
1645.000000	65.244030 
1644.000000	65.242624 
1643.000000	65.242958 
1642.000000	65.244793 
1641.000000	65.247178 
1640.000000	65.248370 
1639.000000	65.246438 
1638.000000	65.239715 
1637.000000	65.227460 
1636.000000	65.210032 
1635.000000	65.188884 
1634.000000	65.166425 
1633.000000	65.145564 
1632.000000	65.129232 
1631.000000	65.119624 
1630.000000	65.117835 
1629.000000	65.123581 
1628.000000	65.134978 
1627.000000	65.149211 
1626.000000	65.162706 
1625.000000	65.172338 
1624.000000	65.175819 
1623.000000	65.172529 
1622.000000	65.163493 
1621.000000	65.151119 
1620.000000	65.138697 
1619.000000	65.129780 
1618.000000	65.127086 
1617.000000	65.132188 
1616.000000	65.145277 
1615.000000	65.165066 
1614.000000	65.189504 
1613.000000	65.215969 
1612.000000	65.241885 
1611.000000	65.265154 
1610.000000	65.284323 
1609.000000	65.298628 
1608.000000	65.307807 
1607.000000	65.311884 
1606.000000	65.311169 
1605.000000	65.306210 
1604.000000	65.297770 
1603.000000	65.286850 
1602.000000	65.274524 
1601.000000	65.261888 
1600.000000	65.249681 
1599.000000	65.238142 
1598.000000	65.227127 
1597.000000	65.216183 
1596.000000	65.204787 
1595.000000	65.192484 
1594.000000	65.179252 
1593.000000	65.165519 
1592.000000	65.152263 
1591.000000	65.140581 
1590.000000	65.131688 
1589.000000	65.126419 
1588.000000	65.125465 
1587.000000	65.128993 
1586.000000	65.136718 
1585.000000	65.147948 
1584.000000	65.161514 
1583.000000	65.176224 
1582.000000	65.190649 
1581.000000	65.203499 
1580.000000	65.213537 
1579.000000	65.219688 
1578.000000	65.221261 
1577.000000	65.218138 
1576.000000	65.210795 
1575.000000	65.200114 
1574.000000	65.187597 
1573.000000	65.174698 
1572.000000	65.162730 
1571.000000	65.152311 
1570.000000	65.143299 
1569.000000	65.134763 
1568.000000	65.125346 
1567.000000	65.113878 
1566.000000	65.099716 
1565.000000	65.083599 
1564.000000	65.067577 
1563.000000	65.054678 
1562.000000	65.048241 
1561.000000	65.050959 
1560.000000	65.064239 
1559.000000	65.087246 
1558.000000	65.116953 
1557.000000	65.148591 
1556.000000	65.176701 
1555.000000	65.196490 
1554.000000	65.204930 
1553.000000	65.201330 
1552.000000	65.187621 
1551.000000	65.167284 
1550.000000	65.144371 
1549.000000	65.122437 
1548.000000	65.103650 
1547.000000	65.088486 
1546.000000	65.075993 
1545.000000	65.064597 
1544.000000	65.052914 
1543.000000	65.040302 
1542.000000	65.027594 
1541.000000	65.016388 
1540.000000	65.009117 
1539.000000	65.007996 
1538.000000	65.014743 
1537.000000	65.029668 
1536.000000	65.051865 
1535.000000	65.079259 
1534.000000	65.109276 
1533.000000	65.139055 
1532.000000	65.166234 
1531.000000	65.189099 
1530.000000	65.206885 
1529.000000	65.219640 
1528.000000	65.228033 
1527.000000	65.233135 
1526.000000	65.236306 
1525.000000	65.238761 
1524.000000	65.241384 
1523.000000	65.244531 
1522.000000	65.248060 
1521.000000	65.251278 
1520.000000	65.253257 
1519.000000	65.253043 
1518.000000	65.249991 
1517.000000	65.243911 
1516.000000	65.235185 
1515.000000	65.224695 
1514.000000	65.213704 
1513.000000	65.203619 
1512.000000	65.195560 
1511.000000	65.190219 
1510.000000	65.187525 
1509.000000	65.186786 
1508.000000	65.186905 
1507.000000	65.186762 
1506.000000	65.185403 
1505.000000	65.182709 
1504.000000	65.179514 
1503.000000	65.177464 
1502.000000	65.178680 
1501.000000	65.185451 
1500.000000	65.199613 
1499.000000	65.221977 
1498.000000	65.251564 
1497.000000	65.285611 
1496.000000	65.319895 
1495.000000	65.349340 
1494.000000	65.368962 
1493.000000	65.375185 
1492.000000	65.366530 
1491.000000	65.344285 
1490.000000	65.311956 
1489.000000	65.274333 
1488.000000	65.236282 
1487.000000	65.201830 
1486.000000	65.173411 
1485.000000	65.151810 
1484.000000	65.136075 
1483.000000	65.124678 
1482.000000	65.115833 
1481.000000	65.107965 
1480.000000	65.100240 
1479.000000	65.092301 
1478.000000	65.084648 
1477.000000	65.078139 
1476.000000	65.073657 
1475.000000	65.071749 
1474.000000	65.072369 
1473.000000	65.074706 
1472.000000	65.077328 
1471.000000	65.078496 
1470.000000	65.076804 
1469.000000	65.071582 
1468.000000	65.063214 
1467.000000	65.053153 
1466.000000	65.043640 
1465.000000	65.037274 
1464.000000	65.036225 
1463.000000	65.041923 
1462.000000	65.054726 
1461.000000	65.073895 
1460.000000	65.097713 
1459.000000	65.123724 
1458.000000	65.149164 
1457.000000	65.171337 
1456.000000	65.188264 
1455.000000	65.198588 
1454.000000	65.201830 
1453.000000	65.198326 
1452.000000	65.188932 
1451.000000	65.175199 
1450.000000	65.158939 
1449.000000	65.142011 
1448.000000	65.126132 
1447.000000	65.112900 
1446.000000	65.103626 
1445.000000	65.099263 
1444.000000	65.100359 
1443.000000	65.107083 
1442.000000	65.119123 
1441.000000	65.135741 
1440.000000	65.155577 
1439.000000	65.176820 
1438.000000	65.197277 
1437.000000	65.214776 
1436.000000	65.227508 
1435.000000	65.234327 
1434.000000	65.234994 
1433.000000	65.230464 
1432.000000	65.222334 
1431.000000	65.212869 
1430.000000	65.203833 
1429.000000	65.196609 
1428.000000	65.191292 
1427.000000	65.187025 
1426.000000	65.181970 
1425.000000	65.174007 
1424.000000	65.161323 
1423.000000	65.142989 
1422.000000	65.119290 
1421.000000	65.091824 
1420.000000	65.062880 
1419.000000	65.034961 
1418.000000	65.010142 
1417.000000	64.989733 
1416.000000	64.974164 
1415.000000	64.963269 
1414.000000	64.956355 
1413.000000	64.952778 
1412.000000	64.952349 
1411.000000	64.955377 
1410.000000	64.962100 
1409.000000	64.972782 
1408.000000	64.987063 
1407.000000	65.004038 
1406.000000	65.021967 
1405.000000	65.038681 
1404.000000	65.052103 
1403.000000	65.060758 
1402.000000	65.064144 
1401.000000	65.062880 
1400.000000	65.058469 
1399.000000	65.053009 
1398.000000	65.048766 
1397.000000	65.047645 
1396.000000	65.050959 
1395.000000	65.058970 
1394.000000	65.071320 
1393.000000	65.086412 
1392.000000	65.101981 
1391.000000	65.115237 
1390.000000	65.123367 
1389.000000	65.124130 
1388.000000	65.115976 
1387.000000	65.098786 
1386.000000	65.073919 
1385.000000	65.043950 
1384.000000	65.012311 
1383.000000	64.982795 
1382.000000	64.958953 
1381.000000	64.943265 
1380.000000	64.936971 
1379.000000	64.939951 
1378.000000	64.950871 
1377.000000	64.967846 
1376.000000	64.988756 
1375.000000	65.011525 
1374.000000	65.034556 
1373.000000	65.056729 
1372.000000	65.077328 
1371.000000	65.095615 
1370.000000	65.110945 
1369.000000	65.122747 
1368.000000	65.130591 
1367.000000	65.134572 
1366.000000	65.134930 
1365.000000	65.132331 
1364.000000	65.127682 
1363.000000	65.122127 
1362.000000	65.116477 
1361.000000	65.111231 
1360.000000	65.106534 
1359.000000	65.102171 
1358.000000	65.097856 
1357.000000	65.093398 
1356.000000	65.088963 
1355.000000	65.084981 
1354.000000	65.082216 
1353.000000	65.081238 
1352.000000	65.082430 
1351.000000	65.085530 
1350.000000	65.089344 
1349.000000	65.092039 
1348.000000	65.091419 
1347.000000	65.085482 
1346.000000	65.072894 
1345.000000	65.053534 
1344.000000	65.028572 
1343.000000	65.000534 
1342.000000	64.972925 
1341.000000	64.949488 
1340.000000	64.933466 
1339.000000	64.927148 
1338.000000	64.931321 
1337.000000	64.945268 
1336.000000	64.966988 
1335.000000	64.993572 
1334.000000	65.021848 
1333.000000	65.049028 
1332.000000	65.072989 
1331.000000	65.092587 
1330.000000	65.107631 
1329.000000	65.118765 
1328.000000	65.126991 
1327.000000	65.133500 
1326.000000	65.139174 
1325.000000	65.144681 
1324.000000	65.150237 
1323.000000	65.155959 
1322.000000	65.161585 
1321.000000	65.166950 
1320.000000	65.171599 
1319.000000	65.175056 
1318.000000	65.176701 
1317.000000	65.175914 
1316.000000	65.172243 
1315.000000	65.165400 
1314.000000	65.155625 
1313.000000	65.143704 
1312.000000	65.130829 
1311.000000	65.118288 
1310.000000	65.107393 
1309.000000	65.099215 
1308.000000	65.094375 
1307.000000	65.092945 
1306.000000	65.094470 
1305.000000	65.098094 
1304.000000	65.102791 
1303.000000	65.107631 
1302.000000	65.111613 
1301.000000	65.113997 
1300.000000	65.114283 
1299.000000	65.112352 
1298.000000	65.108227 
1297.000000	65.102267 
1296.000000	65.095043 
1295.000000	65.087199 
1294.000000	65.079545 
1293.000000	65.072941 
1292.000000	65.067911 
1291.000000	65.064907 
1290.000000	65.064001 
1289.000000	65.065264 
1288.000000	65.068793 
1287.000000	65.074586 
1286.000000	65.082621 
1285.000000	65.092539 
1284.000000	65.103816 
1283.000000	65.115284 
1282.000000	65.125226 
1281.000000	65.131449 
1280.000000	65.131711 
1279.000000	65.124130 
1278.000000	65.107846 
1277.000000	65.083146 
1276.000000	65.051627 
1275.000000	65.016102 
1274.000000	64.980340 
1273.000000	64.948081 
1272.000000	64.922881 
1271.000000	64.907193 
1270.000000	64.902329 
1269.000000	64.908385 
1268.000000	64.924526 
1267.000000	64.949035 
1266.000000	64.979553 
1265.000000	65.013289 
1264.000000	65.047097 
1263.000000	65.077662 
1262.000000	65.101742 
1261.000000	65.116477 
1260.000000	65.119743 
1259.000000	65.110540 
1258.000000	65.089392 
1257.000000	65.058207 
1256.000000	65.020394 
1255.000000	64.980459 
1254.000000	64.943337 
1253.000000	64.913749 
1252.000000	64.895462 
1251.000000	64.890742 
1250.000000	64.899778 
1249.000000	64.921021 
1248.000000	64.951109 
1247.000000	64.985632 
1246.000000	65.019774 
1245.000000	65.049362 
1244.000000	65.071105 
1243.000000	65.083503 
1242.000000	65.086483 
1241.000000	65.081477 
1240.000000	65.070939 
1239.000000	65.057563 
1238.000000	65.043616 
1237.000000	65.030503 
1236.000000	65.018868 
1235.000000	65.008330 
1234.000000	64.998173 
1233.000000	64.987492 
1232.000000	64.975857 
1231.000000	64.963483 
1230.000000	64.951324 
1229.000000	64.940786 
1228.000000	64.933228 
1227.000000	64.929723 
1226.000000	64.930629 
1225.000000	64.935564 
1224.000000	64.943265 
1223.000000	64.952087 
1222.000000	64.960169 
1221.000000	64.966011 
1220.000000	64.968681 
1219.000000	64.967870 
1218.000000	64.963865 
1217.000000	64.957380 
1216.000000	64.949488 
1215.000000	64.941525 
1214.000000	64.934873 
1213.000000	64.930820 
1212.000000	64.930367 
1211.000000	64.934372 
1210.000000	64.943242 
1209.000000	64.956855 
1208.000000	64.974355 
1207.000000	64.994215 
1206.000000	65.014266 
1205.000000	65.032005 
1204.000000	65.044808 
1203.000000	65.050554 
1202.000000	65.047883 
1201.000000	65.036439 
1200.000000	65.017008 
1199.000000	64.991521 
1198.000000	64.962553 
1197.000000	64.933037 
1196.000000	64.905667 
1195.000000	64.882636 
1194.000000	64.865088 
1193.000000	64.853358 
1192.000000	64.846634 
1191.000000	64.843773 
1190.000000	64.843106 
1189.000000	64.843273 
1188.000000	64.843249 
1187.000000	64.842867 
1186.000000	64.842414 
1185.000000	64.842653 
1184.000000	64.844298 
1183.000000	64.847803 
1182.000000	64.853072 
1181.000000	64.859175 
1180.000000	64.864563 
1179.000000	64.867258 
1178.000000	64.865469 
1177.000000	64.858007 
1176.000000	64.844608 
1175.000000	64.826202 
1174.000000	64.804649 
1173.000000	64.782381 
1172.000000	64.761948 
1171.000000	64.745569 
1170.000000	64.734601 
1169.000000	64.729261 
1168.000000	64.728975 
1167.000000	64.732527 
1166.000000	64.738678 
1165.000000	64.746117 
1164.000000	64.754128 
1163.000000	64.762544 
1162.000000	64.771842 
1161.000000	64.782834 
1160.000000	64.796018 
1159.000000	64.811873 
1158.000000	64.830088 
1157.000000	64.849519 
1156.000000	64.868330 
1155.000000	64.884328 
1154.000000	64.895081 
1153.000000	64.898610 
1152.000000	64.893531 
1151.000000	64.879536 
1150.000000	64.857554 
1149.000000	64.829611 
1148.000000	64.798498 
1147.000000	64.767360 
1146.000000	64.739274 
1145.000000	64.716720 
1144.000000	64.701271 
1143.000000	64.693474 
1142.000000	64.692854 
1141.000000	64.698505 
1140.000000	64.708900 
1139.000000	64.722633 
1138.000000	64.738321 
1137.000000	64.754843 
1136.000000	64.771389 
1135.000000	64.787578 
1134.000000	64.803099 
1133.000000	64.817929 
1132.000000	64.832210 
1131.000000	64.846134 
1130.000000	64.860177 
1129.000000	64.874434 
1128.000000	64.889001 
1127.000000	64.903426 
1126.000000	64.916706 
1125.000000	64.927434 
1124.000000	64.933991 
1123.000000	64.934706 
1122.000000	64.928317 
1121.000000	64.914369 
1120.000000	64.893412 
1119.000000	64.866971 
1118.000000	64.837169 
1117.000000	64.806580 
1116.000000	64.777851 
1115.000000	64.753222 
1114.000000	64.734363 
1113.000000	64.722156 
1112.000000	64.717006 
1111.000000	64.718699 
1110.000000	64.726901 
1109.000000	64.740824 
1108.000000	64.759516 
1107.000000	64.781498 
1106.000000	64.805102 
1105.000000	64.828038 
1104.000000	64.848327 
1103.000000	64.864182 
1102.000000	64.874744 
1101.000000	64.879965 
1100.000000	64.881110 
1099.000000	64.880347 
1098.000000	64.880371 
1097.000000	64.883828 
1096.000000	64.892768 
1095.000000	64.908194 
1094.000000	64.929604 
1093.000000	64.955067 
1092.000000	64.981484 
1091.000000	65.004968 
1090.000000	65.021610 
1089.000000	65.028214 
1088.000000	65.022635 
1087.000000	65.004658 
1086.000000	64.976072 
1085.000000	64.940571 
1084.000000	64.903140 
1083.000000	64.869308 
1082.000000	64.844417 
1081.000000	64.832019 
1080.000000	64.833331 
1079.000000	64.846754 
1078.000000	64.868116 
1077.000000	64.891791 
1076.000000	64.911985 
1075.000000	64.924120 
1074.000000	64.925670 
1073.000000	64.916944 
1072.000000	64.900803 
1071.000000	64.881730 
1070.000000	64.864420 
1069.000000	64.852404 
1068.000000	64.847326 
1067.000000	64.848470 
1066.000000	64.853310 
1065.000000	64.858078 
1064.000000	64.859247 
1063.000000	64.854454 
1062.000000	64.843320 
1061.000000	64.827489 
1060.000000	64.810323 
1059.000000	64.795613 
1058.000000	64.787054 
1057.000000	64.787268 
1056.000000	64.797282 
1055.000000	64.816570 
1054.000000	64.843010 
1053.000000	64.873528 
1052.000000	64.904260 
1051.000000	64.931511 
1050.000000	64.952158 
1049.000000	64.963865 
1048.000000	64.965558 
1047.000000	64.957332 
1046.000000	64.940357 
1045.000000	64.916682 
1044.000000	64.889049 
1043.000000	64.860558 
1042.000000	64.834380 
1041.000000	64.813423 
1040.000000	64.799928 
1039.000000	64.794945 
1038.000000	64.797949 
1037.000000	64.806866 
1036.000000	64.818382 
1035.000000	64.828872 
1034.000000	64.835143 
1033.000000	64.835357 
1032.000000	64.829468 
1031.000000	64.819288 
1030.000000	64.808130 
1029.000000	64.799690 
1028.000000	64.796876 
1027.000000	64.801096 
1026.000000	64.812040 
1025.000000	64.827585 
1024.000000	64.844322 
1023.000000	64.858937 
1022.000000	64.869117 
1021.000000	64.874124 
1020.000000	64.874744 
1019.000000	64.872956 
1018.000000	64.871025 
1017.000000	64.870858 
1016.000000	64.873003 
1015.000000	64.876937 
1014.000000	64.881110 
1013.000000	64.883852 
1012.000000	64.884114 
1011.000000	64.881706 
1010.000000	64.877271 
1009.000000	64.872217 
1008.000000	64.868044 
1007.000000	64.865875 
1006.000000	64.865660 
1005.000000	64.866375 
1004.000000	64.865756 
1003.000000	64.861416 
1002.000000	64.850950 
1001.000000	64.832806 
1000.000000	64.806556 
999.000000	 64.773130 
998.000000	 64.734745 
997.000000	 64.694213 
996.000000	 64.654874 
995.000000	 64.619636 
994.000000	 64.591145 
993.000000	 64.571094 
992.000000	 64.560651 
991.000000	 64.560222 
990.000000	 64.569687 
989.000000	 64.588189 
988.000000	 64.614629 
987.000000	 64.647483 
986.000000	 64.684939 
985.000000	 64.724516 
984.000000	 64.763355 
983.000000	 64.798188 
982.000000	 64.825606 
981.000000	 64.842247 
980.000000	 64.845609 
979.000000	 64.834356 
978.000000	 64.808773 
977.000000	 64.770889 
976.000000	 64.724302 
975.000000	 64.673495 
974.000000	 64.623785 
973.000000	 64.580035 
972.000000	 64.546418 
971.000000	 64.525318 
970.000000	 64.517712 
969.000000	 64.522433 
968.000000	 64.536523 
967.000000	 64.555835 
966.000000	 64.575672 
965.000000	 64.591693 
964.000000	 64.600539 
963.000000	 64.600396 
962.000000	 64.591288 
961.000000	 64.574456 
960.000000	 64.551734 
959.000000	 64.525318 
958.000000	 64.497137 
957.000000	 64.468884 
956.000000	 64.441823 
955.000000	 64.416885 
954.000000	 64.394712 
953.000000	 64.376115 
952.000000	 64.361977 
951.000000	 64.352869 
950.000000	 64.349079 
949.000000	 64.350652 
948.000000	 64.357352 
947.000000	 64.368700 
946.000000	 64.383912 
945.000000	 64.401936 
944.000000	 64.421629 
943.000000	 64.441823 
942.000000	 64.461159 
941.000000	 64.477610 
940.000000	 64.489579 
939.000000	 64.496064 
938.000000	 64.497542 
937.000000	 64.495658 
936.000000	 64.493656 
935.000000	 64.495873 
934.000000	 64.505863 
933.000000	 64.525341 
932.000000	 64.553022 
931.000000	 64.584612 
930.000000	 64.613318 
929.000000	 64.631700 
928.000000	 64.633011 
927.000000	 64.613294 
926.000000	 64.573001 
925.000000	 64.516901 
924.000000	 64.452910 
923.000000	 64.390492 
922.000000	 64.338827 
921.000000	 64.305257 
920.000000	 64.293360 
919.000000	 64.303565 
918.000000	 64.333176 
917.000000	 64.378237 
916.000000	 64.434313 
915.000000	 64.498257 
914.000000	 64.568018 
913.000000	 64.643335 
912.000000	 64.723896 
911.000000	 64.809536 
910.000000	 64.898824 
909.000000	 64.989042 
908.000000	 65.076088 
907.000000	 65.154600 
906.000000	 65.219068 
905.000000	 65.263891 
904.000000	 65.284132 
903.000000	 65.275597 
902.000000	 65.235304 
901.000000	 65.161824 
900.000000	 65.055918 
899.000000	 64.920997 
898.000000	 64.763784 
897.000000	 64.594578 
896.000000	 64.426779 
895.000000	 64.275360 
894.000000	 64.154887 
893.000000	 64.077186 
892.000000	 64.048862 
891.000000	 64.069104 
890.000000	 64.130711 
889.000000	 64.220118 
888.000000	 64.321184 
887.000000	 64.417266 
886.000000	 64.495229 
885.000000	 64.546632 
884.000000	 64.569067 
883.000000	 64.564990 
882.000000	 64.539837 
881.000000	 64.499449 
880.000000	 64.448642 
879.000000	 64.390110 
878.000000	 64.324760 
877.000000	 64.252781 
876.000000	 64.175796 
875.000000	 64.097929 
874.000000	 64.025974 
873.000000	 63.968515 
872.000000	 63.933730 
871.000000	 63.927769 
870.000000	 63.952040 
869.000000	 64.003562 
868.000000	 64.074540 
867.000000	 64.155387 
866.000000	 64.236497 
865.000000	 64.310717 
864.000000	 64.373564 
863.000000	 64.424371 
862.000000	 64.465236 
861.000000	 64.499878 
860.000000	 64.531779 
859.000000	 64.563012 
858.000000	 64.594078 
857.000000	 64.623427 
856.000000	 64.648699 
855.000000	 64.666867 
854.000000	 64.675593 
853.000000	 64.673733 
852.000000	 64.661908 
851.000000	 64.641690 
850.000000	 64.615249 
849.000000	 64.584493 
848.000000	 64.550757 
847.000000	 64.514827 
846.000000	 64.477109 
845.000000	 64.437842 
844.000000	 64.397716 
843.000000	 64.357995 
842.000000	 64.321041 
841.000000	 64.289498 
840.000000	 64.266324 
839.000000	 64.253520 
838.000000	 64.252090 
837.000000	 64.261531 
836.000000	 64.280200 
835.000000	 64.304804 
834.000000	 64.332127 
833.000000	 64.359664 
832.000000	 64.385700 
831.000000	 64.409160 
830.000000	 64.429116 
829.000000	 64.444565 
828.000000	 64.453387 
827.000000	 64.452838 
826.000000	 64.440226 
825.000000	 64.413785 
824.000000	 64.373946 
823.000000	 64.323639 
822.000000	 64.268350 
821.000000	 64.215397 
820.000000	 64.172124 
819.000000	 64.144349 
818.000000	 64.135122 
817.000000	 64.143681 
816.000000	 64.165878 
815.000000	 64.195227 
814.000000	 64.224314 
813.000000	 64.246773 
812.000000	 64.258503 
811.000000	 64.258503 
810.000000	 64.248490 
809.000000	 64.232230 
808.000000	 64.214205 
807.000000	 64.198327 
806.000000	 64.186835 
805.000000	 64.179968 
804.000000	 64.176297 
803.000000	 64.173078 
802.000000	 64.167857 
801.000000	 64.158439 
800.000000	 64.143896 
799.000000	 64.124274 
798.000000	 64.100670 
797.000000	 64.074587 
796.000000	 64.047431 
795.000000	 64.020204 
794.000000	 63.993525 
793.000000	 63.967800 
792.000000	 63.943195 
791.000000	 63.919425 
790.000000	 63.896250 
789.000000	 63.873267 
788.000000	 63.850712 
787.000000	 63.828992 
786.000000	 63.809394 
785.000000	 63.793516 
784.000000	 63.783407 
783.000000	 63.780999 
782.000000	 63.787484 
781.000000	 63.802528 
780.000000	 63.824081 
779.000000	 63.848900 
778.000000	 63.872504 
777.000000	 63.890218 
776.000000	 63.897728 
775.000000	 63.891887 
774.000000	 63.871574 
773.000000	 63.837957 
772.000000	 63.794183 
771.000000	 63.744926 
770.000000	 63.695788 
769.000000	 63.652253 
768.000000	 63.619065 
767.000000	 63.599371 
766.000000	 63.594722 
765.000000	 63.604736 
764.000000	 63.627266 
763.000000	 63.658761 
762.000000	 63.694787 
761.000000	 63.730740 
760.000000	 63.761997 
759.000000	 63.784527 
758.000000	 63.795471 
757.000000	 63.793206 
756.000000	 63.777422 
755.000000	 63.749098 
754.000000	 63.710403 
753.000000	 63.664698 
752.000000	 63.616132 
751.000000	 63.569331 
750.000000	 63.528752 
749.000000	 63.498258 
748.000000	 63.480663 
747.000000	 63.477206 
746.000000	 63.487482 
745.000000	 63.509678 
744.000000	 63.540911 
743.000000	 63.577628 
742.000000	 63.615942 
741.000000	 63.652110 
740.000000	 63.683128 
739.000000	 63.706970 
738.000000	 63.722538 
737.000000	 63.729882 
736.000000	 63.729810 
735.000000	 63.724017 
734.000000	 63.714456 
733.000000	 63.703536 
732.000000	 63.692903 
731.000000	 63.683533 
730.000000	 63.675093 
729.000000	 63.666415 
728.000000	 63.655495 
727.000000	 63.640117 
726.000000	 63.618803 
725.000000	 63.591432 
724.000000	 63.559794 
723.000000	 63.527321 
722.000000	 63.498115 
721.000000	 63.475751 
720.000000	 63.462209 
719.000000	 63.457369 
718.000000	 63.458991 
717.000000	 63.463115 
716.000000	 63.465452 
715.000000	 63.462305 
714.000000	 63.452053 
713.000000	 63.435411 
712.000000	 63.414692 
711.000000	 63.393092 
710.000000	 63.373684 
709.000000	 63.358283 
708.000000	 63.346576 
707.000000	 63.336253 
706.000000	 63.323903 
705.000000	 63.306450 
704.000000	 63.281917 
703.000000	 63.250637 
702.000000	 63.215112 
701.000000	 63.179922 
700.000000	 63.150382 
699.000000	 63.131833 
698.000000	 63.127970 
697.000000	 63.140439 
696.000000	 63.168478 
695.000000	 63.208770 
694.000000	 63.256025 
693.000000	 63.303804 
692.000000	 63.345885 
691.000000	 63.376569 
690.000000	 63.391447 
689.000000	 63.387846 
688.000000	 63.365268 
687.000000	 63.324809 
686.000000	 63.268971 
685.000000	 63.201355 
684.000000	 63.126254 
683.000000	 63.048505 
682.000000	 62.972974 
681.000000	 62.904381 
680.000000	 62.846612 
679.000000	 62.802481 
678.000000	 62.773537 
677.000000	 62.759518 
676.000000	 62.759184 
675.000000	 62.770223 
674.000000	 62.790274 
673.000000	 62.816381 
672.000000	 62.846398 
671.000000	 62.878274 
670.000000	 62.911176 
669.000000	 62.944602 
668.000000	 62.978792 
667.000000	 63.013863 
666.000000	 63.049793 
665.000000	 63.086485 
664.000000	 63.122749 
663.000000	 63.156723 
662.000000	 63.185524 
661.000000	 63.205885 
660.000000	 63.214588 
659.000000	 63.209247 
658.000000	 63.188838 
657.000000	 63.154339 
656.000000	 63.109183 
655.000000	 63.058137 
654.000000	 63.007521 
653.000000	 62.962555 
652.000000	 62.925910 
651.000000	 62.897109 
650.000000	 62.872624 
649.000000	 62.847471 
648.000000	 62.816548 
647.000000	 62.777447 
646.000000	 62.731313 
645.000000	 62.683582 
644.000000	 62.642168 
643.000000	 62.616348 
642.000000	 62.613463 
641.000000	 62.637853 
640.000000	 62.688779 
639.000000	 62.761044 
638.000000	 62.845659 
637.000000	 62.931489 
636.000000	 63.007545 
635.000000	 63.064575 
634.000000	 63.096570 
633.000000	 63.101410 
632.000000	 63.080811 
631.000000	 63.039469 
630.000000	 62.983989 
629.000000	 62.922358 
628.000000	 62.862396 
627.000000	 62.811255 
626.000000	 62.774205 
625.000000	 62.754082 
624.000000	 62.751150 
623.000000	 62.763094 
622.000000	 62.786388 
621.000000	 62.816357 
620.000000	 62.849450 
619.000000	 62.882852 
618.000000	 62.916135 
617.000000	 62.949848 
616.000000	 62.985968 
615.000000	 63.025999 
614.000000	 63.071084 
613.000000	 63.121128 
612.000000	 63.174557 
611.000000	 63.228607 
610.000000	 63.279008 
609.000000	 63.321042 
608.000000	 63.349676 
607.000000	 63.360548 
606.000000	 63.351035 
605.000000	 63.320732 
604.000000	 63.271307 
603.000000	 63.206243 
602.000000	 63.130927 
601.000000	 63.051581 
600.000000	 62.974548 
599.000000	 62.905025 
598.000000	 62.847208 
597.000000	 62.803435 
596.000000	 62.774324 
595.000000	 62.758779 
594.000000	 62.753915 
593.000000	 62.756085 
592.000000	 62.760734 
591.000000	 62.764000 
590.000000	 62.762665 
589.000000	 62.755036 
588.000000	 62.740612 
587.000000	 62.720394 
586.000000	 62.696385 
585.000000	 62.670636 
584.000000	 62.644648 
583.000000	 62.618827 
582.000000	 62.592387 
581.000000	 62.563061 
580.000000	 62.527966 
579.000000	 62.483930 
578.000000	 62.428760 
577.000000	 62.361621 
576.000000	 62.283635 
575.000000	 62.197780 
574.000000	 62.108612 
573.000000	 62.021064 
572.000000	 61.940407 
571.000000	 61.870932 
570.000000	 61.816096 
569.000000	 61.777639 
568.000000	 61.756014 
567.000000	 61.749696 
566.000000	 61.756157 
565.000000	 61.771678 
564.000000	 61.792778 
563.000000	 61.816215 
562.000000	 61.839294 
561.000000	 61.859798 
560.000000	 61.875510 
559.000000	 61.883831 
558.000000	 61.882305 
557.000000	 61.868715 
556.000000	 61.842584 
555.000000	 61.805701 
554.000000	 61.762833 
553.000000	 61.721110 
552.000000	 61.688280 
551.000000	 61.670851 
550.000000	 61.672067 
549.000000	 61.690950 
548.000000	 61.722183 
547.000000	 61.757564 
546.000000	 61.788034 
545.000000	 61.805915 
544.000000	 61.806702 
543.000000	 61.789989 
542.000000	 61.759686 
541.000000	 61.722302 
540.000000	 61.684417 
539.000000	 61.650943 
538.000000	 61.624383 
537.000000	 61.603903 
536.000000	 61.586380 
535.000000	 61.567854 
534.000000	 61.545515 
533.000000	 61.518740 
532.000000	 61.489486 
531.000000	 61.461639 
530.000000	 61.439657 
529.000000	 61.427187 
528.000000	 61.425662 
527.000000	 61.433649 
526.000000	 61.446690 
525.000000	 61.458253 
524.000000	 61.461067 
523.000000	 61.449003 
522.000000	 61.418914 
521.000000	 61.371159 
520.000000	 61.310315 
519.000000	 61.243581 
518.000000	 61.180329 
517.000000	 61.130023 
516.000000	 61.100697 
515.000000	 61.096692 
514.000000	 61.118650 
513.000000	 61.163973 
512.000000	 61.227178 
511.000000	 61.300182 
510.000000	 61.374616 
509.000000	 61.443686 
508.000000	 61.502408 
507.000000	 61.547565 
506.000000	 61.577963 
505.000000	 61.593699 
504.000000	 61.595797 
503.000000	 61.585807 
502.000000	 61.565637 
501.000000	 61.537623 
500.000000	 61.505198 
499.000000	 61.472892 
498.000000	 61.444950 
497.000000	 61.424517 
496.000000	 61.413311 
495.000000	 61.410641 
494.000000	 61.413049 
493.000000	 61.414384 
492.000000	 61.407756 
491.000000	 61.385822 
490.000000	 61.343002 
489.000000	 61.275005 
488.000000	 61.181044 
487.000000	 61.061692 
486.000000	 60.919618 
485.000000	 60.757851 
484.000000	 60.579848 
483.000000	 60.389208 
482.000000	 60.190081 
481.000000	 59.988212 
480.000000	 59.790301 
479.000000	 59.606456 
478.000000	 59.448719 
477.000000	 59.330391 
476.000000	 59.262633 
475.000000	 59.253168 
474.000000	 59.303259 
473.000000	 59.407806 
472.000000	 59.554982 
471.000000	 59.728670 
470.000000	 59.910941 
469.000000	 60.084652 
468.000000	 60.235953 
467.000000	 60.356140 
466.000000	 60.441684 
465.000000	 60.492706 
464.000000	 60.511708 
463.000000	 60.503244 
462.000000	 60.471916 
461.000000	 60.423207 
460.000000	 60.361480 
459.000000	 60.292649 
458.000000	 60.220909 
457.000000	 60.151505 
456.000000	 60.087227 
455.000000	 60.028076 
454.000000	 59.972429 
453.000000	 59.917855 
452.000000	 59.863758 
451.000000	 59.811305 
450.000000	 59.766650 
449.000000	 59.739565 
448.000000	 59.741950 
447.000000	 59.783697 
446.000000	 59.869599 
445.000000	 59.996318 
444.000000	 60.147333 
443.000000	 60.294961 
442.000000	 60.405755 
441.000000	 60.447454 
440.000000	 60.399174 
439.000000	 60.255241 
438.000000	 60.025787 
437.000000	 59.734272 
436.000000	 59.413886 
435.000000	 59.099841 
434.000000	 58.817410 
433.000000	 58.583450 
432.000000	 58.407473 
431.000000	 58.292746 
430.000000	 58.238458 
429.000000	 58.241748 
428.000000	 58.301544 
427.000000	 58.412766 
426.000000	 58.563280 
425.000000	 58.733987 
424.000000	 58.894419 
423.000000	 59.018683 
422.000000	 59.089875 
421.000000	 59.108376 
420.000000	 59.089303 
419.000000	 59.071731 
418.000000	 59.107446 
417.000000	 59.238314 
416.000000	 59.479403 
415.000000	 59.809160 
414.000000	 60.166597 
413.000000	 60.466074 
412.000000	 60.613608 
411.000000	 60.529351 
410.000000	 60.166358 
409.000000	 59.537839 
408.000000	 58.703041 
407.000000	 57.746958 
406.000000	 56.761932 
405.000000	 55.836606 
404.000000	 55.030059 
403.000000	 54.355764 
402.000000	 53.800964 
401.000000	 53.328847 
400.000000	 52.923679 
399.000000	 52.592158 
398.000000	 52.397251 
397.000000	 52.435851 
396.000000	 52.829909 
395.000000	 53.675341 
394.000000	 55.029249 
393.000000	 56.878662 
392.000000	 59.113216 
391.000000	 61.527705 
390.000000	 63.873386 
389.000000	 65.892648 
388.000000	 67.369413 
387.000000	 68.149065 
386.000000	 68.164634 
385.000000	 67.411828 
384.000000	 65.965819 
383.000000	 63.922023 
382.000000	 61.369013 
381.000000	 58.377623 
380.000000	 55.029153 
379.000000	 51.427602 
378.000000	 47.721290 
377.000000	 44.125366 
376.000000	 40.881538 
375.000000	 38.276267 
374.000000	 36.609315 
373.000000	 36.098194 
372.000000	 36.839532 
371.000000	 38.691163 
370.000000	 41.265940 

