PE IR       SPECTRUM    SPECTRUM    ASCII       PEDS        1.60        
  -1
C-1B64~1.ASC
17/05/02
13:35:22.00
17/05/02
13:35:22.00
tln
$C-4040-8_t0032$<tbV0>[7.5,12.0,8.0,0.0,22,1,0]
370.000000
64









2002,4.07    
MIRTGS : RIGHTBACK : INTERNAL 2
MIR : ON : INTERNAL 2
OPTKBR

0.200000
8
8.000000
FILLER
RATIO
SPECTRUM
UNLOCKED 256

DOUBLE
64
COMBINED
1
0
0


1.000000
RATIO


1
0
TRUE
51149
0
LEFT NOT FITTED RIGHT NOT FITTED 0
NONE
NONE
15600
12.000000
4.427000
51148
TRUE
1 0 8 72 0 0 0 0 

15798.010000






#HDR
-1
-1
#GR
CM-1
%T
0.00002384185791015625
0.0
7800.000000
-1.000000
7431
8
92.846989
50.846338
#DATA
7800.000000	79.076337 
7799.000000	80.134868 
7798.000000	80.502486 
7797.000000	80.154466 
7796.000000	79.116964 
7795.000000	77.470135 
7794.000000	75.337386 
7793.000000	72.879219 
7792.000000	70.260310 
7791.000000	67.639183 
7790.000000	65.156292 
7789.000000	62.928795 
7788.000000	61.050677 
7787.000000	59.589171 
7786.000000	58.578634 
7785.000000	58.019590 
7784.000000	57.863974 
7783.000000	58.033967 
7782.000000	58.395862 
7781.000000	58.822321 
7780.000000	59.185934 
7779.000000	59.425330 
7778.000000	59.523534 
7777.000000	59.549069 
7776.000000	59.616422 
7775.000000	59.875130 
7774.000000	60.450911 
7773.000000	61.425185 
7772.000000	62.804698 
7771.000000	64.515972 
7770.000000	66.416907 
7769.000000	68.329524 
7768.000000	70.080423 
7767.000000	71.533656 
7766.000000	72.617173 
7765.000000	73.329210 
7764.000000	73.728632 
7763.000000	73.916769 
7762.000000	74.004411 
7761.000000	74.087834 
7760.000000	74.217438 
7759.000000	74.419021 
7758.000000	74.667549 
7757.000000	74.903535 
7756.000000	75.036358 
7755.000000	74.984884 
7754.000000	74.685621 
7753.000000	74.106454 
7752.000000	73.266100 
7751.000000	72.225689 
7750.000000	71.096801 
7749.000000	70.016503 
7748.000000	69.134855 
7747.000000	68.575882 
7746.000000	68.430805 
7745.000000	68.745636 
7744.000000	69.499969 
7743.000000	70.609593 
7742.000000	71.931123 
7741.000000	73.286628 
7740.000000	74.481248 
7739.000000	75.336241 
7738.000000	75.719070 
7737.000000	75.567865 
7736.000000	74.900412 
7735.000000	73.812222 
7734.000000	72.462177 
7733.000000	71.043682 
7732.000000	69.751477 
7731.000000	68.747210 
7730.000000	68.145203 
7729.000000	67.988896 
7728.000000	68.256092 
7727.000000	68.860936 
7726.000000	69.685769 
7725.000000	70.589327 
7724.000000	71.433210 
7723.000000	72.092485 
7722.000000	72.465157 
7721.000000	72.485351 
7720.000000	72.116708 
7719.000000	71.373367 
7718.000000	70.311379 
7717.000000	69.038653 
7716.000000	67.701792 
7715.000000	66.468834 
7714.000000	65.501832 
7713.000000	64.941048 
7712.000000	64.880704 
7711.000000	65.362191 
7710.000000	66.361570 
7709.000000	67.792963 
7708.000000	69.509434 
7707.000000	71.311497 
7706.000000	72.971558 
7705.000000	74.254274 
7704.000000	74.964427 
7703.000000	74.982047 
7702.000000	74.290537 
7701.000000	72.994446 
7700.000000	71.286273 
7699.000000	69.414496 
7698.000000	67.620563 
7697.000000	66.103243 
7696.000000	64.973640 
7695.000000	64.255213 
7694.000000	63.887429 
7693.000000	63.762164 
7692.000000	63.762521 
7691.000000	63.794183 
7690.000000	63.820052 
7689.000000	63.851189 
7688.000000	63.957238 
7687.000000	64.227151 
7686.000000	64.746332 
7685.000000	65.556120 
7684.000000	66.634988 
7683.000000	67.890238 
7682.000000	69.179320 
7681.000000	70.336627 
7680.000000	71.212887 
7679.000000	71.703243 
7678.000000	71.775579 
7677.000000	71.464395 
7676.000000	70.859408 
7675.000000	70.074200 
7674.000000	69.215607 
7673.000000	68.364095 
7672.000000	67.572546 
7671.000000	66.863822 
7670.000000	66.247487 
7669.000000	65.730977 
7668.000000	65.333938 
7667.000000	65.089273 
7666.000000	65.039324 
7665.000000	65.216445 
7664.000000	65.621280 
7663.000000	66.216635 
7662.000000	66.920709 
7661.000000	67.626023 
7660.000000	68.218445 
7659.000000	68.601870 
7658.000000	68.718862 
7657.000000	68.569135 
7656.000000	68.210196 
7655.000000	67.744088 
7654.000000	67.293119 
7653.000000	66.978263 
7652.000000	66.885137 
7651.000000	67.055487 
7650.000000	67.464470 
7649.000000	68.034195 
7648.000000	68.638467 
7647.000000	69.133472 
7646.000000	69.386053 
7645.000000	69.300937 
7644.000000	68.846368 
7643.000000	68.059849 
7642.000000	67.041420 
7641.000000	65.928006 
7640.000000	64.864301 
7639.000000	63.979983 
7638.000000	63.348746 
7637.000000	62.980580 
7636.000000	62.818479 
7635.000000	62.764286 
7634.000000	62.700223 
7633.000000	62.524342 
7632.000000	62.176418 
7631.000000	61.652827 
7630.000000	61.017489 
7629.000000	60.385203 
7628.000000	59.891080 
7627.000000	59.656548 
7626.000000	59.757304 
7625.000000	60.204839 
7624.000000	60.946798 
7623.000000	61.878538 
7622.000000	62.868118 
7621.000000	63.785409 
7620.000000	64.530587 
7619.000000	65.050172 
7618.000000	65.333390 
7617.000000	65.415668 
7616.000000	65.346813 
7615.000000	65.197324 
7614.000000	65.041399 
7613.000000	64.948391 
7612.000000	64.982986 
7611.000000	65.181541 
7610.000000	65.557694 
7609.000000	66.081738 
7608.000000	66.695904 
7607.000000	67.301177 
7606.000000	67.777514 
7605.000000	68.012595 
7604.000000	67.931747 
7603.000000	67.521715 
7602.000000	66.842675 
7601.000000	66.031169 
7600.000000	65.272378 
7599.000000	64.767479 
7598.000000	64.678883 
7597.000000	65.093874 
7596.000000	65.988993 
7595.000000	67.236447 
7594.000000	68.621110 
7593.000000	69.887852 
7592.000000	70.798468 
7591.000000	71.191549 
7590.000000	71.011233 
7589.000000	70.310688 
7588.000000	69.235301 
7587.000000	67.978239 
7586.000000	66.738128 
7585.000000	65.668511 
7584.000000	64.865803 
7583.000000	64.363026 
7582.000000	64.149570 
7581.000000	64.197468 
7580.000000	64.478182 
7579.000000	64.976572 
7578.000000	65.686297 
7577.000000	66.597580 
7576.000000	67.683100 
7575.000000	68.882131 
7574.000000	70.096135 
7573.000000	71.193456 
7572.000000	72.033667 
7571.000000	72.488665 
7570.000000	72.476172 
7569.000000	71.972751 
7568.000000	71.023893 
7567.000000	69.734644 
7566.000000	68.254995 
7565.000000	66.751217 
7564.000000	65.382122 
7563.000000	64.271616 
7562.000000	63.498544 
7561.000000	63.087415 
7560.000000	63.016533 
7559.000000	63.229155 
7558.000000	63.643836 
7557.000000	64.182353 
7556.000000	64.774084 
7555.000000	65.374946 
7554.000000	65.958046 
7553.000000	66.515445 
7552.000000	67.041087 
7551.000000	67.528724 
7550.000000	67.962169 
7549.000000	68.318486 
7548.000000	68.569779 
7547.000000	68.690109 
7546.000000	68.661022 
7545.000000	68.483996 
7544.000000	68.178248 
7543.000000	67.777109 
7542.000000	67.321586 
7541.000000	66.852903 
7540.000000	66.409540 
7539.000000	66.018724 
7538.000000	65.704441 
7537.000000	65.488672 
7536.000000	65.393328 
7535.000000	65.444970 
7534.000000	65.658926 
7533.000000	66.028547 
7532.000000	66.521549 
7531.000000	67.077994 
7530.000000	67.620611 
7529.000000	68.065667 
7528.000000	68.344378 
7527.000000	68.417906 
7526.000000	68.283843 
7525.000000	67.976641 
7524.000000	67.552089 
7523.000000	67.072343 
7522.000000	66.589927 
7521.000000	66.137266 
7520.000000	65.721487 
7519.000000	65.330219 
7518.000000	64.942955 
7517.000000	64.545536 
7516.000000	64.140653 
7515.000000	63.753747 
7514.000000	63.425874 
7513.000000	63.206839 
7512.000000	63.135170 
7511.000000	63.230848 
7510.000000	63.481950 
7509.000000	63.849115 
7508.000000	64.273500 
7507.000000	64.686942 
7506.000000	65.023946 
7505.000000	65.236401 
7504.000000	65.299439 
7503.000000	65.218353 
7502.000000	65.025234 
7501.000000	64.767742 
7500.000000	64.495992 
7499.000000	64.251303 
7498.000000	64.059019 
7497.000000	63.925242 
7496.000000	63.841176 
7495.000000	63.793969 
7494.000000	63.774895 
7493.000000	63.788294 
7492.000000	63.850879 
7491.000000	63.978028 
7490.000000	64.178752 
7489.000000	64.446783 
7488.000000	64.761781 
7487.000000	65.087294 
7486.000000	65.384721 
7485.000000	65.624284 
7484.000000	65.793061 
7483.000000	65.903759 
7482.000000	65.982270 
7481.000000	66.064429 
7480.000000	66.171932 
7479.000000	66.307568 
7478.000000	66.442179 
7477.000000	66.522526 
7476.000000	66.484212 
7475.000000	66.274309 
7474.000000	65.868639 
7473.000000	65.285468 
7472.000000	64.586925 
7471.000000	63.868212 
7470.000000	63.239574 
7469.000000	62.801766 
7468.000000	62.630081 
7467.000000	62.758922 
7466.000000	63.180851 
7465.000000	63.848352 
7464.000000	64.686393 
7463.000000	65.603160 
7462.000000	66.504573 
7461.000000	67.304372 
7460.000000	67.931747 
7459.000000	68.335938 
7458.000000	68.489861 
7457.000000	68.388319 
7456.000000	68.045973 
7455.000000	67.495155 
7454.000000	66.789269 
7453.000000	65.992188 
7452.000000	65.179920 
7451.000000	64.424753 
7450.000000	63.793277 
7449.000000	63.331818 
7448.000000	63.063335 
7447.000000	62.984561 
7446.000000	63.068604 
7445.000000	63.273549 
7444.000000	63.549971 
7443.000000	63.851785 
7442.000000	64.141631 
7441.000000	64.392614 
7440.000000	64.588356 
7439.000000	64.719939 
7438.000000	64.785957 
7437.000000	64.789772 
7436.000000	64.743304 
7435.000000	64.667320 
7434.000000	64.593148 
7433.000000	64.563059 
7432.000000	64.621305 
7431.000000	64.805150 
7430.000000	65.133047 
7429.000000	65.604329 
7428.000000	66.187477 
7427.000000	66.823649 
7426.000000	67.435050 
7425.000000	67.940330 
7424.000000	68.272972 
7423.000000	68.394637 
7422.000000	68.307948 
7421.000000	68.054223 
7420.000000	67.708158 
7419.000000	67.362475 
7418.000000	67.102003 
7417.000000	66.985011 
7416.000000	67.030239 
7415.000000	67.216205 
7414.000000	67.489099 
7413.000000	67.780041 
7412.000000	68.022871 
7411.000000	68.170809 
7410.000000	68.207287 
7409.000000	68.145656 
7408.000000	68.018078 
7407.000000	67.862415 
7406.000000	67.711806 
7405.000000	67.580485 
7404.000000	67.462420 
7403.000000	67.331075 
7402.000000	67.153525 
7401.000000	66.898679 
7400.000000	66.552448 
7399.000000	66.122364 
7398.000000	65.637135 
7397.000000	65.144109 
7396.000000	64.695644 
7395.000000	64.341306 
7394.000000	64.115047 
7393.000000	64.029049 
7392.000000	64.071369 
7391.000000	64.207625 
7390.000000	64.388847 
7389.000000	64.562511 
7388.000000	64.683318 
7387.000000	64.722156 
7386.000000	64.669537 
7385.000000	64.536666 
7384.000000	64.347815 
7383.000000	64.129233 
7382.000000	63.900113 
7381.000000	63.666200 
7380.000000	63.421320 
7379.000000	63.152766 
7378.000000	62.851929 
7377.000000	62.519526 
7376.000000	62.176299 
7375.000000	61.861395 
7374.000000	61.629199 
7373.000000	61.529469 
7372.000000	61.603403 
7371.000000	61.866664 
7370.000000	62.309575 
7369.000000	62.891793 
7368.000000	63.556504 
7367.000000	64.238715 
7366.000000	64.881706 
7365.000000	65.446782 
7364.000000	65.913987 
7363.000000	66.279101 
7362.000000	66.550421 
7361.000000	66.741538 
7360.000000	66.864991 
7359.000000	66.928243 
7358.000000	66.940665 
7357.000000	66.912150 
7356.000000	66.857075 
7355.000000	66.787624 
7354.000000	66.722202 
7353.000000	66.668319 
7352.000000	66.619944 
7351.000000	66.549253 
7350.000000	66.415977 
7349.000000	66.171813 
7348.000000	65.773081 
7347.000000	65.197420 
7346.000000	64.453220 
7345.000000	63.587713 
7344.000000	62.679409 
7343.000000	61.828994 
7342.000000	61.134290 
7341.000000	60.676646 
7340.000000	60.501646 
7339.000000	60.612583 
7338.000000	60.966324 
7337.000000	61.492228 
7336.000000	62.107658 
7335.000000	62.733769 
7334.000000	63.307976 
7333.000000	63.801312 
7332.000000	64.218616 
7331.000000	64.588451 
7330.000000	64.950752 
7329.000000	65.345716 
7328.000000	65.798974 
7327.000000	66.318726 
7326.000000	66.887426 
7325.000000	67.470932 
7324.000000	68.018484 
7323.000000	68.484091 
7322.000000	68.825292 
7321.000000	69.013929 
7320.000000	69.037199 
7319.000000	68.905544 
7318.000000	68.643808 
7317.000000	68.289566 
7316.000000	67.882657 
7315.000000	67.468595 
7314.000000	67.078495 
7313.000000	66.730141 
7312.000000	66.421723 
7311.000000	66.141510 
7310.000000	65.864658 
7309.000000	65.563392 
7308.000000	65.216302 
7307.000000	64.816164 
7306.000000	64.376163 
7305.000000	63.929677 
7304.000000	63.518643 
7303.000000	63.186025 
7302.000000	62.970805 
7301.000000	62.900376 
7300.000000	62.976050 
7299.000000	63.179588 
7298.000000	63.480091 
7297.000000	63.843393 
7296.000000	64.233827 
7295.000000	64.625620 
7294.000000	65.003609 
7293.000000	65.364265 
7292.000000	65.705680 
7291.000000	66.029071 
7290.000000	66.332077 
7289.000000	66.610741 
7288.000000	66.858410 
7287.000000	67.070817 
7286.000000	67.250466 
7285.000000	67.405533 
7284.000000	67.553234 
7283.000000	67.705464 
7282.000000	67.865681 
7281.000000	68.022418 
7280.000000	68.151164 
7279.000000	68.210363 
7278.000000	68.150162 
7277.000000	67.926979 
7276.000000	67.514824 
7275.000000	66.909456 
7274.000000	66.134452 
7273.000000	65.240263 
7272.000000	64.298748 
7271.000000	63.389611 
7270.000000	62.590694 
7269.000000	61.965250 
7268.000000	61.553573 
7267.000000	61.369490 
7266.000000	61.397838 
7265.000000	61.596131 
7264.000000	61.904597 
7263.000000	62.254142 
7262.000000	62.580347 
7261.000000	62.823033 
7260.000000	62.947964 
7259.000000	62.943363 
7258.000000	62.829089 
7257.000000	62.644314 
7256.000000	62.446761 
7255.000000	62.297177 
7254.000000	62.250018 
7253.000000	62.341499 
7252.000000	62.583804 
7251.000000	62.963247 
7250.000000	63.443827 
7249.000000	63.975310 
7248.000000	64.503312 
7247.000000	64.979243 
7246.000000	65.368032 
7245.000000	65.651822 
7244.000000	65.828156 
7243.000000	65.906190 
7242.000000	65.906667 
7241.000000	65.849995 
7240.000000	65.750813 
7239.000000	65.615296 
7238.000000	65.451455 
7237.000000	65.263080 
7236.000000	65.054607 
7235.000000	64.833998 
7234.000000	64.615654 
7233.000000	64.420366 
7232.000000	64.272356 
7231.000000	64.195108 
7230.000000	64.204835 
7229.000000	64.306950 
7228.000000	64.493036 
7227.000000	64.739322 
7226.000000	65.009355 
7225.000000	65.261006 
7224.000000	65.453791 
7223.000000	65.553903 
7222.000000	65.541124 
7221.000000	65.410113 
7220.000000	65.175509 
7219.000000	64.865589 
7218.000000	64.524722 
7217.000000	64.209413 
7216.000000	63.980126 
7215.000000	63.892650 
7214.000000	63.983941 
7213.000000	64.266800 
7212.000000	64.720773 
7211.000000	65.293264 
7210.000000	65.910029 
7209.000000	66.488075 
7208.000000	66.955280 
7207.000000	67.262601 
7206.000000	67.396140 
7205.000000	67.376732 
7204.000000	67.251539 
7203.000000	67.081165 
7202.000000	66.918206 
7201.000000	66.794657 
7200.000000	66.713452 
7199.000000	66.652631 
7198.000000	66.574811 
7197.000000	66.443586 
7196.000000	66.238069 
7195.000000	65.962767 
7194.000000	65.645575 
7193.000000	65.333294 
7192.000000	65.074610 
7191.000000	64.910650 
7190.000000	64.865541 
7189.000000	64.940047 
7188.000000	65.113782 
7187.000000	65.347218 
7186.000000	65.592312 
7185.000000	65.800356 
7184.000000	65.930199 
7183.000000	65.957307 
7182.000000	65.874147 
7181.000000	65.694141 
7180.000000	65.446257 
7179.000000	65.168642 
7178.000000	64.899349 
7177.000000	64.669489 
7176.000000	64.499139 
7175.000000	64.393424 
7174.000000	64.345383 
7173.000000	64.338994 
7172.000000	64.355516 
7171.000000	64.381885 
7170.000000	64.414381 
7169.000000	64.458227 
7168.000000	64.523458 
7167.000000	64.619874 
7166.000000	64.749431 
7165.000000	64.900875 
7164.000000	65.048766 
7163.000000	65.158247 
7162.000000	65.193057 
7161.000000	65.124106 
7160.000000	64.941072 
7159.000000	64.653992 
7158.000000	64.300608 
7157.000000	63.933253 
7156.000000	63.620352 
7155.000000	63.428688 
7154.000000	63.416862 
7153.000000	63.620114 
7152.000000	64.046096 
7151.000000	64.674711 
7150.000000	65.453577 
7149.000000	66.308379 
7148.000000	67.144656 
7147.000000	67.863345 
7146.000000	68.371629 
7145.000000	68.598914 
7144.000000	68.508887 
7143.000000	68.106222 
7142.000000	67.440629 
7141.000000	66.596412 
7140.000000	65.679168 
7139.000000	64.793276 
7138.000000	64.027285 
7137.000000	63.435912 
7136.000000	63.037133 
7135.000000	62.812399 
7134.000000	62.720012 
7133.000000	62.707829 
7132.000000	62.724781 
7131.000000	62.735795 
7130.000000	62.721490 
7129.000000	62.683153 
7128.000000	62.630057 
7127.000000	62.577033 
7126.000000	62.531018 
7125.000000	62.490081 
7124.000000	62.439823 
7123.000000	62.361049 
7122.000000	62.236714 
7121.000000	62.059831 
7120.000000	61.838483 
7119.000000	61.594820 
7118.000000	61.360645 
7117.000000	61.168074 
7116.000000	61.041545 
7115.000000	60.988569 
7114.000000	60.999989 
7113.000000	61.052322 
7112.000000	61.118865 
7111.000000	61.178898 
7110.000000	61.228036 
7109.000000	61.276721 
7108.000000	61.351442 
7107.000000	61.485815 
7106.000000	61.710572 
7105.000000	62.039136 
7104.000000	62.462878 
7103.000000	62.950205 
7102.000000	63.451576 
7101.000000	63.911008 
7100.000000	64.277720 
7099.000000	64.518308 
7098.000000	64.623689 
7097.000000	64.611244 
7096.000000	64.518356 
7095.000000	64.392137 
7094.000000	64.278745 
7093.000000	64.213347 
7092.000000	64.215302 
7091.000000	64.287376 
7090.000000	64.422249 
7089.000000	64.607930 
7088.000000	64.835071 
7087.000000	65.098404 
7086.000000	65.393376 
7085.000000	65.712332 
7084.000000	66.041564 
7083.000000	66.357994 
7082.000000	66.630339 
7081.000000	66.822338 
7080.000000	66.904211 
7079.000000	66.855192 
7078.000000	66.673183 
7077.000000	66.372060 
7076.000000	65.982961 
7075.000000	65.545606 
7074.000000	65.105390 
7073.000000	64.700460 
7072.000000	64.358878 
7071.000000	64.090704 
7070.000000	63.891959 
7069.000000	63.743734 
7068.000000	63.619470 
7067.000000	63.493132 
7066.000000	63.346576 
7065.000000	63.173627 
7064.000000	62.980508 
7063.000000	62.787675 
7062.000000	62.625122 
7061.000000	62.525701 
7060.000000	62.517976 
7059.000000	62.621235 
7058.000000	62.840628 
7057.000000	63.165211 
7056.000000	63.568496 
7055.000000	64.014887 
7054.000000	64.462804 
7053.000000	64.869594 
7052.000000	65.197896 
7051.000000	65.420937 
7050.000000	65.526080 
7049.000000	65.513634 
7048.000000	65.399026 
7047.000000	65.210056 
7046.000000	64.982533 
7045.000000	64.758706 
7044.000000	64.574790 
7043.000000	64.458441 
7042.000000	64.420008 
7041.000000	64.456152 
7040.000000	64.543795 
7039.000000	64.647078 
7038.000000	64.725232 
7037.000000	64.743280 
7036.000000	64.681792 
7035.000000	64.542078 
7034.000000	64.347887 
7033.000000	64.138031 
7032.000000	63.955378 
7031.000000	63.833332 
7030.000000	63.788270 
7029.000000	63.812255 
7028.000000	63.874816 
7027.000000	63.930511 
7026.000000	63.933134 
7025.000000	63.848352 
7024.000000	63.663291 
7023.000000	63.391780 
7022.000000	63.066768 
7021.000000	62.737298 
7020.000000	62.454700 
7019.000000	62.262320 
7018.000000	62.183809 
7017.000000	62.220501 
7016.000000	62.353134 
7015.000000	62.547206 
7014.000000	62.763524 
7013.000000	62.964248 
7012.000000	63.120412 
7011.000000	63.215613 
7010.000000	63.246870 
7009.000000	63.224411 
7008.000000	63.168454 
7007.000000	63.104510 
7006.000000	63.059663 
7005.000000	63.063168 
7004.000000	63.140463 
7003.000000	63.311195 
7002.000000	63.581681 
7001.000000	63.942718 
7000.000000	64.366459 
6999.000000	64.811348 
6998.000000	65.226626 
6997.000000	65.560698 
6996.000000	65.771961 
6995.000000	65.838980 
6994.000000	65.763330 
6993.000000	65.567135 
6992.000000	65.291047 
6991.000000	64.985370 
6990.000000	64.701461 
6989.000000	64.484071 
6988.000000	64.362215 
6987.000000	64.349079 
6986.000000	64.434099 
6985.000000	64.588856 
6984.000000	64.767622 
6983.000000	64.918446 
6982.000000	64.990496 
6981.000000	64.945459 
6980.000000	64.763283 
6979.000000	64.447999 
6978.000000	64.026236 
6977.000000	63.544607 
6976.000000	63.059973 
6975.000000	62.631726 
6974.000000	62.310719 
6973.000000	62.133955 
6972.000000	62.116742 
6971.000000	62.255549 
6970.000000	62.531971 
6969.000000	62.916374 
6968.000000	63.371419 
6967.000000	63.857054 
6966.000000	64.333558 
6965.000000	64.763712 
6964.000000	65.111064 
6963.000000	65.347051 
6962.000000	65.453028 
6961.000000	65.424466 
6960.000000	65.273380 
6959.000000	65.025687 
6958.000000	64.718246 
6957.000000	64.395689 
6956.000000	64.104866 
6955.000000	63.886976 
6954.000000	63.771462 
6953.000000	63.774132 
6952.000000	63.893818 
6951.000000	64.111542 
6950.000000	64.393424 
6949.000000	64.694523 
6948.000000	64.967489 
6947.000000	65.170240 
6946.000000	65.273690 
6945.000000	65.265607 
6944.000000	65.151929 
6943.000000	64.952945 
6942.000000	64.698481 
6941.000000	64.422798 
6940.000000	64.156079 
6939.000000	63.921236 
6938.000000	63.729524 
6937.000000	63.582611 
6936.000000	63.474583 
6935.000000	63.396787 
6934.000000	63.342905 
6933.000000	63.309597 
6932.000000	63.302993 
6931.000000	63.335204 
6930.000000	63.422393 
6929.000000	63.577198 
6928.000000	63.806891 
6927.000000	64.107060 
6926.000000	64.459943 
6925.000000	64.833545 
6924.000000	65.184903 
6923.000000	65.466713 
6922.000000	65.635728 
6921.000000	65.661931 
6920.000000	65.536379 
6919.000000	65.273785 
6918.000000	64.911079 
6917.000000	64.500188 
6916.000000	64.097952 
6915.000000	63.756203 
6914.000000	63.512730 
6913.000000	63.387441 
6912.000000	63.381814 
6911.000000	63.482618 
6910.000000	63.669180 
6909.000000	63.916349 
6908.000000	64.198899 
6907.000000	64.492845 
6906.000000	64.775490 
6905.000000	65.024161 
6904.000000	65.215039 
6903.000000	65.325903 
6902.000000	65.338301 
6901.000000	65.242505 
6900.000000	65.039968 
6899.000000	64.746427 
6898.000000	64.389348 
6897.000000	64.002370 
6896.000000	63.620090 
6895.000000	63.270163 
6894.000000	62.972545 
6893.000000	62.738919 
6892.000000	62.575984 
6891.000000	62.485265 
6890.000000	62.468314 
6889.000000	62.526750 
6888.000000	62.662124 
6887.000000	62.870264 
6886.000000	63.140940 
6885.000000	63.452053 
6884.000000	63.774585 
6883.000000	64.073896 
6882.000000	64.317631 
6881.000000	64.480495 
6880.000000	64.551186 
6879.000000	64.534664 
6878.000000	64.450931 
6877.000000	64.330387 
6876.000000	64.206838 
6875.000000	64.110183 
6874.000000	64.062690 
6873.000000	64.074754 
6872.000000	64.145350 
6871.000000	64.262080 
6870.000000	64.403676 
6869.000000	64.543604 
6868.000000	64.654421 
6867.000000	64.713215 
6866.000000	64.702081 
6865.000000	64.614605 
6864.000000	64.457559 
6863.000000	64.251041 
6862.000000	64.023566 
6861.000000	63.808012 
6860.000000	63.636898 
6859.000000	63.534045 
6858.000000	63.511276 
6857.000000	63.564801 
6856.000000	63.675427 
6855.000000	63.815808 
6854.000000	63.957667 
6853.000000	64.077901 
6852.000000	64.162421 
6851.000000	64.208626 
6850.000000	64.223194 
6849.000000	64.217782 
6848.000000	64.203572 
6847.000000	64.188408 
6846.000000	64.174962 
6845.000000	64.162564 
6844.000000	64.149761 
6843.000000	64.135789 
6842.000000	64.123964 
6841.000000	64.123535 
6840.000000	64.148473 
6839.000000	64.213848 
6838.000000	64.330840 
6837.000000	64.503240 
6836.000000	64.722275 
6835.000000	64.968800 
6834.000000	65.211892 
6833.000000	65.415978 
6832.000000	65.545558 
6831.000000	65.572834 
6830.000000	65.484786 
6829.000000	65.286564 
6828.000000	65.003108 
6827.000000	64.674401 
6826.000000	64.349484 
6825.000000	64.077067 
6824.000000	63.895964 
6823.000000	63.828730 
6822.000000	63.876748 
6821.000000	64.021992 
6820.000000	64.235091 
6819.000000	64.484286 
6818.000000	64.742350 
6817.000000	64.992523 
6816.000000	65.231871 
6815.000000	65.467286 
6814.000000	65.708446 
6813.000000	65.959501 
6812.000000	66.214036 
6811.000000	66.451549 
6810.000000	66.641712 
6809.000000	66.750025 
6808.000000	66.750717 
6807.000000	66.632628 
6806.000000	66.408467 
6805.000000	66.109895 
6804.000000	65.783333 
6803.000000	65.477609 
6802.000000	65.234565 
6801.000000	65.078496 
6800.000000	65.013980 
6799.000000	65.024113 
6798.000000	65.078377 
6797.000000	65.138697 
6796.000000	65.170598 
6795.000000	65.148448 
6794.000000	65.060400 
6793.000000	64.908957 
6792.000000	64.707994 
6791.000000	64.477944 
6790.000000	64.239573 
6789.000000	64.009332 
6788.000000	63.796329 
6787.000000	63.602399 
6786.000000	63.424634 
6785.000000	63.258576 
6784.000000	63.103270 
6783.000000	62.960815 
6782.000000	62.841224 
6781.000000	62.758255 
6780.000000	62.729120 
6779.000000	62.766981 
6778.000000	62.878537 
6777.000000	63.059329 
6776.000000	63.292336 
6775.000000	63.550114 
6774.000000	63.797163 
6773.000000	63.997173 
6772.000000	64.117455 
6771.000000	64.135909 
6770.000000	64.042615 
6769.000000	63.841581 
6768.000000	63.550591 
6767.000000	63.198804 
6766.000000	62.824058 
6765.000000	62.468004 
6764.000000	62.172269 
6763.000000	61.972451 
6762.000000	61.893391 
6761.000000	61.945295 
6760.000000	62.120938 
6759.000000	62.397980 
6758.000000	62.740302 
6757.000000	63.107323 
6756.000000	63.456916 
6755.000000	63.757205 
6754.000000	63.989019 
6753.000000	64.149188 
6752.000000	64.249157 
6751.000000	64.306330 
6750.000000	64.338684 
6749.000000	64.355134 
6748.000000	64.356780 
6747.000000	64.331245 
6746.000000	64.259791 
6745.000000	64.122915 
6744.000000	63.911795 
6743.000000	63.630795 
6742.000000	63.300681 
6741.000000	62.956023 
6740.000000	62.638807 
6739.000000	62.389492 
6738.000000	62.237262 
6737.000000	62.194490 
6736.000000	62.252712 
6735.000000	62.382411 
6734.000000	62.539196 
6733.000000	62.674093 
6732.000000	62.744235 
6731.000000	62.719297 
6730.000000	62.590503 
6729.000000	62.368273 
6728.000000	62.083482 
6727.000000	61.776494 
6726.000000	61.493635 
6725.000000	61.273384 
6724.000000	61.146354 
6723.000000	61.130547 
6722.000000	61.231446 
6721.000000	61.442470 
6720.000000	61.747550 
6719.000000	62.122988 
6718.000000	62.541508 
6717.000000	62.972807 
6716.000000	63.389635 
6715.000000	63.768410 
6714.000000	64.092922 
6713.000000	64.353919 
6712.000000	64.551043 
6711.000000	64.690566 
6710.000000	64.785075 
6709.000000	64.849853 
6708.000000	64.899849 
6707.000000	64.946198 
6706.000000	64.997744 
6705.000000	65.058231 
6704.000000	65.128397 
6703.000000	65.204834 
6702.000000	65.282988 
6701.000000	65.356969 
6700.000000	65.420937 
6699.000000	65.471363 
6698.000000	65.505933 
6697.000000	65.527248 
6696.000000	65.543532 
6695.000000	65.565896 
6694.000000	65.608620 
6693.000000	65.679860 
6692.000000	65.780425 
6691.000000	65.897917 
6690.000000	66.009068 
6689.000000	66.084003 
6688.000000	66.094779 
6687.000000	66.021919 
6686.000000	65.860676 
6685.000000	65.624928 
6684.000000	65.344977 
6683.000000	65.060377 
6682.000000	64.810943 
6681.000000	64.628529 
6680.000000	64.529705 
6679.000000	64.512491 
6678.000000	64.558076 
6677.000000	64.639091 
6676.000000	64.725852 
6675.000000	64.793395 
6674.000000	64.826369 
6673.000000	64.819979 
6672.000000	64.779496 
6671.000000	64.712977 
6670.000000	64.630961 
6669.000000	64.542293 
6668.000000	64.452505 
6667.000000	64.364910 
6666.000000	64.278769 
6665.000000	64.191389 
6664.000000	64.099860 
6663.000000	64.002442 
6662.000000	63.902735 
6661.000000	63.809370 
6660.000000	63.736987 
6659.000000	63.702869 
6658.000000	63.723421 
6657.000000	63.808798 
6656.000000	63.960170 
6655.000000	64.166569 
6654.000000	64.404058 
6653.000000	64.638662 
6652.000000	64.834260 
6651.000000	64.958405 
6650.000000	64.987754 
6649.000000	64.913415 
6648.000000	64.743065 
6647.000000	64.500093 
6646.000000	64.217948 
6645.000000	63.935279 
6644.000000	63.687896 
6643.000000	63.504528 
6642.000000	63.404631 
6641.000000	63.394141 
6640.000000	63.468313 
6639.000000	63.610434 
6638.000000	63.795924 
6637.000000	63.995528 
6636.000000	64.178824 
6635.000000	64.321637 
6634.000000	64.407896 
6633.000000	64.436316 
6632.000000	64.418935 
6631.000000	64.381480 
6630.000000	64.356374 
6629.000000	64.378046 
6628.000000	64.473104 
6627.000000	64.654517 
6626.000000	64.915871 
6625.000000	65.232682 
6624.000000	65.565204 
6623.000000	65.867543 
6622.000000	66.096091 
6621.000000	66.218900 
6620.000000	66.221928 
6619.000000	66.112875 
6618.000000	65.916824 
6617.000000	65.670514 
6616.000000	65.412592 
6615.000000	65.176677 
6614.000000	64.983916 
6613.000000	64.842224 
6612.000000	64.747071 
6611.000000	64.687061 
6610.000000	64.650011 
6609.000000	64.628720 
6608.000000	64.623141 
6607.000000	64.639401 
6606.000000	64.686775 
6605.000000	64.772129 
6604.000000	64.897847 
6603.000000	65.058445 
6602.000000	65.240621 
6601.000000	65.424919 
6600.000000	65.590262 
6599.000000	65.717482 
6598.000000	65.793776 
6597.000000	65.813875 
6596.000000	65.782141 
6595.000000	65.708565 
6594.000000	65.607023 
6593.000000	65.488553 
6592.000000	65.361213 
6591.000000	65.225958 
6590.000000	65.079164 
6589.000000	64.914965 
6588.000000	64.729547 
6587.000000	64.525628 
6586.000000	64.313960 
6585.000000	64.113950 
6584.000000	63.948869 
6583.000000	63.843107 
6582.000000	63.815283 
6581.000000	63.874125 
6580.000000	64.014482 
6579.000000	64.218878 
6578.000000	64.459991 
6577.000000	64.707779 
6576.000000	64.934754 
6575.000000	65.120339 
6574.000000	65.252876 
6573.000000	65.328598 
6572.000000	65.349626 
6571.000000	65.320205 
6570.000000	65.245938 
6569.000000	65.134763 
6568.000000	64.996409 
6567.000000	64.844489 
6566.000000	64.694070 
6565.000000	64.562892 
6564.000000	64.466404 
6563.000000	64.415645 
6562.000000	64.414954 
6561.000000	64.460778 
6560.000000	64.543008 
6559.000000	64.647173 
6558.000000	64.757513 
6557.000000	64.859580 
6556.000000	64.943170 
6555.000000	65.003395 
6554.000000	65.039539 
6553.000000	65.052986 
6552.000000	65.047097 
6551.000000	65.025639 
6550.000000	64.991927 
6549.000000	64.947986 
6548.000000	64.896845 
6547.000000	64.841651 
6546.000000	64.784955 
6545.000000	64.727568 
6544.000000	64.667844 
6543.000000	64.601778 
6542.000000	64.524316 
6541.000000	64.430522 
6540.000000	64.317941 
6539.000000	64.187192 
6538.000000	64.041781 
6537.000000	63.888263 
6536.000000	63.735079 
6535.000000	63.591766 
6534.000000	63.465929 
6533.000000	63.364195 
6532.000000	63.289546 
6531.000000	63.244104 
6530.000000	63.227510 
6529.000000	63.240122 
6528.000000	63.281035 
6527.000000	63.352203 
6526.000000	63.456821 
6525.000000	63.598656 
6524.000000	63.778924 
6523.000000	63.996481 
6522.000000	64.245605 
6521.000000	64.515638 
6520.000000	64.791131 
6519.000000	65.052676 
6518.000000	65.280199 
6517.000000	65.457105 
6516.000000	65.573573 
6515.000000	65.629553 
6514.000000	65.634083 
6513.000000	65.605735 
6512.000000	65.565800 
6511.000000	65.535020 
6510.000000	65.526461 
6509.000000	65.545582 
6508.000000	65.586829 
6507.000000	65.639090 
6506.000000	65.685820 
6505.000000	65.712547 
6504.000000	65.707278 
6503.000000	65.664625 
6502.000000	65.584206 
6501.000000	65.470242 
6500.000000	65.329575 
6499.000000	65.169954 
6498.000000	65.000748 
6497.000000	64.832210 
6496.000000	64.677786 
6495.000000	64.553141 
6494.000000	64.474964 
6493.000000	64.457345 
6492.000000	64.507603 
6491.000000	64.623689 
6490.000000	64.790201 
6489.000000	64.982247 
6488.000000	65.171122 
6487.000000	65.329504 
6486.000000	65.438222 
6485.000000	65.487194 
6484.000000	65.477108 
6483.000000	65.414619 
6482.000000	65.310430 
6481.000000	65.173935 
6480.000000	65.011000 
6479.000000	64.824390 
6478.000000	64.617252 
6477.000000	64.394736 
6476.000000	64.166259 
6475.000000	63.947677 
6474.000000	63.760256 
6473.000000	63.627028 
6472.000000	63.567399 
6471.000000	63.592600 
6470.000000	63.701605 
6469.000000	63.880324 
6468.000000	64.103364 
6467.000000	64.338159 
6466.000000	64.551162 
6465.000000	64.713907 
6464.000000	64.809083 
6463.000000	64.831638 
6462.000000	64.791083 
6461.000000	64.708495 
6460.000000	64.612865 
6459.000000	64.535045 
6458.000000	64.501261 
6457.000000	64.528965 
6456.000000	64.623022 
6455.000000	64.775943 
6454.000000	64.970803 
6453.000000	65.186786 
6452.000000	65.403985 
6451.000000	65.606784 
6450.000000	65.788030 
6449.000000	65.948224 
6448.000000	66.093707 
6447.000000	66.232919 
6446.000000	66.370868 
6445.000000	66.505980 
6444.000000	66.628742 
6443.000000	66.723918 
6442.000000	66.772365 
6441.000000	66.756391 
6440.000000	66.665172 
6439.000000	66.498565 
6438.000000	66.267395 
6437.000000	65.992975 
6436.000000	65.703344 
6435.000000	65.429091 
6434.000000	65.199518 
6433.000000	65.036416 
6432.000000	64.952301 
6431.000000	64.945912 
6430.000000	65.004467 
6429.000000	65.103983 
6428.000000	65.213966 
6427.000000	65.303277 
6426.000000	65.344071 
6425.000000	65.319371 
6424.000000	65.223860 
6423.000000	65.066647 
6422.000000	64.867448 
6421.000000	64.652967 
6420.000000	64.450025 
6419.000000	64.281535 
6418.000000	64.162564 
6417.000000	64.097571 
6416.000000	64.081406 
6415.000000	64.103221 
6414.000000	64.151167 
6413.000000	64.214944 
6412.000000	64.288806 
6411.000000	64.372563 
6410.000000	64.470243 
6409.000000	64.585661 
6408.000000	64.719963 
6407.000000	64.868760 
6406.000000	65.022134 
6405.000000	65.166330 
6404.000000	65.286898 
6403.000000	65.371751 
6402.000000	65.415525 
6401.000000	65.422511 
6400.000000	65.405631 
6399.000000	65.383648 
6398.000000	65.376496 
6397.000000	65.401601 
6396.000000	65.467286 
6395.000000	65.571618 
6394.000000	65.701055 
6393.000000	65.835142 
6392.000000	65.949058 
6391.000000	66.020655 
6390.000000	66.034150 
6389.000000	65.984296 
6388.000000	65.875554 
6387.000000	65.720486 
6386.000000	65.536785 
6385.000000	65.343165 
6384.000000	65.154385 
6383.000000	64.979434 
6382.000000	64.822340 
6381.000000	64.683341 
6380.000000	64.561700 
6379.000000	64.457774 
6378.000000	64.373159 
6377.000000	64.311885 
6376.000000	64.278006 
6375.000000	64.275956 
6374.000000	64.303803 
6373.000000	64.358091 
6372.000000	64.433264 
6371.000000	64.523649 
6370.000000	64.623141 
6369.000000	64.726424 
6368.000000	64.829301 
6367.000000	64.926743 
6366.000000	65.012741 
6365.000000	65.078926 
6364.000000	65.115308 
6363.000000	65.113782 
6362.000000	65.070915 
6361.000000	64.992427 
6360.000000	64.893937 
6359.000000	64.800786 
6358.000000	64.742493 
6357.000000	64.746117 
6356.000000	64.828038 
6355.000000	64.990663 
6354.000000	65.218186 
6353.000000	65.479111 
6352.000000	65.730476 
6351.000000	65.929579 
6350.000000	66.039443 
6349.000000	66.036605 
6348.000000	65.914702 
6347.000000	65.684604 
6346.000000	65.372872 
6345.000000	65.014910 
6344.000000	64.651250 
6343.000000	64.320230 
6342.000000	64.054417 
6341.000000	63.877987 
6340.000000	63.802838 
6339.000000	63.829445 
6338.000000	63.945364 
6337.000000	64.128470 
6336.000000	64.348745 
6335.000000	64.572978 
6334.000000	64.772939 
6333.000000	64.929914 
6332.000000	65.038633 
6331.000000	65.106654 
6330.000000	65.151786 
6329.000000	65.195560 
6328.000000	65.257716 
6327.000000	65.348887 
6326.000000	65.468025 
6325.000000	65.601110 
6324.000000	65.727543 
6323.000000	65.823554 
6322.000000	65.871882 
6321.000000	65.863656 
6320.000000	65.802574 
6319.000000	65.701675 
6318.000000	65.580034 
6317.000000	65.457320 
6316.000000	65.348386 
6315.000000	65.261626 
6314.000000	65.199184 
6313.000000	65.157580 
6312.000000	65.132212 
6311.000000	65.116405 
6310.000000	65.104174 
6309.000000	65.090394 
6308.000000	65.071773 
6307.000000	65.048527 
6306.000000	65.024375 
6305.000000	65.006422 
6304.000000	65.003395 
6303.000000	65.026426 
6302.000000	65.084934 
6301.000000	65.182852 
6300.000000	65.315961 
6299.000000	65.471267 
6298.000000	65.628981 
6297.000000	65.765476 
6296.000000	65.859818 
6295.000000	65.899872 
6294.000000	65.883779 
6293.000000	65.823483 
6292.000000	65.736436 
6291.000000	65.641403 
6290.000000	65.550851 
6289.000000	65.468025 
6288.000000	65.386724 
6287.000000	65.294885 
6286.000000	65.180850 
6285.000000	65.040612 
6284.000000	64.878964 
6283.000000	64.710640 
6282.000000	64.554953 
6281.000000	64.430642 
6280.000000	64.348673 
6279.000000	64.309024 
6278.000000	64.299416 
6277.000000	64.299321 
6276.000000	64.287543 
6275.000000	64.248991 
6274.000000	64.179396 
6273.000000	64.087152 
6272.000000	63.988733 
6271.000000	63.906121 
6270.000000	63.856124 
6269.000000	63.850688 
6268.000000	63.893198 
6267.000000	63.980722 
6266.000000	64.105844 
6265.000000	64.258861 
6264.000000	64.431023 
6263.000000	64.613652 
6262.000000	64.797830 
6261.000000	64.973926 
6260.000000	65.130591 
6259.000000	65.256309 
6258.000000	65.341424 
6257.000000	65.378570 
6256.000000	65.364575 
6255.000000	65.302205 
6254.000000	65.201091 
6253.000000	65.073943 
6252.000000	64.934945 
6251.000000	64.797568 
6250.000000	64.672851 
6249.000000	64.568471 
6248.000000	64.488410 
6247.000000	64.435052 
6246.000000	64.408493 
6245.000000	64.406967 
6244.000000	64.426445 
6243.000000	64.459300 
6242.000000	64.496135 
6241.000000	64.526247 
6240.000000	64.540386 
6239.000000	64.531159 
6238.000000	64.496207 
6237.000000	64.437627 
6236.000000	64.363670 
6235.000000	64.285635 
6234.000000	64.218306 
6233.000000	64.176607 
6232.000000	64.173150 
6231.000000	64.215135 
6230.000000	64.303040 
6229.000000	64.430427 
6228.000000	64.584231 
6227.000000	64.746904 
6226.000000	64.899682 
6225.000000	65.026068 
6224.000000	65.114641 
6223.000000	65.160560 
6222.000000	65.165948 
6221.000000	65.137934 
6220.000000	65.087795 
6219.000000	65.026497 
6218.000000	64.962172 
6217.000000	64.897751 
6216.000000	64.832568 
6215.000000	64.762663 
6214.000000	64.684462 
6213.000000	64.596223 
6212.000000	64.500284 
6211.000000	64.403223 
6210.000000	64.314699 
6209.000000	64.245581 
6208.000000	64.203929 
6207.000000	64.194440 
6206.000000	64.215993 
6205.000000	64.263224 
6204.000000	64.327406 
6203.000000	64.398789 
6202.000000	64.468407 
6201.000000	64.529728 
6200.000000	64.579105 
6199.000000	64.615440 
6198.000000	64.639449 
6197.000000	64.652752 
6196.000000	64.657068 
6195.000000	64.654946 
6194.000000	64.649033 
6193.000000	64.643001 
6192.000000	64.639902 
6191.000000	64.642143 
6190.000000	64.649534 
6189.000000	64.659285 
6188.000000	64.665460 
6187.000000	64.659476 
6186.000000	64.633440 
6185.000000	64.581751 
6184.000000	64.505004 
6183.000000	64.409828 
6182.000000	64.309787 
6181.000000	64.222884 
6180.000000	64.166927 
6179.000000	64.154458 
6178.000000	64.189910 
6177.000000	64.267992 
6176.000000	64.375019 
6175.000000	64.492082 
6174.000000	64.600133 
6173.000000	64.684462 
6172.000000	64.738130 
6171.000000	64.762878 
6170.000000	64.767503 
6169.000000	64.764690 
6168.000000	64.766860 
6167.000000	64.782643 
6166.000000	64.815115 
6165.000000	64.860534 
6164.000000	64.910721 
6163.000000	64.954757 
6162.000000	64.983010 
6161.000000	64.989304 
6160.000000	64.971947 
6159.000000	64.935445 
6158.000000	64.887332 
6157.000000	64.839220 
6156.000000	64.804148 
6155.000000	64.794135 
6154.000000	64.818191 
6153.000000	64.879035 
6152.000000	64.972758 
6151.000000	65.088415 
6150.000000	65.209913 
6149.000000	65.319776 
6148.000000	65.402460 
6147.000000	65.448760 
6146.000000	65.457487 
6145.000000	65.435743 
6144.000000	65.396738 
6143.000000	65.356492 
6142.000000	65.329504 
6141.000000	65.326189 
6140.000000	65.350103 
6139.000000	65.398240 
6138.000000	65.461230 
6137.000000	65.527558 
6136.000000	65.584707 
6135.000000	65.623235 
6134.000000	65.636801 
6133.000000	65.622472 
6132.000000	65.580368 
6131.000000	65.512323 
6130.000000	65.422368 
6129.000000	65.316176 
6128.000000	65.200948 
6127.000000	65.085649 
6126.000000	64.979314 
6125.000000	64.890575 
6124.000000	64.826035 
6123.000000	64.788770 
6122.000000	64.779949 
6121.000000	64.799046 
6120.000000	64.844059 
6119.000000	64.911341 
6118.000000	64.996457 
6117.000000	65.093684 
6116.000000	65.195178 
6115.000000	65.291380 
6114.000000	65.372323 
6113.000000	65.429353 
6112.000000	65.456271 
6111.000000	65.451407 
6110.000000	65.418481 
6109.000000	65.366029 
6108.000000	65.306663 
6107.000000	65.253663 
6106.000000	65.219235 
6105.000000	65.210485 
6104.000000	65.229344 
6103.000000	65.270256 
6102.000000	65.323758 
6101.000000	65.376162 
6100.000000	65.414428 
6099.000000	65.426373 
6098.000000	65.402865 
6097.000000	65.339565 
6096.000000	65.237545 
6095.000000	65.103650 
6094.000000	64.948868 
6093.000000	64.788150 
6092.000000	64.637994 
6091.000000	64.512634 
6090.000000	64.421510 
6089.000000	64.367651 
6088.000000	64.347648 
6087.000000	64.352369 
6086.000000	64.369773 
6085.000000	64.387559 
6084.000000	64.396190 
6083.000000	64.389991 
6082.000000	64.368438 
6081.000000	64.334440 
6080.000000	64.293575 
6079.000000	64.251160 
6078.000000	64.211773 
6077.000000	64.177083 
6076.000000	64.147448 
6075.000000	64.122366 
6074.000000	64.102053 
6073.000000	64.088177 
6072.000000	64.084172 
6071.000000	64.093923 
6070.000000	64.121890 
6069.000000	64.170360 
6068.000000	64.240670 
6067.000000	64.331865 
6066.000000	64.441180 
6065.000000	64.564085 
6064.000000	64.694213 
6063.000000	64.824128 
6062.000000	64.946198 
6061.000000	65.053892 
6060.000000	65.143465 
6059.000000	65.214490 
6058.000000	65.270972 
6057.000000	65.319418 
6056.000000	65.367746 
6055.000000	65.421342 
6054.000000	65.482997 
6053.000000	65.549206 
6052.000000	65.611219 
6051.000000	65.656256 
6050.000000	65.672492 
6049.000000	65.651774 
6048.000000	65.592575 
6047.000000	65.501379 
6046.000000	65.393066 
6045.000000	65.286135 
6044.000000	65.198898 
6043.000000	65.144276 
6042.000000	65.126919 
6041.000000	65.142464 
6040.000000	65.179181 
6039.000000	65.221405 
6038.000000	65.253973 
6037.000000	65.264987 
6036.000000	65.248298 
6035.000000	65.202641 
6034.000000	65.131163 
6033.000000	65.039443 
6032.000000	64.934802 
6031.000000	64.823174 
6030.000000	64.710974 
6029.000000	64.605832 
6028.000000	64.518213 
6027.000000	64.459824 
6026.000000	64.443612 
6025.000000	64.481949 
6024.000000	64.582777 
6023.000000	64.745688 
6022.000000	64.960646 
6021.000000	65.207695 
6020.000000	65.460348 
6019.000000	65.688920 
6018.000000	65.867686 
6017.000000	65.979599 
6016.000000	66.020441 
6015.000000	65.999579 
6014.000000	65.936493 
6013.000000	65.855598 
6012.000000	65.780758 
6011.000000	65.730309 
6010.000000	65.712022 
6009.000000	65.722441 
6008.000000	65.749478 
6007.000000	65.776348 
6006.000000	65.786695 
6005.000000	65.768671 
6004.000000	65.717363 
6003.000000	65.635585 
6002.000000	65.530681 
6001.000000	65.412998 
6000.000000	65.292668 
5999.000000	65.177679 
5998.000000	65.072488 
5997.000000	64.978623 
5996.000000	64.896249 
5995.000000	64.825248 
5994.000000	64.766502 
5993.000000	64.722657 
5992.000000	64.695358 
5991.000000	64.687848 
5990.000000	64.703106 
5989.000000	64.743757 
5988.000000	64.808964 
5987.000000	64.897418 
5986.000000	65.007066 
5985.000000	65.133213 
5984.000000	65.267992 
5983.000000	65.400648 
5982.000000	65.518712 
5981.000000	65.608716 
5980.000000	65.659618 
5979.000000	65.665698 
5978.000000	65.629172 
5977.000000	65.561604 
5976.000000	65.482068 
5975.000000	65.413856 
5974.000000	65.378260 
5973.000000	65.391302 
5972.000000	65.457153 
5971.000000	65.567779 
5970.000000	65.702605 
5969.000000	65.835809 
5968.000000	65.939354 
5967.000000	65.990924 
5966.000000	65.976357 
5965.000000	65.894556 
5964.000000	65.753650 
5963.000000	65.568280 
5962.000000	65.355348 
5961.000000	65.130424 
5960.000000	64.905571 
5959.000000	64.688992 
5958.000000	64.486217 
5957.000000	64.302206 
5956.000000	64.140892 
5955.000000	64.006495 
5954.000000	63.901996 
5953.000000	63.829278 
5952.000000	63.787961 
5951.000000	63.776564 
5950.000000	63.791251 
5949.000000	63.828444 
5948.000000	63.885760 
5947.000000	63.962745 
5946.000000	64.058732 
5945.000000	64.172530 
5944.000000	64.300489 
5943.000000	64.436244 
5942.000000	64.569187 
5941.000000	64.687800 
5940.000000	64.781403 
5939.000000	64.843058 
5938.000000	64.871883 
5937.000000	64.872598 
5936.000000	64.854812 
5935.000000	64.830398 
5934.000000	64.811038 
5933.000000	64.805817 
5932.000000	64.819645 
5931.000000	64.854764 
5930.000000	64.911842 
5929.000000	64.990139 
5928.000000	65.087771 
5927.000000	65.202903 
5926.000000	65.332341 
5925.000000	65.468716 
5924.000000	65.599894 
5923.000000	65.709924 
5922.000000	65.781164 
5921.000000	65.797781 
5920.000000	65.749073 
5919.000000	65.633821 
5918.000000	65.460109 
5917.000000	65.245628 
5916.000000	65.013504 
5915.000000	64.787769 
5914.000000	64.589786 
5913.000000	64.435100 
5912.000000	64.332175 
5911.000000	64.281415 
5910.000000	64.278316 
5909.000000	64.315748 
5908.000000	64.385724 
5907.000000	64.479541 
5906.000000	64.589977 
5905.000000	64.710283 
5904.000000	64.834356 
5903.000000	64.955401 
5902.000000	65.067696 
5901.000000	65.166187 
5900.000000	65.248632 
5899.000000	65.314817 
5898.000000	65.366721 
5897.000000	65.406298 
5896.000000	65.435361 
5895.000000	65.453410 
5894.000000	65.457844 
5893.000000	65.444159 
5892.000000	65.407896 
5891.000000	65.346360 
5890.000000	65.261697 
5889.000000	65.159845 
5888.000000	65.051674 
5887.000000	64.948701 
5886.000000	64.861035 
5885.000000	64.794230 
5884.000000	64.748334 
5883.000000	64.718174 
5882.000000	64.694976 
5881.000000	64.670228 
5880.000000	64.638376 
5879.000000	64.599227 
5878.000000	64.557695 
5877.000000	64.522933 
5876.000000	64.505195 
5875.000000	64.513921 
5874.000000	64.554643 
5873.000000	64.627814 
5872.000000	64.728188 
5871.000000	64.847016 
5870.000000	64.973115 
5869.000000	65.095305 
5868.000000	65.203213 
5867.000000	65.288257 
5866.000000	65.344357 
5865.000000	65.367817 
5864.000000	65.357947 
5863.000000	65.317773 
5862.000000	65.252971 
5861.000000	65.173172 
5860.000000	65.087866 
5859.000000	65.005612 
5858.000000	64.931774 
5857.000000	64.868474 
5856.000000	64.814758 
5855.000000	64.767742 
5854.000000	64.725375 
5853.000000	64.687728 
5852.000000	64.658570 
5851.000000	64.644193 
5850.000000	64.651632 
5849.000000	64.686012 
5848.000000	64.748454 
5847.000000	64.834833 
5846.000000	64.935755 
5845.000000	65.038466 
5844.000000	65.130519 
5843.000000	65.202236 
5842.000000	65.249538 
5841.000000	65.273761 
5840.000000	65.279984 
5839.000000	65.275382 
5838.000000	65.265727 
5837.000000	65.254950 
5836.000000	65.245437 
5835.000000	65.238118 
5834.000000	65.234446 
5833.000000	65.235757 
5832.000000	65.245342 
5831.000000	65.265178 
5830.000000	65.296220 
5829.000000	65.335655 
5828.000000	65.377283 
5827.000000	65.411758 
5826.000000	65.428853 
5825.000000	65.419363 
5824.000000	65.377736 
5823.000000	65.303754 
5822.000000	65.203285 
5821.000000	65.086698 
5820.000000	64.967226 
5819.000000	64.857602 
5818.000000	64.768195 
5817.000000	64.706349 
5816.000000	64.675760 
5815.000000	64.676737 
5814.000000	64.706420 
5813.000000	64.759922 
5812.000000	64.829993 
5811.000000	64.907073 
5810.000000	64.979767 
5809.000000	65.036129 
5808.000000	65.064859 
5807.000000	65.056967 
5806.000000	65.007734 
5805.000000	64.916992 
5804.000000	64.790916 
5803.000000	64.641404 
5802.000000	64.484763 
5801.000000	64.338898 
5800.000000	64.220333 
5799.000000	64.141774 
5798.000000	64.108777 
5797.000000	64.119267 
5796.000000	64.163589 
5795.000000	64.226841 
5794.000000	64.291310 
5793.000000	64.340400 
5792.000000	64.361858 
5791.000000	64.350414 
5790.000000	64.308047 
5789.000000	64.242863 
5788.000000	64.167380 
5787.000000	64.094948 
5786.000000	64.035773 
5785.000000	63.995313 
5784.000000	63.973498 
5783.000000	63.966536 
5782.000000	63.969063 
5781.000000	63.977122 
5780.000000	63.989543 
5779.000000	64.008903 
5778.000000	64.040017 
5777.000000	64.088129 
5776.000000	64.155483 
5775.000000	64.240312 
5774.000000	64.335680 
5773.000000	64.431262 
5772.000000	64.515137 
5771.000000	64.578247 
5770.000000	64.616632 
5769.000000	64.633154 
5768.000000	64.636754 
5767.000000	64.639878 
5766.000000	64.654827 
5765.000000	64.690423 
5764.000000	64.749383 
5763.000000	64.828324 
5762.000000	64.917993 
5761.000000	65.006732 
5760.000000	65.082311 
5759.000000	65.134739 
5758.000000	65.157818 
5757.000000	65.150141 
5756.000000	65.115141 
5755.000000	65.059256 
5754.000000	64.991354 
5753.000000	64.922237 
5752.000000	64.861226 
5751.000000	64.816188 
5750.000000	64.790129 
5749.000000	64.782953 
5748.000000	64.788460 
5747.000000	64.796662 
5746.000000	64.794635 
5745.000000	64.769315 
5744.000000	64.711380 
5743.000000	64.617872 
5742.000000	64.493799 
5741.000000	64.351034 
5740.000000	64.207005 
5739.000000	64.080786 
5738.000000	63.988327 
5737.000000	63.939070 
5736.000000	63.934755 
5735.000000	63.970017 
5734.000000	64.033746 
5733.000000	64.113163 
5732.000000	64.196300 
5731.000000	64.275884 
5730.000000	64.348888 
5729.000000	64.417934 
5728.000000	64.487791 
5727.000000	64.564394 
5726.000000	64.651441 
5725.000000	64.748954 
5724.000000	64.852833 
5723.000000	64.955019 
5722.000000	65.046834 
5721.000000	65.118980 
5720.000000	65.164756 
5719.000000	65.180206 
5718.000000	65.165829 
5717.000000	65.125036 
5716.000000	65.063428 
5715.000000	64.987540 
5714.000000	64.903974 
5713.000000	64.818191 
5712.000000	64.734482 
5711.000000	64.656043 
5710.000000	64.585733 
5709.000000	64.526367 
5708.000000	64.481520 
5707.000000	64.455151 
5706.000000	64.451885 
5705.000000	64.475131 
5704.000000	64.527201 
5703.000000	64.607357 
5702.000000	64.712166 
5701.000000	64.835953 
5700.000000	64.970779 
5699.000000	65.106654 
5698.000000	65.232920 
5697.000000	65.339803 
5696.000000	65.419292 
5695.000000	65.465879 
5694.000000	65.477895 
5693.000000	65.458369 
5692.000000	65.413951 
5691.000000	65.354418 
5690.000000	65.289926 
5689.000000	65.230035 
5688.000000	65.180945 
5687.000000	65.145397 
5686.000000	65.121698 
5685.000000	65.105342 
5684.000000	65.090990 
5683.000000	65.074372 
5682.000000	65.053439 
5681.000000	65.029025 
5680.000000	65.004682 
5679.000000	64.984941 
5678.000000	64.973449 
5677.000000	64.971137 
5676.000000	64.975357 
5675.000000	64.980316 
5674.000000	64.978981 
5673.000000	64.964723 
5672.000000	64.933633 
5671.000000	64.885354 
5670.000000	64.823007 
5669.000000	64.752650 
5668.000000	64.681172 
5667.000000	64.615416 
5666.000000	64.560604 
5665.000000	64.519929 
5664.000000	64.493989 
5663.000000	64.481806 
5662.000000	64.481425 
5661.000000	64.491033 
5660.000000	64.509296 
5659.000000	64.536190 
5658.000000	64.572310 
5657.000000	64.618492 
5656.000000	64.674448 
5655.000000	64.738059 
5654.000000	64.804601 
5653.000000	64.867162 
5652.000000	64.917325 
5651.000000	64.946627 
5650.000000	64.948868 
5649.000000	64.921760 
5648.000000	64.868402 
5647.000000	64.797019 
5646.000000	64.720034 
5645.000000	64.652228 
5644.000000	64.607548 
5643.000000	64.596033 
5642.000000	64.621806 
5641.000000	64.682126 
5640.000000	64.768362 
5639.000000	64.868092 
5638.000000	64.967966 
5637.000000	65.056562 
5636.000000	65.125679 
5635.000000	65.171241 
5634.000000	65.192890 
5633.000000	65.192866 
5632.000000	65.174436 
5631.000000	65.140628 
5630.000000	65.093636 
5629.000000	65.034985 
5628.000000	64.966726 
5627.000000	64.892172 
5626.000000	64.816331 
5625.000000	64.746212 
5624.000000	64.690136 
5623.000000	64.656209 
5622.000000	64.650344 
5621.000000	64.674639 
5620.000000	64.726281 
5619.000000	64.797449 
5618.000000	64.876818 
5617.000000	64.951300 
5616.000000	65.008282 
5615.000000	65.038895 
5614.000000	65.038919 
5613.000000	65.010857 
5612.000000	64.962244 
5611.000000	64.905023 
5610.000000	64.852523 
5609.000000	64.816284 
5608.000000	64.803552 
5607.000000	64.815497 
5606.000000	64.847469 
5605.000000	64.889407 
5604.000000	64.928722 
5603.000000	64.952301 
5602.000000	64.950037 
5601.000000	64.916682 
5600.000000	64.853692 
5599.000000	64.768123 
5598.000000	64.672327 
5597.000000	64.581203 
5596.000000	64.510107 
5595.000000	64.471721 
5594.000000	64.473772 
5593.000000	64.518666 
5592.000000	64.602088 
5591.000000	64.714169 
5590.000000	64.840888 
5589.000000	64.965963 
5588.000000	65.074634 
5587.000000	65.154480 
5586.000000	65.200090 
5585.000000	65.212821 
5584.000000	65.201616 
5583.000000	65.180158 
5582.000000	65.163683 
5581.000000	65.165257 
5580.000000	65.192246 
5579.000000	65.244960 
5578.000000	65.315604 
5577.000000	65.390563 
5576.000000	65.454030 
5575.000000	65.491914 
5574.000000	65.494894 
5573.000000	65.459966 
5572.000000	65.391397 
5571.000000	65.298414 
5570.000000	65.192413 
5569.000000	65.084028 
5568.000000	64.980816 
5567.000000	64.886474 
5566.000000	64.801740 
5565.000000	64.725327 
5564.000000	64.656043 
5563.000000	64.594125 
5562.000000	64.541506 
5561.000000	64.502191 
5560.000000	64.478969 
5559.000000	64.475131 
5558.000000	64.492154 
5557.000000	64.530301 
5556.000000	64.586949 
5555.000000	64.657831 
5554.000000	64.737153 
5553.000000	64.818692 
5552.000000	64.896583 
5551.000000	64.966225 
5550.000000	65.024900 
5549.000000	65.072464 
5548.000000	65.110898 
5547.000000	65.144062 
5546.000000	65.175676 
5545.000000	65.209317 
5544.000000	65.245795 
5543.000000	65.283870 
5542.000000	65.318512 
5541.000000	65.343022 
5540.000000	65.349006 
5539.000000	65.329098 
5538.000000	65.277886 
5537.000000	65.194582 
5536.000000	65.082764 
5535.000000	64.949417 
5534.000000	64.805483 
5533.000000	64.663219 
5532.000000	64.536547 
5531.000000	64.438414 
5530.000000	64.380145 
5529.000000	64.369392 
5528.000000	64.409065 
5527.000000	64.496350 
5526.000000	64.622449 
5525.000000	64.773464 
5524.000000	64.933204 
5523.000000	65.085673 
5522.000000	65.217041 
5521.000000	65.317177 
5520.000000	65.380835 
5519.000000	65.407371 
5518.000000	65.399861 
5517.000000	65.363645 
5516.000000	65.305161 
5515.000000	65.230679 
5514.000000	65.147376 
5513.000000	65.061759 
5512.000000	64.980530 
5511.000000	64.909100 
5510.000000	64.852881 
5509.000000	64.815211 
5508.000000	64.796829 
5507.000000	64.796257 
5506.000000	64.809131 
5505.000000	64.830493 
5504.000000	64.855337 
5503.000000	64.879918 
5502.000000	64.902305 
5501.000000	64.921283 
5500.000000	64.935803 
5499.000000	64.943385 
5498.000000	64.940023 
5497.000000	64.921641 
5496.000000	64.885663 
5495.000000	64.832139 
5494.000000	64.765143 
5493.000000	64.694023 
5492.000000	64.632439 
5491.000000	64.594984 
5490.000000	64.594697 
5489.000000	64.639830 
5488.000000	64.731740 
5487.000000	64.864397 
5486.000000	65.024614 
5485.000000	65.194320 
5484.000000	65.354275 
5483.000000	65.488147 
5482.000000	65.584659 
5481.000000	65.638852 
5480.000000	65.651798 
5479.000000	65.630125 
5478.000000	65.582370 
5477.000000	65.517950 
5476.000000	65.443277 
5475.000000	65.362524 
5474.000000	65.275216 
5473.000000	65.179085 
5472.000000	65.069746 
5471.000000	64.943957 
5470.000000	64.800548 
5469.000000	64.642453 
5468.000000	64.476180 
5467.000000	64.311885 
5466.000000	64.161586 
5465.000000	64.038252 
5464.000000	63.952755 
5463.000000	63.913655 
5462.000000	63.924980 
5461.000000	63.986945 
5460.000000	64.095139 
5459.000000	64.241743 
5458.000000	64.415311 
5457.000000	64.602351 
5456.000000	64.787793 
5455.000000	64.956545 
5454.000000	65.094995 
5453.000000	65.191650 
5452.000000	65.238642 
5451.000000	65.232133 
5450.000000	65.173864 
5449.000000	65.070080 
5448.000000	64.932036 
5447.000000	64.773178 
5446.000000	64.608192 
5445.000000	64.450836 
5444.000000	64.313149 
5443.000000	64.203190 
5442.000000	64.124917 
5441.000000	64.078640 
5440.000000	64.062428 
5439.000000	64.071917 
5438.000000	64.102768 
5437.000000	64.150834 
5436.000000	64.213752 
5435.000000	64.290070 
5434.000000	64.379024 
5433.000000	64.479422 
5432.000000	64.588451 
5431.000000	64.700222 
5430.000000	64.806199 
5429.000000	64.895987 
5428.000000	64.959549 
5427.000000	64.989757 
5426.000000	64.983916 
5425.000000	64.945244 
5424.000000	64.881968 
5423.000000	64.806890 
5422.000000	64.733362 
5421.000000	64.672732 
5420.000000	64.632415 
5419.000000	64.615345 
5418.000000	64.619469 
5417.000000	64.639472 
5416.000000	64.669179 
5415.000000	64.703607 
5414.000000	64.740180 
5413.000000	64.778733 
5412.000000	64.819908 
5411.000000	64.863991 
5410.000000	64.909839 
5409.000000	64.954471 
5408.000000	64.993023 
5407.000000	65.020465 
5406.000000	65.033864 
5405.000000	65.033125 
5404.000000	65.022039 
5403.000000	65.007114 
5402.000000	64.996027 
5401.000000	64.995431 
5400.000000	65.010404 
5399.000000	65.041041 
5398.000000	65.083026 
5397.000000	65.127015 
5396.000000	65.162611 
5395.000000	65.177798 
5394.000000	65.162396 
5393.000000	65.108752 
5392.000000	65.013909 
5391.000000	64.879846 
5390.000000	64.713764 
5389.000000	64.527010 
5388.000000	64.333915 
5387.000000	64.151501 
5386.000000	63.997960 
5385.000000	63.889622 
5384.000000	63.839197 
5383.000000	63.854050 
5382.000000	63.935017 
5381.000000	64.075517 
5380.000000	64.261865 
5379.000000	64.474296 
5378.000000	64.689373 
5377.000000	64.884185 
5376.000000	65.037751 
5375.000000	65.134406 
5374.000000	65.163898 
5373.000000	65.122699 
5372.000000	65.013027 
5371.000000	64.843750 
5370.000000	64.627385 
5369.000000	64.379787 
5368.000000	64.118814 
5367.000000	63.863468 
5366.000000	63.633465 
5365.000000	63.448095 
5364.000000	63.324570 
5363.000000	63.275337 
5362.000000	63.309192 
5361.000000	63.429355 
5360.000000	63.632154 
5359.000000	63.906002 
5358.000000	64.232563 
5357.000000	64.586901 
5356.000000	64.940118 
5355.000000	65.261101 
5354.000000	65.518355 
5353.000000	65.685129 
5352.000000	65.743303 
5351.000000	65.688133 
5350.000000	65.529966 
5349.000000	65.294623 
5348.000000	65.021920 
5347.000000	64.756917 
5346.000000	64.544105 
5345.000000	64.415788 
5344.000000	64.389729 
5343.000000	64.461016 
5342.000000	64.607405 
5341.000000	64.789605 
5340.000000	64.961743 
5339.000000	65.079021 
5338.000000	65.107941 
5337.000000	65.030980 
5336.000000	64.849138 
5335.000000	64.581227 
5334.000000	64.259004 
5333.000000	63.921928 
5332.000000	63.609528 
5331.000000	63.356018 
5330.000000	63.185000 
5329.000000	63.106322 
5328.000000	63.116765 
5327.000000	63.202428 
5326.000000	63.344669 
5325.000000	63.519334 
5324.000000	63.707709 
5323.000000	63.896512 
5322.000000	64.083123 
5321.000000	64.273858 
5320.000000	64.477610 
5319.000000	64.699602 
5318.000000	64.933943 
5317.000000	65.167260 
5316.000000	65.370202 
5315.000000	65.503907 
5314.000000	65.527796 
5313.000000	65.412712 
5312.000000	65.148663 
5311.000000	64.751338 
5310.000000	64.263343 
5309.000000	63.747525 
5308.000000	63.275313 
5307.000000	62.911486 
5306.000000	62.698245 
5305.000000	62.645506 
5304.000000	62.729048 
5303.000000	62.897729 
5302.000000	63.082790 
5301.000000	63.219857 
5300.000000	63.259148 
5299.000000	63.187623 
5298.000000	63.022756 
5297.000000	62.821817 
5296.000000	62.662124 
5295.000000	62.630319 
5294.000000	62.796998 
5293.000000	63.201522 
5292.000000	63.841962 
5291.000000	64.670419 
5290.000000	65.603852 
5289.000000	66.537666 
5288.000000	67.369604 
5287.000000	68.016743 
5286.000000	68.432068 
5285.000000	68.607187 
5284.000000	68.569588 
5283.000000	68.369746 
5282.000000	68.067121 
5281.000000	67.713212 
5280.000000	67.342185 
5279.000000	66.969275 
5278.000000	66.594576 
5277.000000	66.210508 
5276.000000	65.811657 
5275.000000	65.404772 
5274.000000	65.011000 
5273.000000	64.660167 
5272.000000	64.386105 
5271.000000	64.211988 
5270.000000	64.149260 
5269.000000	64.190435 
5268.000000	64.314889 
5267.000000	64.488697 
5266.000000	64.677715 
5265.000000	64.853239 
5264.000000	64.999365 
5263.000000	65.110778 
5262.000000	65.194749 
5261.000000	65.264916 
5260.000000	65.334916 
5259.000000	65.411210 
5258.000000	65.491557 
5257.000000	65.566587 
5256.000000	65.619778 
5255.000000	65.633225 
5254.000000	65.594458 
5253.000000	65.501952 
5252.000000	65.365624 
5251.000000	65.206098 
5250.000000	65.048050 
5249.000000	64.915180 
5248.000000	64.826536 
5247.000000	64.791965 
5246.000000	64.810061 
5245.000000	64.869141 
5244.000000	64.953303 
5243.000000	65.043735 
5242.000000	65.121841 
5241.000000	65.172410 
5240.000000	65.185832 
5239.000000	65.158677 
5238.000000	65.091657 
5237.000000	64.991164 
5236.000000	64.866375 
5235.000000	64.729952 
5234.000000	64.596772 
5233.000000	64.481329 
5232.000000	64.395785 
5231.000000	64.348006 
5230.000000	64.341259 
5229.000000	64.372396 
5228.000000	64.432716 
5227.000000	64.511013 
5226.000000	64.595866 
5225.000000	64.677643 
5224.000000	64.749956 
5223.000000	64.809274 
5222.000000	64.855217 
5221.000000	64.888453 
5220.000000	64.911079 
5219.000000	64.925837 
5218.000000	64.936208 
5217.000000	64.947724 
5216.000000	64.965629 
5215.000000	64.994859 
5214.000000	65.037083 
5213.000000	65.091156 
5212.000000	65.151500 
5211.000000	65.209913 
5210.000000	65.255904 
5209.000000	65.279936 
5208.000000	65.274572 
5207.000000	65.237021 
5206.000000	65.168809 
5205.000000	65.076518 
5204.000000	64.968252 
5203.000000	64.852190 
5202.000000	64.734935 
5201.000000	64.621090 
5200.000000	64.513683 
5199.000000	64.415192 
5198.000000	64.329075 
5197.000000	64.260196 
5196.000000	64.213705 
5195.000000	64.194154 
5194.000000	64.202761 
5193.000000	64.237165 
5192.000000	64.291191 
5191.000000	64.356088 
5190.000000	64.421749 
5189.000000	64.478969 
5188.000000	64.520168 
5187.000000	64.541530 
5186.000000	64.542508 
5185.000000	64.526557 
5184.000000	64.500141 
5183.000000	64.471197 
5182.000000	64.447498 
5181.000000	64.434528 
5180.000000	64.434862 
5179.000000	64.447307 
5178.000000	64.467620 
5177.000000	64.489984 
5176.000000	64.509010 
5175.000000	64.521217 
5174.000000	64.526081 
5173.000000	64.526128 
5172.000000	64.525794 
5171.000000	64.530372 
5170.000000	64.544463 
5169.000000	64.569592 
5168.000000	64.604330 
5167.000000	64.644956 
5166.000000	64.687323 
5165.000000	64.728713 
5164.000000	64.768624 
5163.000000	64.810085 
5162.000000	64.856958 
5161.000000	64.912128 
5160.000000	64.974832 
5159.000000	65.039610 
5158.000000	65.096902 
5157.000000	65.135574 
5156.000000	65.145277 
5155.000000	65.120697 
5154.000000	65.061879 
5153.000000	64.975166 
5152.000000	64.871406 
5151.000000	64.763927 
5150.000000	64.665246 
5149.000000	64.584946 
5148.000000	64.528226 
5147.000000	64.495825 
5146.000000	64.485239 
5145.000000	64.492344 
5144.000000	64.512515 
5143.000000	64.541983 
5142.000000	64.577794 
5141.000000	64.618110 
5140.000000	64.660716 
5139.000000	64.703440 
5138.000000	64.744114 
5137.000000	64.780807 
5136.000000	64.812135 
5135.000000	64.837503 
5134.000000	64.857244 
5133.000000	64.872264 
5132.000000	64.883422 
5131.000000	64.891958 
5130.000000	64.899468 
5129.000000	64.907932 
5128.000000	64.920067 
5127.000000	64.938044 
5126.000000	64.963436 
5125.000000	64.995908 
5124.000000	65.033435 
5123.000000	65.071845 
5122.000000	65.105772 
5121.000000	65.129852 
5120.000000	65.140104 
5119.000000	65.135049 
5118.000000	65.116357 
5117.000000	65.088820 
5116.000000	65.059256 
5115.000000	65.034723 
5114.000000	65.020418 
5113.000000	65.018200 
5112.000000	65.025830 
5111.000000	65.037512 
5110.000000	65.045595 
5109.000000	65.042519 
5108.000000	65.023708 
5107.000000	64.988327 
5106.000000	64.941024 
5105.000000	64.890027 
5104.000000	64.846420 
5103.000000	64.821219 
5102.000000	64.822697 
5101.000000	64.854383 
5100.000000	64.914035 
5099.000000	64.994215 
5098.000000	65.083479 
5097.000000	65.168929 
5096.000000	65.238404 
5095.000000	65.283179 
5094.000000	65.298819 
5093.000000	65.285682 
5092.000000	65.247988 
5091.000000	65.192508 
5090.000000	65.126800 
5089.000000	65.057992 
5088.000000	64.991879 
5087.000000	64.932847 
5086.000000	64.884185 
5085.000000	64.848494 
5084.000000	64.828062 
5083.000000	64.825177 
5082.000000	64.841294 
5081.000000	64.876866 
5080.000000	64.930319 
5079.000000	64.997529 
5078.000000	65.071654 
5077.000000	65.143895 
5076.000000	65.204596 
5075.000000	65.245079 
5074.000000	65.259099 
5073.000000	65.244531 
5072.000000	65.203857 
5071.000000	65.144109 
5070.000000	65.075349 
5069.000000	65.008974 
5068.000000	64.955639 
5067.000000	64.922595 
5066.000000	64.912462 
5065.000000	64.923334 
5064.000000	64.949584 
5063.000000	64.983081 
5062.000000	65.015149 
5061.000000	65.038704 
5060.000000	65.049695 
5059.000000	65.047478 
5058.000000	65.034747 
5057.000000	65.016126 
5056.000000	64.996623 
5055.000000	64.980840 
5054.000000	64.971375 
5053.000000	64.968490 
5052.000000	64.970231 
5051.000000	64.973759 
5050.000000	64.975810 
5049.000000	64.973998 
5048.000000	64.966773 
5047.000000	64.954257 
5046.000000	64.937067 
5045.000000	64.915943 
5044.000000	64.890789 
5043.000000	64.860510 
5042.000000	64.822912 
5041.000000	64.775538 
5040.000000	64.716362 
5039.000000	64.644980 
5038.000000	64.563274 
5037.000000	64.475774 
5036.000000	64.389133 
5035.000000	64.311122 
5034.000000	64.248895 
5033.000000	64.207816 
5032.000000	64.190268 
5031.000000	64.195632 
5030.000000	64.220571 
5029.000000	64.260435 
5028.000000	64.309453 
5027.000000	64.363026 
5026.000000	64.417386 
5025.000000	64.471006 
5024.000000	64.523196 
5023.000000	64.574742 
5022.000000	64.626455 
5021.000000	64.679169 
5020.000000	64.733529 
5019.000000	64.788770 
5018.000000	64.842915 
5017.000000	64.892101 
5016.000000	64.932274 
5015.000000	64.958286 
5014.000000	64.965534 
5013.000000	64.950585 
5012.000000	64.912629 
5011.000000	64.854025 
5010.000000	64.780473 
5009.000000	64.700841 
5008.000000	64.625930 
5007.000000	64.566779 
5006.000000	64.532327 
5005.000000	64.527893 
5004.000000	64.553403 
5003.000000	64.603185 
5002.000000	64.667201 
5001.000000	64.732575 
5000.000000	64.787077 
4999.000000	64.821124 
4998.000000	64.831066 
4997.000000	64.818525 
4996.000000	64.791750 
4995.000000	64.762878 
4994.000000	64.745640 
4993.000000	64.751768 
4992.000000	64.787840 
4991.000000	64.854168 
4990.000000	64.943742 
4989.000000	65.044617 
4988.000000	65.142107 
4987.000000	65.222787 
4986.000000	65.276551 
4985.000000	65.298748 
4984.000000	65.290021 
4983.000000	65.255308 
4982.000000	65.201687 
4981.000000	65.136742 
4980.000000	65.067410 
4979.000000	64.998888 
4978.000000	64.935231 
4977.000000	64.878964 
4976.000000	64.831876 
4975.000000	64.795041 
4974.000000	64.769005 
4973.000000	64.753890 
4972.000000	64.748525 
4971.000000	64.751553 
4970.000000	64.760613 
4969.000000	64.773774 
4968.000000	64.789891 
4967.000000	64.808773 
4966.000000	64.830803 
4965.000000	64.856386 
4964.000000	64.885115 
4963.000000	64.915394 
4962.000000	64.944267 
4961.000000	64.968204 
4960.000000	64.984202 
4959.000000	64.990353 
4958.000000	64.986681 
4957.000000	64.974117 
4956.000000	64.954185 
4955.000000	64.927601 
4954.000000	64.894247 
4953.000000	64.853072 
4952.000000	64.803338 
4951.000000	64.745402 
4950.000000	64.682006 
4949.000000	64.618563 
4948.000000	64.562654 
4947.000000	64.522552 
4946.000000	64.505457 
4945.000000	64.515185 
4944.000000	64.551305 
4943.000000	64.608025 
4942.000000	64.676451 
4941.000000	64.746332 
4940.000000	64.808726 
4939.000000	64.857459 
4938.000000	64.890575 
4937.000000	64.909601 
4936.000000	64.918994 
4935.000000	64.923834 
4934.000000	64.929103 
4933.000000	64.938092 
4932.000000	64.952421 
4931.000000	64.972090 
4930.000000	64.995837 
4929.000000	65.021872 
4928.000000	65.048003 
4927.000000	65.072083 
4926.000000	65.092039 
4925.000000	65.105962 
4924.000000	65.112280 
4923.000000	65.109562 
4922.000000	65.096712 
4921.000000	65.072774 
4920.000000	65.038132 
4919.000000	64.993476 
4918.000000	64.939761 
4917.000000	64.878201 
4916.000000	64.810442 
4915.000000	64.739012 
4914.000000	64.667272 
4913.000000	64.599919 
4912.000000	64.542341 
4911.000000	64.500474 
4910.000000	64.479899 
4909.000000	64.483976 
4908.000000	64.512729 
4907.000000	64.562344 
4906.000000	64.625310 
4905.000000	64.691329 
4904.000000	64.749145 
4903.000000	64.788675 
4902.000000	64.802861 
4901.000000	64.789342 
4900.000000	64.750838 
4899.000000	64.694547 
4898.000000	64.630627 
4897.000000	64.569854 
4896.000000	64.521837 
4895.000000	64.493632 
4894.000000	64.488458 
4893.000000	64.505958 
4892.000000	64.542102 
4891.000000	64.590668 
4890.000000	64.643788 
4889.000000	64.693570 
4888.000000	64.733242 
4887.000000	64.756917 
4886.000000	64.761400 
4885.000000	64.745879 
4884.000000	64.712738 
4883.000000	64.666366 
4882.000000	64.613628 
4881.000000	64.562678 
4880.000000	64.521956 
4879.000000	64.498662 
4878.000000	64.497494 
4877.000000	64.520001 
4876.000000	64.563989 
4875.000000	64.623951 
4874.000000	64.691638 
4873.000000	64.757490 
4872.000000	64.812064 
4871.000000	64.847803 
4870.000000	64.859914 
4869.000000	64.847445 
4868.000000	64.813041 
4867.000000	64.762878 
4866.000000	64.705514 
4865.000000	64.650487 
4864.000000	64.606523 
4863.000000	64.580154 
4862.000000	64.575219 
4861.000000	64.592075 
4860.000000	64.628243 
4859.000000	64.678788 
4858.000000	64.737462 
4857.000000	64.797759 
4856.000000	64.853811 
4855.000000	64.901137 
4854.000000	64.936685 
4853.000000	64.958977 
4852.000000	64.967894 
4851.000000	64.964437 
4850.000000	64.950537 
4849.000000	64.928841 
4848.000000	64.902663 
4847.000000	64.875578 
4846.000000	64.851140 
4845.000000	64.832663 
4844.000000	64.822530 
4843.000000	64.821934 
4842.000000	64.830684 
4841.000000	64.847517 
4840.000000	64.870333 
4839.000000	64.896082 
4838.000000	64.921855 
4837.000000	64.944648 
4836.000000	64.962291 
4835.000000	64.973425 
4834.000000	64.977908 
4833.000000	64.976382 
4832.000000	64.970588 
4831.000000	64.963293 
4830.000000	64.957475 
4829.000000	64.955925 
4828.000000	64.960289 
4827.000000	64.971017 
4826.000000	64.986228 
4825.000000	65.002298 
4824.000000	65.014028 
4823.000000	65.016031 
4822.000000	65.004086 
4821.000000	64.976191 
4820.000000	64.933586 
4819.000000	64.880657 
4818.000000	64.824032 
4817.000000	64.771437 
4816.000000	64.729690 
4815.000000	64.703392 
4814.000000	64.693999 
4813.000000	64.699935 
4812.000000	64.716982 
4811.000000	64.740324 
4810.000000	64.765477 
4809.000000	64.790105 
4808.000000	64.813470 
4807.000000	64.837265 
4806.000000	64.863944 
4805.000000	64.896345 
4804.000000	64.935660 
4803.000000	64.981985 
4802.000000	65.033793 
4801.000000	65.088868 
4800.000000	65.144824 
4799.000000	65.199756 
4798.000000	65.252828 
4797.000000	65.303683 
4796.000000	65.352129 
4795.000000	65.397334 
4794.000000	65.437555 
4793.000000	65.470027 
4792.000000	65.491390 
4791.000000	65.498757 
4790.000000	65.490484 
4789.000000	65.467238 
4788.000000	65.432095 
4787.000000	65.389800 
4786.000000	65.346002 
4785.000000	65.306210 
4784.000000	65.274643 
4783.000000	65.253472 
4782.000000	65.242505 
4781.000000	65.240073 
4780.000000	65.243363 
4779.000000	65.249514 
4778.000000	65.255832 
4777.000000	65.260672 
4776.000000	65.262985 
4775.000000	65.262484 
4774.000000	65.258908 
4773.000000	65.251779 
4772.000000	65.240478 
4771.000000	65.224242 
4770.000000	65.202546 
4769.000000	65.175080 
4768.000000	65.142631 
4767.000000	65.107393 
4766.000000	65.072107 
4765.000000	65.039944 
4764.000000	65.014147 
4763.000000	64.997816 
4762.000000	64.992666 
4761.000000	64.999270 
4760.000000	65.017080 
4759.000000	65.044665 
4758.000000	65.079474 
4757.000000	65.118861 
4756.000000	65.159559 
4755.000000	65.198874 
4754.000000	65.234518 
4753.000000	65.265250 
4752.000000	65.290403 
4751.000000	65.310525 
4750.000000	65.327191 
4749.000000	65.342164 
4748.000000	65.357065 
4747.000000	65.372276 
4746.000000	65.387296 
4745.000000	65.399718 
4744.000000	65.405893 
4743.000000	65.401601 
4742.000000	65.383172 
4741.000000	65.348505 
4740.000000	65.297985 
4739.000000	65.234565 
4738.000000	65.163421 
4737.000000	65.090513 
4736.000000	65.021586 
4735.000000	64.960646 
4734.000000	64.909672 
4733.000000	64.868497 
4732.000000	64.835715 
4731.000000	64.809417 
4730.000000	64.788746 
4729.000000	64.773821 
4728.000000	64.766669 
4727.000000	64.769339 
4726.000000	64.784741 
4725.000000	64.814329 
4724.000000	64.858365 
4723.000000	64.914488 
4722.000000	64.978599 
4721.000000	65.045094 
4720.000000	65.107846 
4719.000000	65.161108 
4718.000000	65.200400 
4717.000000	65.223097 
4716.000000	65.228319 
4715.000000	65.217137 
4714.000000	65.191674 
4713.000000	65.154695 
4712.000000	65.109419 
4711.000000	65.059304 
4710.000000	65.007853 
4709.000000	64.958477 
4708.000000	64.914655 
4707.000000	64.879536 
4706.000000	64.855241 
4705.000000	64.842748 
4704.000000	64.841556 
4703.000000	64.850401 
4702.000000	64.866518 
4701.000000	64.887118 
4700.000000	64.909601 
4699.000000	64.932537 
4698.000000	64.954996 
4697.000000	64.977002 
4696.000000	64.999032 
4695.000000	65.021324 
4694.000000	65.043401 
4693.000000	65.064024 
4692.000000	65.081214 
4691.000000	65.093302 
4690.000000	65.099740 
4689.000000	65.101027 
4688.000000	65.098810 
4687.000000	65.095663 
4686.000000	65.094280 
4685.000000	65.096521 
4684.000000	65.102696 
4683.000000	65.111827 
4682.000000	65.122008 
4681.000000	65.131092 
4680.000000	65.137672 
4679.000000	65.140819 
4678.000000	65.141153 
4677.000000	65.140485 
4676.000000	65.141868 
4675.000000	65.148591 
4674.000000	65.163826 
4673.000000	65.189838 
4672.000000	65.227389 
4671.000000	65.275907 
4670.000000	65.332484 
4669.000000	65.392875 
4668.000000	65.450978 
4667.000000	65.500211 
4666.000000	65.533828 
4665.000000	65.546488 
4664.000000	65.535020 
4663.000000	65.499305 
4662.000000	65.441799 
4661.000000	65.367484 
4660.000000	65.282464 
4659.000000	65.193462 
4658.000000	65.106201 
4657.000000	65.025401 
4656.000000	64.955210 
4655.000000	64.899563 
4654.000000	64.862442 
4653.000000	64.847660 
4652.000000	64.858174 
4651.000000	64.894938 
4650.000000	64.955592 
4649.000000	65.034341 
4648.000000	65.121102 
4647.000000	65.204215 
4646.000000	65.271425 
4645.000000	65.313887 
4644.000000	65.327596 
4643.000000	65.314769 
4642.000000	65.283584 
4641.000000	65.245342 
4640.000000	65.212178 
4639.000000	65.192651 
4638.000000	65.190076 
4637.000000	65.200853 
4636.000000	65.216398 
4635.000000	65.225028 
4634.000000	65.216088 
4633.000000	65.182566 
4632.000000	65.123701 
4631.000000	65.044999 
4630.000000	64.957141 
4629.000000	64.872694 
4628.000000	64.803504 
4627.000000	64.758229 
4626.000000	64.741063 
4625.000000	64.751601 
4624.000000	64.786124 
4623.000000	64.839625 
4622.000000	64.906764 
4621.000000	64.982938 
4620.000000	65.064120 
4619.000000	65.145945 
4618.000000	65.223550 
4617.000000	65.290951 
4616.000000	65.341591 
4615.000000	65.369033 
4614.000000	65.368390 
4613.000000	65.338110 
4612.000000	65.280175 
4611.000000	65.200901 
4610.000000	65.109205 
4609.000000	65.015721 
4608.000000	64.930367 
4607.000000	64.861035 
4606.000000	64.812493 
4605.000000	64.786338 
4604.000000	64.781212 
4603.000000	64.793777 
4602.000000	64.819669 
4601.000000	64.854407 
4600.000000	64.893531 
4599.000000	64.933323 
4598.000000	64.970088 
4597.000000	65.001106 
4596.000000	65.023922 
4595.000000	65.037178 
4594.000000	65.039992 
4593.000000	65.032815 
4592.000000	65.017414 
4591.000000	64.996671 
4590.000000	64.974999 
4589.000000	64.956808 
4588.000000	64.945983 
4587.000000	64.944529 
4586.000000	64.952874 
4585.000000	64.968323 
4584.000000	64.986062 
4583.000000	64.999771 
4582.000000	65.003442 
4581.000000	64.992332 
4580.000000	64.964127 
4579.000000	64.919352 
4578.000000	64.861345 
4577.000000	64.795637 
4576.000000	64.728999 
4575.000000	64.667463 
4574.000000	64.615440 
4573.000000	64.575529 
4572.000000	64.548611 
4571.000000	64.533948 
4570.000000	64.529991 
4569.000000	64.535260 
4568.000000	64.548587 
4567.000000	64.569258 
4566.000000	64.596533 
4565.000000	64.628744 
4564.000000	64.662742 
4563.000000	64.694166 
4562.000000	64.717316 
4561.000000	64.726090 
4560.000000	64.714908 
4559.000000	64.680242 
4558.000000	64.621257 
4557.000000	64.540624 
4556.000000	64.443898 
4555.000000	64.338779 
4554.000000	64.234185 
4553.000000	64.138746 
4552.000000	64.060544 
4551.000000	64.006042 
4550.000000	63.980102 
4549.000000	63.985729 
4548.000000	64.023828 
4547.000000	64.093303 
4546.000000	64.190745 
4545.000000	64.310550 
4544.000000	64.444899 
4543.000000	64.584136 
4542.000000	64.717793 
4541.000000	64.834976 
4540.000000	64.925885 
4539.000000	64.982700 
4538.000000	65.001058 
4537.000000	64.980602 
4536.000000	64.926028 
4535.000000	64.845752 
4534.000000	64.751744 
4533.000000	64.656400 
4532.000000	64.571547 
4531.000000	64.505481 
4530.000000	64.462780 
4529.000000	64.443182 
4528.000000	64.442825 
4527.000000	64.455294 
4526.000000	64.473843 
4525.000000	64.492797 
4524.000000	64.508605 
4523.000000	64.520525 
4522.000000	64.530158 
4521.000000	64.540076 
4520.000000	64.552688 
4519.000000	64.569330 
4518.000000	64.589262 
4517.000000	64.609909 
4516.000000	64.626741 
4515.000000	64.634847 
4514.000000	64.629435 
4513.000000	64.607381 
4512.000000	64.567804 
4511.000000	64.511871 
4510.000000	64.443278 
4509.000000	64.368081 
4508.000000	64.293575 
4507.000000	64.227032 
4506.000000	64.174723 
4505.000000	64.141416 
4504.000000	64.129114 
4503.000000	64.136910 
4502.000000	64.160871 
4501.000000	64.194941 
4500.000000	64.232206 
4499.000000	64.266228 
4498.000000	64.292526 
4497.000000	64.309215 
4496.000000	64.317417 
4495.000000	64.320468 
4494.000000	64.322996 
4493.000000	64.329385 
4492.000000	64.342427 
4491.000000	64.362478 
4490.000000	64.388036 
4489.000000	64.415979 
4488.000000	64.442801 
4487.000000	64.465379 
4486.000000	64.482212 
4485.000000	64.492845 
4484.000000	64.498186 
4483.000000	64.498996 
4482.000000	64.495563 
4481.000000	64.486956 
4480.000000	64.471650 
4479.000000	64.447665 
4478.000000	64.413166 
4477.000000	64.367580 
4476.000000	64.312863 
4475.000000	64.252805 
4474.000000	64.192724 
4473.000000	64.138245 
4472.000000	64.094328 
4471.000000	64.064073 
4470.000000	64.048147 
4469.000000	64.044833 
4468.000000	64.050245 
4467.000000	64.059996 
4466.000000	64.070057 
4465.000000	64.076972 
4464.000000	64.078307 
4463.000000	64.072394 
4462.000000	64.058828 
4461.000000	64.036750 
4460.000000	64.006543 
4459.000000	63.969516 
4458.000000	63.928961 
4457.000000	63.889837 
4456.000000	63.858628 
4455.000000	63.842320 
4454.000000	63.846945 
4453.000000	63.875770 
4452.000000	63.928508 
4451.000000	64.001059 
4450.000000	64.085650 
4449.000000	64.171862 
4448.000000	64.248991 
4447.000000	64.308118 
4446.000000	64.343714 
4445.000000	64.354085 
4444.000000	64.341259 
4443.000000	64.309954 
4442.000000	64.266443 
4441.000000	64.216852 
4440.000000	64.165639 
4439.000000	64.114451 
4438.000000	64.063835 
4437.000000	64.013028 
4436.000000	63.959836 
4435.000000	63.902378 
4434.000000	63.840270 
4433.000000	63.775491 
4432.000000	63.712453 
4431.000000	63.657164 
4430.000000	63.615989 
4429.000000	63.593149 
4428.000000	63.590574 
4427.000000	63.604664 
4426.000000	63.625836 
4425.000000	63.641047 
4424.000000	63.634896 
4423.000000	63.596534 
4422.000000	63.528728 
4421.000000	63.435125 
4420.000000	63.312172 
4419.000000	63.168358 
4418.000000	63.026475 
4417.000000	62.906479 
4416.000000	62.821936 
4415.000000	62.780547 
4414.000000	62.783217 
4413.000000	62.832713 
4412.000000	62.932991 
4411.000000	63.084030 
4410.000000	63.280701 
4409.000000	63.513588 
4408.000000	63.768362 
4407.000000	64.015579 
4406.000000	64.222097 
4405.000000	64.377975 
4404.000000	64.474916 
4403.000000	64.516448 
4402.000000	64.496850 
4401.000000	64.372563 
4400.000000	64.115810 
4399.000000	63.672232 
4398.000000	63.091659 
4397.000000	62.520074 
4396.000000	62.234878 
4395.000000	62.591600 
4394.000000	63.930225 
4393.000000	66.473102 
4392.000000	70.221590 
4391.000000	74.913120 
4390.000000	80.052757 
4389.000000	84.998559 
4388.000000	89.098858 
4387.000000	91.821885 
4386.000000	92.846989 
4385.000000	92.114329 
4384.000000	89.818263 
4383.000000	86.344337 
4382.000000	82.185101 
4381.000000	77.831912 
4380.000000	73.721790 
4379.000000	70.154619 
4378.000000	67.315316 
4377.000000	65.244126 
4376.000000	63.909220 
4375.000000	63.205528 
4374.000000	62.996006 
4373.000000	63.137865 
4372.000000	63.460779 
4371.000000	63.834643 
4370.000000	64.141058 
4369.000000	64.322853 
4368.000000	64.352083 
4367.000000	64.254045 
4366.000000	64.078140 
4365.000000	63.888120 
4364.000000	63.734650 
4363.000000	63.658547 
4362.000000	63.681364 
4361.000000	63.803696 
4360.000000	64.006280 
4359.000000	64.260840 
4358.000000	64.534974 
4357.000000	64.783334 
4356.000000	64.961743 
4355.000000	65.044331 
4354.000000	65.025520 
4353.000000	64.920043 
4352.000000	64.758419 
4351.000000	64.568710 
4350.000000	64.377689 
4349.000000	64.217758 
4348.000000	64.111065 
4347.000000	64.058566 
4346.000000	64.051318 
4345.000000	64.084434 
4344.000000	64.149308 
4343.000000	64.234542 
4342.000000	64.329624 
4341.000000	64.424800 
4340.000000	64.511990 
4339.000000	64.583992 
4338.000000	64.634704 
4337.000000	64.658713 
4336.000000	64.652895 
4335.000000	64.616847 
4334.000000	64.553737 
4333.000000	64.470195 
4332.000000	64.374947 
4331.000000	64.277791 
4330.000000	64.188432 
4329.000000	64.114999 
4328.000000	64.063572 
4327.000000	64.037036 
4326.000000	64.034247 
4325.000000	64.050936 
4324.000000	64.081668 
4323.000000	64.119791 
4322.000000	64.158082 
4321.000000	64.190125 
4320.000000	64.209961 
4319.000000	64.214205 
4318.000000	64.201927 
4317.000000	64.175438 
4316.000000	64.138770 
4315.000000	64.098381 
4314.000000	64.062070 
4313.000000	64.037489 
4312.000000	64.030814 
4311.000000	64.045906 
4310.000000	64.083242 
4309.000000	64.140582 
4308.000000	64.213418 
4307.000000	64.295411 
4306.000000	64.379072 
4305.000000	64.456295 
4304.000000	64.518594 
4303.000000	64.558076 
4302.000000	64.568233 
4301.000000	64.544320 
4300.000000	64.484739 
4299.000000	64.392304 
4298.000000	64.274168 
4297.000000	64.141249 
4296.000000	64.007043 
4295.000000	63.886213 
4294.000000	63.792181 
4293.000000	63.735008 
4292.000000	63.720154 
4291.000000	63.747406 
4290.000000	63.811469 
4289.000000	63.903069 
4288.000000	64.010977 
4287.000000	64.123106 
4286.000000	64.228916 
4285.000000	64.319920 
4284.000000	64.391040 
4283.000000	64.439773 
4282.000000	64.466691 
4281.000000	64.474225 
4280.000000	64.466619 
4279.000000	64.448881 
4278.000000	64.426517 
4277.000000	64.404678 
4276.000000	64.387559 
4275.000000	64.377689 
4274.000000	64.376068 
4273.000000	64.381718 
4272.000000	64.392161 
4271.000000	64.404273 
4270.000000	64.414763 
4269.000000	64.421606 
4268.000000	64.424324 
4267.000000	64.424228 
4266.000000	64.423298 
4265.000000	64.424061 
4264.000000	64.428925 
4263.000000	64.439272 
4262.000000	64.454865 
4261.000000	64.474248 
4260.000000	64.495301 
4259.000000	64.515662 
4258.000000	64.533448 
4257.000000	64.547109 
4256.000000	64.555597 
4255.000000	64.558219 
4254.000000	64.554882 
4253.000000	64.544987 
4252.000000	64.527750 
4251.000000	64.502835 
4250.000000	64.470911 
4249.000000	64.433741 
4248.000000	64.394474 
4247.000000	64.357256 
4246.000000	64.326882 
4245.000000	64.307951 
4244.000000	64.304327 
4243.000000	64.317846 
4242.000000	64.348483 
4241.000000	64.394474 
4240.000000	64.452409 
4239.000000	64.517641 
4238.000000	64.584994 
4237.000000	64.649415 
4236.000000	64.706587 
4235.000000	64.753055 
4234.000000	64.786601 
4233.000000	64.806389 
4232.000000	64.812445 
4231.000000	64.805889 
4230.000000	64.788126 
4229.000000	64.761018 
4228.000000	64.726209 
4227.000000	64.685297 
4226.000000	64.639687 
4225.000000	64.590930 
4224.000000	64.540600 
4223.000000	64.491009 
4222.000000	64.445137 
4221.000000	64.406943 
4220.000000	64.380741 
4219.000000	64.371013 
4218.000000	64.381003 
4217.000000	64.412474 
4216.000000	64.464449 
4215.000000	64.533853 
4214.000000	64.614796 
4213.000000	64.700245 
4212.000000	64.783048 
4211.000000	64.857268 
4210.000000	64.918780 
4209.000000	64.965915 
4208.000000	64.998960 
4207.000000	65.019536 
4206.000000	65.029644 
4205.000000	65.030932 
4204.000000	65.024352 
4203.000000	65.010428 
4202.000000	64.989781 
4201.000000	64.963865 
4200.000000	64.935374 
4199.000000	64.908528 
4198.000000	64.888262 
4197.000000	64.879226 
4196.000000	64.884138 
4195.000000	64.903259 
4194.000000	64.933538 
4193.000000	64.968895 
4192.000000	65.001153 
4191.000000	65.022206 
4190.000000	65.025711 
4189.000000	65.008401 
4188.000000	64.971017 
4187.000000	64.918041 
4186.000000	64.857101 
4185.000000	64.796638 
4184.000000	64.744973 
4183.000000	64.708185 
4182.000000	64.689445 
4181.000000	64.689302 
4180.000000	64.705514 
4179.000000	64.733839 
4178.000000	64.769148 
4177.000000	64.806723 
4176.000000	64.842319 
4175.000000	64.872455 
4174.000000	64.894890 
4173.000000	64.908528 
4172.000000	64.913511 
4171.000000	64.911365 
4170.000000	64.905023 
4169.000000	64.898324 
4168.000000	64.895606 
4167.000000	64.900588 
4166.000000	64.915704 
4165.000000	64.941382 
4164.000000	64.975643 
4163.000000	65.014743 
4162.000000	65.053987 
4161.000000	65.089178 
4160.000000	65.117597 
4159.000000	65.138316 
4158.000000	65.152645 
4157.000000	65.162587 
4156.000000	65.170741 
4155.000000	65.178227 
4154.000000	65.184450 
4153.000000	65.187191 
4152.000000	65.183663 
4151.000000	65.171790 
4150.000000	65.151262 
4149.000000	65.124607 
4148.000000	65.096998 
4147.000000	65.074872 
4146.000000	65.064120 
4145.000000	65.067934 
4144.000000	65.085625 
4143.000000	65.112018 
4142.000000	65.138959 
4141.000000	65.156793 
4140.000000	65.157461 
4139.000000	65.136480 
4138.000000	65.094804 
4137.000000	65.038204 
4136.000000	64.976644 
4135.000000	64.921569 
4134.000000	64.883446 
4133.000000	64.869022 
4132.000000	64.880037 
4131.000000	64.913177 
4130.000000	64.960932 
4129.000000	65.013885 
4128.000000	65.063023 
4127.000000	65.101885 
4126.000000	65.127897 
4125.000000	65.142011 
4124.000000	65.148186 
4123.000000	65.151476 
4122.000000	65.156722 
4121.000000	65.166902 
4120.000000	65.183401 
4119.000000	65.205836 
4118.000000	65.232825 
4117.000000	65.262436 
4116.000000	65.292739 
4115.000000	65.321969 
4114.000000	65.348196 
4113.000000	65.369534 
4112.000000	65.384244 
4111.000000	65.390920 
4110.000000	65.388822 
4109.000000	65.378260 
4108.000000	65.360832 
4107.000000	65.339255 
4106.000000	65.317273 
4105.000000	65.298581 
4104.000000	65.286517 
4103.000000	65.283131 
4102.000000	65.289306 
4101.000000	65.304279 
4100.000000	65.325903 
4099.000000	65.350914 
4098.000000	65.375685 
4097.000000	65.396428 
4096.000000	65.409922 
4095.000000	65.413665 
4094.000000	65.406012 
4093.000000	65.386462 
4092.000000	65.355658 
4091.000000	65.315508 
4090.000000	65.268826 
4089.000000	65.218710 
4088.000000	65.168190 
4087.000000	65.119838 
4086.000000	65.075564 
4085.000000	65.036129 
4084.000000	65.001606 
4083.000000	64.971446 
4082.000000	64.945602 
4081.000000	64.924430 
4080.000000	64.909219 
4079.000000	64.901494 
4078.000000	64.902949 
4077.000000	64.914202 
4076.000000	64.934873 
4075.000000	64.962434 
4074.000000	64.993500 
4073.000000	65.024089 
4072.000000	65.050792 
4071.000000	65.071320 
4070.000000	65.085124 
4069.000000	65.093421 
4068.000000	65.098404 
4067.000000	65.102481 
4066.000000	65.108132 
4065.000000	65.117287 
4064.000000	65.131020 
4063.000000	65.149784 
4062.000000	65.173816 
4061.000000	65.203189 
4060.000000	65.238332 
4059.000000	65.279293 
4058.000000	65.325236 
4057.000000	65.374112 
4056.000000	65.422844 
4055.000000	65.467309 
4054.000000	65.503025 
4053.000000	65.525841 
4052.000000	65.533638 
4051.000000	65.525889 
4050.000000	65.504288 
4049.000000	65.471720 
4048.000000	65.432548 
4047.000000	65.390872 
4046.000000	65.350079 
4045.000000	65.312004 
4044.000000	65.277314 
4043.000000	65.245079 
4042.000000	65.213561 
4041.000000	65.180563 
4040.000000	65.144133 
4039.000000	65.103268 
4038.000000	65.058469 
4037.000000	65.011477 
4036.000000	64.965271 
4035.000000	64.923739 
4034.000000	64.891004 
4033.000000	64.870500 
4032.000000	64.864301 
4031.000000	64.872527 
4030.000000	64.893317 
4029.000000	64.922571 
4028.000000	64.955282 
4027.000000	64.986300 
4026.000000	65.012097 
4025.000000	65.030717 
4024.000000	65.042901 
4023.000000	65.051412 
4022.000000	65.060353 
4021.000000	65.074062 
4020.000000	65.095567 
4019.000000	65.125846 
4018.000000	65.163183 
4017.000000	65.203833 
4016.000000	65.242576 
4015.000000	65.274000 
4014.000000	65.293836 
4013.000000	65.300011 
4012.000000	65.293025 
4011.000000	65.275692 
4010.000000	65.252280 
4009.000000	65.227603 
4008.000000	65.205907 
4007.000000	65.189766 
4006.000000	65.180182 
4005.000000	65.176486 
4004.000000	65.176677 
4003.000000	65.178465 
4002.000000	65.180063 
4001.000000	65.181064 
4000.000000	65.182447 
3999.000000	65.186834 
3998.000000	65.197205 
3997.000000	65.216398 
3996.000000	65.246152 
3995.000000	65.286159 
3994.000000	65.333843 
3993.000000	65.384483 
3992.000000	65.432405 
3991.000000	65.471315 
3990.000000	65.495920 
3989.000000	65.502190 
3988.000000	65.488386 
3987.000000	65.454816 
3986.000000	65.403866 
3985.000000	65.339636 
3984.000000	65.267395 
3983.000000	65.193009 
3982.000000	65.122437 
3981.000000	65.061163 
3980.000000	65.013885 
3979.000000	64.983892 
3978.000000	64.972901 
3977.000000	64.980340 
3976.000000	65.003776 
3975.000000	65.038895 
3974.000000	65.080595 
3973.000000	65.123391 
3972.000000	65.162706 
3971.000000	65.194940 
3970.000000	65.218305 
3969.000000	65.232396 
3968.000000	65.237998 
3967.000000	65.236377 
3966.000000	65.229058 
3965.000000	65.217804 
3964.000000	65.204071 
3963.000000	65.189051 
3962.000000	65.173697 
3961.000000	65.158939 
3960.000000	65.145444 
3959.000000	65.133810 
3958.000000	65.124511 
3957.000000	65.118122 
3956.000000	65.115165 
3955.000000	65.116381 
3954.000000	65.122365 
3953.000000	65.133762 
3952.000000	65.150952 
3951.000000	65.173840 
3950.000000	65.201449 
3949.000000	65.231847 
3948.000000	65.262579 
3947.000000	65.290570 
3946.000000	65.313148 
3945.000000	65.327787 
3944.000000	65.333223 
3943.000000	65.328836 
3942.000000	65.315151 
3941.000000	65.292906 
3940.000000	65.263175 
3939.000000	65.227007 
3938.000000	65.185737 
3937.000000	65.141010 
3936.000000	65.095043 
3935.000000	65.050506 
3934.000000	65.010380 
3933.000000	64.977622 
3932.000000	64.954614 
3931.000000	64.942669 
3930.000000	64.941573 
3929.000000	64.949512 
3928.000000	64.963340 
3927.000000	64.979147 
3926.000000	64.993000 
3925.000000	65.001893 
3924.000000	65.004181 
3923.000000	64.999675 
3922.000000	64.989662 
3921.000000	64.976215 
3920.000000	64.961814 
3919.000000	64.948344 
3918.000000	64.936780 
3917.000000	64.927053 
3916.000000	64.918303 
3915.000000	64.909505 
3914.000000	64.899992 
3913.000000	64.889693 
3912.000000	64.879584 
3911.000000	64.871358 
3910.000000	64.867329 
3909.000000	64.869403 
3908.000000	64.878559 
3907.000000	64.894390 
3906.000000	64.915060 
3905.000000	64.937758 
3904.000000	64.959096 
3903.000000	64.976000 
3902.000000	64.986562 
3901.000000	64.990615 
3900.000000	64.989733 
3899.000000	64.986872 
3898.000000	64.985704 
3897.000000	64.989781 
3896.000000	65.001845 
3895.000000	65.022850 
3894.000000	65.052080 
3893.000000	65.086793 
3892.000000	65.122985 
3891.000000	65.155863 
3890.000000	65.180969 
3889.000000	65.194773 
3888.000000	65.195536 
3887.000000	65.183377 
3886.000000	65.160274 
3885.000000	65.129613 
3884.000000	65.095520 
3883.000000	65.062046 
3882.000000	65.032529 
3881.000000	65.009307 
3880.000000	64.993524 
3879.000000	64.985227 
3878.000000	64.983749 
3877.000000	64.987945 
3876.000000	64.996671 
3875.000000	65.008687 
3874.000000	65.022921 
3873.000000	65.038585 
3872.000000	65.054941 
3871.000000	65.071392 
3870.000000	65.087318 
3869.000000	65.102291 
3868.000000	65.116000 
3867.000000	65.128302 
3866.000000	65.138864 
3865.000000	65.147423 
3864.000000	65.153431 
3863.000000	65.156197 
3862.000000	65.154814 
3861.000000	65.148639 
3860.000000	65.137243 
3859.000000	65.120863 
3858.000000	65.100145 
3857.000000	65.076494 
3856.000000	65.051269 
3855.000000	65.026259 
3854.000000	65.002703 
3853.000000	64.981150 
3852.000000	64.961719 
3851.000000	64.944052 
3850.000000	64.927697 
3849.000000	64.912414 
3848.000000	64.898443 
3847.000000	64.886736 
3846.000000	64.878678 
3845.000000	64.875864 
3844.000000	64.879465 
3843.000000	64.889931 
3842.000000	64.906549 
3841.000000	64.927411 
3840.000000	64.949822 
3839.000000	64.970588 
3838.000000	64.986538 
3837.000000	64.995384 
3836.000000	64.995932 
3835.000000	64.988517 
3834.000000	64.974927 
3833.000000	64.958143 
3832.000000	64.941620 
3831.000000	64.928746 
3830.000000	64.922070 
3829.000000	64.923000 
3828.000000	64.931678 
3827.000000	64.946961 
3826.000000	64.966917 
3825.000000	64.989042 
3824.000000	65.011167 
3823.000000	65.031337 
3822.000000	65.048241 
3821.000000	65.061259 
3820.000000	65.070414 
3819.000000	65.076279 
3818.000000	65.079808 
3817.000000	65.082311 
3816.000000	65.085196 
3815.000000	65.090179 
3814.000000	65.098500 
3813.000000	65.111017 
3812.000000	65.127825 
3811.000000	65.147948 
3810.000000	65.169477 
3809.000000	65.189743 
3808.000000	65.205788 
3807.000000	65.215253 
3806.000000	65.216970 
3805.000000	65.211224 
3804.000000	65.199899 
3803.000000	65.186071 
3802.000000	65.173244 
3801.000000	65.164828 
3800.000000	65.162873 
3799.000000	65.167999 
3798.000000	65.179014 
3797.000000	65.193438 
3796.000000	65.208005 
3795.000000	65.219569 
3794.000000	65.225553 
3793.000000	65.224623 
3792.000000	65.216684 
3791.000000	65.202689 
3790.000000	65.184450 
3789.000000	65.163993 
3788.000000	65.143013 
3787.000000	65.122699 
3786.000000	65.103983 
3785.000000	65.087127 
3784.000000	65.072250 
3783.000000	65.059256 
3782.000000	65.047979 
3781.000000	65.038204 
3780.000000	65.030097 
3779.000000	65.023708 
3778.000000	65.018963 
3777.000000	65.015864 
3776.000000	65.014147 
3775.000000	65.013647 
3774.000000	65.014147 
3773.000000	65.015506 
3772.000000	65.017652 
3771.000000	65.020799 
3770.000000	65.025281 
3769.000000	65.031599 
3768.000000	65.040397 
3767.000000	65.052413 
3766.000000	65.068483 
3765.000000	65.089297 
3764.000000	65.115284 
3763.000000	65.146398 
3762.000000	65.181922 
3761.000000	65.220355 
3760.000000	65.259218 
3759.000000	65.295386 
3758.000000	65.325140 
3757.000000	65.344762 
3756.000000	65.351271 
3755.000000	65.343236 
3754.000000	65.321040 
3753.000000	65.287470 
3752.000000	65.247082 
3751.000000	65.206027 
3750.000000	65.170502 
3749.000000	65.146017 
3748.000000	65.135836 
3747.000000	65.140724 
3746.000000	65.158629 
3745.000000	65.185403 
3744.000000	65.215802 
3743.000000	65.244746 
3742.000000	65.268731 
3741.000000	65.286374 
3740.000000	65.298485 
3739.000000	65.307450 
3738.000000	65.316128 
3737.000000	65.326499 
3736.000000	65.338993 
3735.000000	65.352058 
3734.000000	65.362834 
3733.000000	65.367650 
3732.000000	65.363812 
3731.000000	65.349960 
3730.000000	65.326952 
3729.000000	65.297436 
3728.000000	65.265417 
3727.000000	65.234971 
3726.000000	65.209412 
3725.000000	65.190386 
3724.000000	65.177631 
3723.000000	65.169429 
3722.000000	65.163350 
3721.000000	65.156960 
3720.000000	65.148782 
3719.000000	65.138387 
3718.000000	65.126466 
3717.000000	65.114498 
3716.000000	65.104174 
3715.000000	65.097165 
3714.000000	65.094470 
3713.000000	65.096473 
3712.000000	65.102696 
3711.000000	65.112185 
3710.000000	65.123629 
3709.000000	65.135502 
3708.000000	65.146517 
3707.000000	65.155887 
3706.000000	65.163683 
3705.000000	65.170669 
3704.000000	65.178537 
3703.000000	65.189266 
3702.000000	65.204477 
3701.000000	65.225172 
3700.000000	65.250563 
3699.000000	65.278410 
3698.000000	65.304780 
3697.000000	65.325164 
3696.000000	65.335273 
3695.000000	65.332388 
3694.000000	65.316224 
3693.000000	65.289592 
3692.000000	65.257644 
3691.000000	65.226674 
3690.000000	65.202903 
3689.000000	65.190911 
3688.000000	65.192627 
3687.000000	65.207099 
3686.000000	65.230989 
3685.000000	65.259599 
3684.000000	65.288090 
3683.000000	65.312743 
3682.000000	65.331649 
3681.000000	65.344715 
3680.000000	65.353202 
3679.000000	65.358805 
3678.000000	65.362596 
3677.000000	65.364551 
3676.000000	65.363502 
3675.000000	65.357470 
3674.000000	65.344619 
3673.000000	65.323662 
3672.000000	65.295124 
3671.000000	65.261149 
3670.000000	65.225362 
3669.000000	65.192246 
3668.000000	65.166139 
3667.000000	65.150427 
3666.000000	65.146756 
3665.000000	65.154910 
3664.000000	65.172934 
3663.000000	65.197730 
3662.000000	65.225648 
3661.000000	65.253639 
3660.000000	65.279436 
3659.000000	65.301966 
3658.000000	65.321183 
3657.000000	65.337610 
3656.000000	65.351772 
3655.000000	65.363979 
3654.000000	65.373802 
3653.000000	65.380311 
3652.000000	65.382075 
3651.000000	65.377783 
3650.000000	65.366578 
3649.000000	65.348410 
3648.000000	65.324282 
3647.000000	65.296292 
3646.000000	65.267276 
3645.000000	65.240454 
3644.000000	65.219044 
3643.000000	65.205502 
3642.000000	65.201187 
3641.000000	65.206146 
3640.000000	65.219020 
3639.000000	65.237259 
3638.000000	65.257430 
3637.000000	65.275740 
3636.000000	65.288734 
3635.000000	65.293741 
3634.000000	65.289664 
3633.000000	65.276837 
3632.000000	65.256977 
3631.000000	65.232920 
3630.000000	65.208005 
3629.000000	65.185451 
3628.000000	65.167689 
3627.000000	65.156269 
3626.000000	65.151906 
3625.000000	65.154552 
3624.000000	65.163469 
3623.000000	65.177392 
3622.000000	65.194654 
3621.000000	65.213251 
3620.000000	65.230703 
3619.000000	65.244626 
3618.000000	65.252566 
3617.000000	65.252780 
3616.000000	65.244626 
3615.000000	65.228748 
3614.000000	65.206837 
3613.000000	65.181422 
3612.000000	65.155863 
3611.000000	65.132808 
3610.000000	65.113830 
3609.000000	65.099310 
3608.000000	65.088295 
3607.000000	65.079236 
3606.000000	65.070486 
3605.000000	65.061116 
3604.000000	65.051054 
3603.000000	65.041065 
3602.000000	65.032410 
3601.000000	65.026092 
3600.000000	65.022468 
3599.000000	65.020966 
3598.000000	65.020132 
3597.000000	65.018057 
3596.000000	65.013098 
3595.000000	65.004324 
3594.000000	64.992189 
3593.000000	64.978146 
3592.000000	64.964890 
3591.000000	64.955306 
3590.000000	64.952421 
3589.000000	64.958333 
3588.000000	64.974093 
3587.000000	64.999461 
3586.000000	65.032863 
3585.000000	65.071868 
3584.000000	65.113282 
3583.000000	65.153646 
3582.000000	65.189504 
3581.000000	65.217947 
3580.000000	65.237164 
3579.000000	65.246367 
3578.000000	65.246510 
3577.000000	65.239667 
3576.000000	65.228819 
3575.000000	65.216827 
3574.000000	65.206146 
3573.000000	65.197777 
3572.000000	65.191221 
3571.000000	65.184402 
3570.000000	65.174436 
3569.000000	65.158748 
3568.000000	65.135693 
3567.000000	65.105748 
3566.000000	65.071463 
3565.000000	65.037441 
3564.000000	65.009355 
3563.000000	64.992642 
3562.000000	64.991164 
3561.000000	65.006303 
3560.000000	65.036392 
3559.000000	65.077114 
3558.000000	65.122342 
3557.000000	65.165400 
3556.000000	65.200400 
3555.000000	65.223264 
3554.000000	65.232324 
3553.000000	65.228366 
3552.000000	65.214037 
3551.000000	65.192914 
3550.000000	65.168619 
3549.000000	65.144205 
3548.000000	65.121555 
3547.000000	65.101671 
3546.000000	65.084648 
3545.000000	65.070033 
3544.000000	65.057277 
3543.000000	65.045976 
3542.000000	65.036106 
3541.000000	65.027928 
3540.000000	65.022063 
3539.000000	65.018892 
3538.000000	65.018939 
3537.000000	65.022587 
3536.000000	65.030145 
3535.000000	65.041446 
3534.000000	65.056157 
3533.000000	65.073680 
3532.000000	65.093111 
3531.000000	65.113258 
3530.000000	65.132880 
3529.000000	65.150690 
3528.000000	65.165662 
3527.000000	65.177202 
3526.000000	65.185546 
3525.000000	65.191698 
3524.000000	65.197443 
3523.000000	65.204977 
3522.000000	65.216684 
3521.000000	65.234422 
3520.000000	65.259575 
3519.000000	65.291976 
3518.000000	65.329694 
3517.000000	65.368747 
3516.000000	65.404033 
3515.000000	65.429711 
3514.000000	65.440392 
3513.000000	65.432143 
3512.000000	65.403199 
3511.000000	65.354418 
3510.000000	65.289759 
3509.000000	65.215277 
3508.000000	65.138387 
3507.000000	65.066576 
3506.000000	65.006494 
3505.000000	64.962506 
3504.000000	64.936733 
3503.000000	64.928388 
3502.000000	64.934611 
3501.000000	64.951038 
3500.000000	64.972662 
3499.000000	64.995121 
3498.000000	65.015268 
3497.000000	65.031909 
3496.000000	65.045714 
3495.000000	65.059161 
3494.000000	65.075516 
3493.000000	65.098452 
3492.000000	65.129876 
3491.000000	65.169453 
3490.000000	65.213370 
3489.000000	65.255331 
3488.000000	65.287017 
3487.000000	65.300202 
3486.000000	65.288400 
3485.000000	65.248727 
3484.000000	65.183091 
3483.000000	65.098142 
3482.000000	65.004587 
3481.000000	64.914965 
3480.000000	64.841222 
3479.000000	64.792680 
3478.000000	64.773988 
3477.000000	64.784979 
3476.000000	64.820599 
3475.000000	64.872097 
3474.000000	64.929628 
3473.000000	64.984250 
3472.000000	65.029859 
3471.000000	65.063786 
3470.000000	65.087199 
3469.000000	65.104079 
3468.000000	65.120100 
3467.000000	65.140628 
3466.000000	65.169548 
3465.000000	65.207529 
3464.000000	65.252518 
3463.000000	65.299201 
3462.000000	65.340781 
3461.000000	65.370106 
3460.000000	65.381431 
3459.000000	65.371561 
3458.000000	65.340399 
3457.000000	65.291309 
3456.000000	65.230035 
3455.000000	65.163993 
3454.000000	65.100789 
3453.000000	65.047311 
3452.000000	65.008640 
3451.000000	64.987826 
3450.000000	64.985871 
3449.000000	65.001821 
3448.000000	65.033102 
3447.000000	65.076231 
3446.000000	65.127134 
3445.000000	65.181708 
3444.000000	65.236043 
3443.000000	65.286493 
3442.000000	65.329647 
3441.000000	65.363025 
3440.000000	65.384864 
3439.000000	65.394401 
3438.000000	65.391564 
3437.000000	65.377211 
3436.000000	65.352821 
3435.000000	65.320730 
3434.000000	65.283584 
3433.000000	65.244412 
3432.000000	65.206003 
3431.000000	65.171265 
3430.000000	65.142226 
3429.000000	65.119981 
3428.000000	65.104651 
3427.000000	65.095090 
3426.000000	65.089678 
3425.000000	65.086436 
3424.000000	65.083765 
3423.000000	65.080595 
3422.000000	65.076565 
3421.000000	65.071749 
3420.000000	65.066409 
3419.000000	65.060734 
3418.000000	65.054774 
3417.000000	65.048265 
3416.000000	65.040731 
3415.000000	65.031695 
3414.000000	65.020966 
3413.000000	65.008902 
3412.000000	64.996290 
3411.000000	64.984416 
3410.000000	64.974784 
3409.000000	64.969182 
3408.000000	64.968943 
3407.000000	64.975380 
3406.000000	64.989018 
3405.000000	65.009784 
3404.000000	65.036988 
3403.000000	65.069127 
3402.000000	65.103650 
3401.000000	65.137338 
3400.000000	65.166759 
3399.000000	65.188598 
3398.000000	65.200209 
3397.000000	65.200090 
3396.000000	65.188479 
3395.000000	65.166854 
3394.000000	65.137863 
3393.000000	65.104556 
3392.000000	65.070152 
3391.000000	65.037322 
3390.000000	65.008139 
3389.000000	64.983940 
3388.000000	64.965438 
3387.000000	64.952969 
3386.000000	64.946722 
3385.000000	64.946746 
3384.000000	64.953064 
3383.000000	64.965581 
3382.000000	64.984107 
3381.000000	65.007805 
3380.000000	65.035462 
3379.000000	65.065169 
3378.000000	65.094661 
3377.000000	65.121436 
3376.000000	65.143251 
3375.000000	65.158343 
3374.000000	65.165567 
3373.000000	65.164780 
3372.000000	65.156459 
3371.000000	65.141963 
3370.000000	65.122914 
3369.000000	65.101337 
3368.000000	65.079045 
3367.000000	65.057587 
3366.000000	65.038156 
3365.000000	65.021705 
3364.000000	65.008807 
3363.000000	64.999794 
3362.000000	64.994812 
3361.000000	64.994001 
3360.000000	64.997148 
3359.000000	65.004014 
3358.000000	65.014100 
3357.000000	65.026664 
3356.000000	65.041041 
3355.000000	65.056419 
3354.000000	65.072035 
3353.000000	65.087294 
3352.000000	65.101742 
3351.000000	65.115094 
3350.000000	65.126919 
3349.000000	65.136933 
3348.000000	65.144872 
3347.000000	65.150642 
3346.000000	65.154290 
3345.000000	65.156245 
3344.000000	65.157270 
3343.000000	65.158367 
3342.000000	65.161037 
3341.000000	65.166401 
3340.000000	65.175461 
3339.000000	65.188312 
3338.000000	65.204334 
3337.000000	65.221619 
3336.000000	65.237545 
3335.000000	65.248966 
3334.000000	65.252995 
3333.000000	65.247607 
3332.000000	65.231990 
3331.000000	65.207290 
3330.000000	65.176105 
3329.000000	65.141844 
3328.000000	65.108180 
3327.000000	65.078306 
3326.000000	65.054416 
3325.000000	65.037345 
3324.000000	65.026640 
3323.000000	65.021014 
3322.000000	65.019059 
3321.000000	65.019583 
3320.000000	65.022230 
3319.000000	65.027070 
3318.000000	65.034794 
3317.000000	65.046119 
3316.000000	65.061354 
3315.000000	65.079903 
3314.000000	65.100216 
3313.000000	65.120053 
3312.000000	65.136671 
3311.000000	65.147638 
3310.000000	65.151190 
3309.000000	65.146756 
3308.000000	65.135025 
3307.000000	65.118145 
3306.000000	65.099430 
3305.000000	65.082812 
3304.000000	65.072202 
3303.000000	65.070772 
3302.000000	65.080499 
3301.000000	65.101480 
3300.000000	65.132069 
3299.000000	65.168833 
3298.000000	65.207266 
3297.000000	65.242552 
3296.000000	65.270495 
3295.000000	65.288043 
3294.000000	65.293765 
3293.000000	65.288066 
3292.000000	65.272855 
3291.000000	65.251493 
3290.000000	65.227723 
3289.000000	65.205383 
3288.000000	65.187573 
3287.000000	65.176272 
3286.000000	65.172243 
3285.000000	65.175032 
3284.000000	65.183258 
3283.000000	65.194916 
3282.000000	65.207719 
3281.000000	65.219235 
3280.000000	65.227437 
3279.000000	65.230512 
3278.000000	65.227127 
3277.000000	65.216422 
3276.000000	65.198254 
3275.000000	65.173172 
3274.000000	65.142488 
3273.000000	65.108394 
3272.000000	65.073418 
3271.000000	65.040516 
3270.000000	65.012359 
3269.000000	64.990758 
3268.000000	64.976453 
3267.000000	64.968705 
3266.000000	64.965844 
3265.000000	64.964985 
3264.000000	64.963769 
3263.000000	64.960408 
3262.000000	64.954805 
3261.000000	64.948153 
3260.000000	64.942932 
3259.000000	64.942097 
3258.000000	64.948344 
3257.000000	64.962983 
3256.000000	64.985823 
3255.000000	65.015006 
3254.000000	65.047550 
3253.000000	65.079975 
3252.000000	65.109133 
3251.000000	65.132737 
3250.000000	65.149903 
3249.000000	65.160870 
3248.000000	65.166664 
3247.000000	65.168571 
3246.000000	65.167737 
3245.000000	65.164923 
3244.000000	65.160250 
3243.000000	65.153503 
3242.000000	65.144824 
3241.000000	65.134477 
3240.000000	65.123367 
3239.000000	65.112686 
3238.000000	65.104031 
3237.000000	65.098786 
3236.000000	65.097737 
3235.000000	65.100836 
3234.000000	65.107226 
3233.000000	65.115284 
3232.000000	65.123033 
3231.000000	65.128469 
3230.000000	65.130138 
3229.000000	65.127491 
3228.000000	65.120863 
3227.000000	65.111541 
3226.000000	65.101385 
3225.000000	65.092444 
3224.000000	65.086698 
3223.000000	65.085363 
3222.000000	65.088772 
3221.000000	65.096712 
3220.000000	65.108108 
3219.000000	65.121674 
3218.000000	65.135717 
3217.000000	65.148782 
3216.000000	65.159606 
3215.000000	65.167355 
3214.000000	65.171551 
3213.000000	65.172195 
3212.000000	65.169477 
3211.000000	65.163969 
3210.000000	65.156364 
3209.000000	65.147376 
3208.000000	65.137767 
3207.000000	65.128612 
3206.000000	65.120959 
3205.000000	65.115928 
3204.000000	65.114450 
3203.000000	65.117216 
3202.000000	65.124154 
3201.000000	65.134286 
3200.000000	65.145730 
3199.000000	65.156006 
3198.000000	65.162611 
3197.000000	65.163683 
3196.000000	65.158510 
3195.000000	65.147614 
3194.000000	65.132951 
3193.000000	65.117311 
3192.000000	65.103602 
3191.000000	65.094113 
3190.000000	65.089869 
3189.000000	65.090489 
3188.000000	65.094184 
3187.000000	65.098595 
3186.000000	65.101432 
3185.000000	65.101313 
3184.000000	65.098071 
3183.000000	65.093016 
3182.000000	65.088176 
3181.000000	65.086007 
3180.000000	65.088462 
3179.000000	65.096545 
3178.000000	65.109992 
3177.000000	65.127277 
3176.000000	65.146303 
3175.000000	65.164613 
3174.000000	65.180063 
3173.000000	65.191149 
3172.000000	65.197181 
3171.000000	65.198397 
3170.000000	65.195536 
3169.000000	65.189504 
3168.000000	65.181207 
3167.000000	65.171241 
3166.000000	65.160226 
3165.000000	65.148353 
3164.000000	65.135908 
3163.000000	65.123271 
3162.000000	65.111398 
3161.000000	65.101575 
3160.000000	65.095400 
3159.000000	65.094399 
3158.000000	65.099978 
3157.000000	65.112757 
3156.000000	65.132641 
3155.000000	65.158271 
3154.000000	65.187525 
3153.000000	65.217685 
3152.000000	65.245842 
3151.000000	65.269303 
3150.000000	65.286254 
3149.000000	65.296006 
3148.000000	65.298891 
3147.000000	65.296006 
3146.000000	65.288853 
3145.000000	65.278863 
3144.000000	65.266847 
3143.000000	65.252780 
3142.000000	65.236139 
3141.000000	65.215778 
3140.000000	65.190982 
3139.000000	65.161681 
3138.000000	65.128993 
3137.000000	65.094947 
3136.000000	65.062403 
3135.000000	65.034198 
3134.000000	65.012335 
3133.000000	64.997959 
3132.000000	64.990496 
3131.000000	64.988493 
3130.000000	64.989590 
3129.000000	64.991950 
3128.000000	64.994573 
3127.000000	64.998173 
3126.000000	65.004420 
3125.000000	65.015983 
3124.000000	65.035080 
3123.000000	65.062713 
3122.000000	65.097975 
3121.000000	65.138053 
3120.000000	65.178799 
3119.000000	65.215516 
3118.000000	65.244150 
3117.000000	65.262293 
3116.000000	65.269446 
3115.000000	65.267324 
3114.000000	65.258932 
3113.000000	65.247893 
3112.000000	65.237116 
3111.000000	65.228605 
3110.000000	65.222692 
3109.000000	65.218591 
3108.000000	65.214395 
3107.000000	65.208578 
3106.000000	65.200066 
3105.000000	65.188956 
3104.000000	65.176463 
3103.000000	65.164518 
3102.000000	65.155386 
3101.000000	65.150904 
3100.000000	65.152096 
3099.000000	65.158820 
3098.000000	65.169858 
3097.000000	65.183186 
3096.000000	65.196537 
3095.000000	65.207934 
3094.000000	65.215826 
3093.000000	65.219426 
3092.000000	65.218639 
3091.000000	65.213847 
3090.000000	65.205717 
3089.000000	65.194725 
3088.000000	65.181422 
3087.000000	65.166091 
3086.000000	65.149259 
3085.000000	65.131759 
3084.000000	65.114736 
3083.000000	65.099549 
3082.000000	65.087556 
3081.000000	65.079712 
3080.000000	65.076375 
3079.000000	65.076899 
3078.000000	65.079617 
3077.000000	65.082311 
3076.000000	65.082526 
3075.000000	65.078544 
3074.000000	65.069627 
3073.000000	65.056896 
3072.000000	65.042853 
3071.000000	65.031266 
3070.000000	65.026044 
3069.000000	65.030574 
3068.000000	65.046691 
3067.000000	65.074157 
3066.000000	65.110492 
3065.000000	65.151333 
3064.000000	65.191268 
3063.000000	65.224814 
3062.000000	65.247440 
3061.000000	65.256428 
3060.000000	65.251135 
3059.000000	65.233016 
3058.000000	65.205097 
3057.000000	65.171504 
3056.000000	65.136528 
3055.000000	65.104055 
3054.000000	65.076899 
3053.000000	65.057063 
3052.000000	65.045189 
3051.000000	65.041112 
3050.000000	65.043902 
3049.000000	65.052103 
3048.000000	65.064311 
3047.000000	65.079021 
3046.000000	65.095114 
3045.000000	65.111351 
3044.000000	65.126895 
3043.000000	65.141034 
3042.000000	65.153241 
3041.000000	65.163064 
3040.000000	65.170335 
3039.000000	65.175104 
3038.000000	65.177655 
3037.000000	65.178322 
3036.000000	65.177583 
3035.000000	65.175986 
3034.000000	65.173912 
3033.000000	65.171694 
3032.000000	65.169739 
3031.000000	65.168595 
3030.000000	65.168809 
3029.000000	65.171122 
3028.000000	65.176224 
3027.000000	65.184783 
3026.000000	65.197086 
3025.000000	65.212821 
3024.000000	65.231013 
3023.000000	65.249967 
3022.000000	65.267634 
3021.000000	65.281891 
3020.000000	65.290999 
3019.000000	65.293717 
3018.000000	65.289831 
3017.000000	65.279626 
3016.000000	65.264081 
3015.000000	65.244293 
3014.000000	65.221309 
3013.000000	65.196204 
3012.000000	65.169978 
3011.000000	65.143728 
3010.000000	65.118718 
3009.000000	65.096378 
3008.000000	65.078353 
3007.000000	65.066051 
3006.000000	65.060424 
3005.000000	65.061736 
3004.000000	65.069365 
3003.000000	65.081715 
3002.000000	65.096735 
3001.000000	65.112137 
3000.000000	65.125608 
2999.000000	65.135455 
2998.000000	65.140390 
2997.000000	65.139937 
2996.000000	65.134143 
2995.000000	65.123391 
2994.000000	65.108466 
2993.000000	65.090584 
2992.000000	65.071105 
2991.000000	65.051651 
2990.000000	65.033936 
2989.000000	65.019512 
2988.000000	65.009498 
2987.000000	65.004611 
2986.000000	65.004730 
2985.000000	65.009236 
2984.000000	65.017104 
2983.000000	65.027165 
2982.000000	65.038394 
2981.000000	65.049934 
2980.000000	65.061450 
2979.000000	65.072894 
2978.000000	65.084290 
2977.000000	65.095472 
2976.000000	65.106010 
2975.000000	65.115118 
2974.000000	65.121793 
2973.000000	65.124917 
2972.000000	65.123891 
2971.000000	65.118527 
2970.000000	65.109300 
2969.000000	65.097093 
2968.000000	65.083217 
2967.000000	65.069031 
2966.000000	65.055847 
2965.000000	65.044546 
2964.000000	65.035533 
2963.000000	65.028643 
2962.000000	65.023446 
2961.000000	65.019249 
2960.000000	65.015363 
2959.000000	65.011239 
2958.000000	65.006661 
2957.000000	65.001583 
2956.000000	64.996170 
2955.000000	64.990711 
2954.000000	64.985466 
2953.000000	64.980411 
2952.000000	64.975380 
2951.000000	64.969968 
2950.000000	64.964151 
2949.000000	64.957833 
2948.000000	64.951705 
2947.000000	64.946866 
2946.000000	64.944982 
2945.000000	64.947915 
2944.000000	64.956951 
2943.000000	64.972352 
2942.000000	64.992904 
2941.000000	65.016078 
2940.000000	65.038108 
2939.000000	65.054774 
2938.000000	65.062355 
2937.000000	65.058660 
2936.000000	65.043044 
2935.000000	65.016889 
2934.000000	64.982914 
2933.000000	64.944934 
2932.000000	64.906477 
2931.000000	64.870047 
2930.000000	64.836788 
2929.000000	64.806675 
2928.000000	64.778852 
2927.000000	64.752268 
2926.000000	64.726495 
2925.000000	64.702057 
2924.000000	64.680171 
2923.000000	64.662885 
2922.000000	64.651751 
2921.000000	64.648270 
2920.000000	64.652800 
2919.000000	64.665055 
2918.000000	64.683675 
2917.000000	64.707112 
2916.000000	64.733433 
2915.000000	64.760994 
2914.000000	64.788460 
2913.000000	64.814972 
2912.000000	64.839935 
2911.000000	64.863300 
2910.000000	64.884996 
2909.000000	64.905238 
2908.000000	64.924407 
2907.000000	64.942789 
2906.000000	64.960503 
2905.000000	64.977121 
2904.000000	64.991712 
2903.000000	65.002965 
2902.000000	65.009522 
2901.000000	65.010190 
2900.000000	65.004372 
2899.000000	64.992713 
2898.000000	64.976859 
2897.000000	64.959049 
2896.000000	64.941549 
2895.000000	64.926290 
2894.000000	64.914608 
2893.000000	64.906764 
2892.000000	64.902663 
2891.000000	64.901661 
2890.000000	64.903283 
2889.000000	64.907264 
2888.000000	64.913678 
2887.000000	64.922666 
2886.000000	64.934277 
2885.000000	64.948153 
2884.000000	64.963507 
2883.000000	64.978575 
2882.000000	64.991497 
2881.000000	65.000677 
2880.000000	65.005254 
2879.000000	65.005111 
2878.000000	65.001249 
2877.000000	64.995360 
2876.000000	64.989614 
2875.000000	64.986109 
2874.000000	64.986586 
2873.000000	64.991807 
2872.000000	65.001916 
2871.000000	65.015959 
2870.000000	65.032219 
2869.000000	65.048360 
2868.000000	65.061974 
2867.000000	65.070986 
2866.000000	65.074014 
2865.000000	65.070915 
2864.000000	65.062761 
2863.000000	65.051412 
2862.000000	65.039420 
2861.000000	65.028810 
2860.000000	65.021038 
2859.000000	65.016174 
2858.000000	65.012955 
2857.000000	65.009140 
2856.000000	65.002274 
2855.000000	64.990592 
2854.000000	64.973974 
2853.000000	64.954257 
2852.000000	64.934968 
2851.000000	64.920759 
2850.000000	64.916205 
2849.000000	64.924693 
2848.000000	64.947390 
2847.000000	64.983081 
2846.000000	65.028333 
2845.000000	65.078353 
2844.000000	65.127849 
2843.000000	65.172052 
2842.000000	65.207600 
2841.000000	65.232682 
2840.000000	65.247297 
2839.000000	65.252518 
2838.000000	65.250253 
2837.000000	65.242457 
2836.000000	65.231060 
2835.000000	65.217852 
2834.000000	65.204167 
2833.000000	65.191531 
2832.000000	65.181040 
2831.000000	65.173888 
2830.000000	65.170884 
2829.000000	65.172410 
2828.000000	65.178322 
2827.000000	65.187811 
2826.000000	65.199661 
2825.000000	65.212225 
2824.000000	65.223908 
2823.000000	65.233325 
2822.000000	65.239405 
2821.000000	65.241646 
2820.000000	65.240025 
2819.000000	65.235257 
2818.000000	65.228438 
2817.000000	65.221047 
2816.000000	65.214896 
2815.000000	65.211653 
2814.000000	65.212726 
2813.000000	65.218830 
2812.000000	65.230035 
2811.000000	65.245246 
2810.000000	65.262532 
2809.000000	65.279269 
2808.000000	65.292763 
2807.000000	65.300917 
2806.000000	65.302491 
2805.000000	65.297508 
2804.000000	65.287113 
2803.000000	65.273451 
2802.000000	65.259003 
2801.000000	65.245938 
2800.000000	65.235590 
2799.000000	65.228271 
2798.000000	65.223121 
2797.000000	65.218758 
2796.000000	65.213584 
2795.000000	65.206503 
2794.000000	65.197253 
2793.000000	65.186452 
2792.000000	65.175604 
2791.000000	65.166306 
2790.000000	65.160226 
2789.000000	65.158534 
2788.000000	65.161752 
2787.000000	65.169620 
2786.000000	65.181279 
2785.000000	65.195488 
2784.000000	65.210986 
2783.000000	65.226411 
2782.000000	65.240836 
2781.000000	65.253663 
2780.000000	65.264630 
2779.000000	65.273618 
2778.000000	65.280437 
2777.000000	65.284776 
2776.000000	65.286183 
2775.000000	65.284085 
2774.000000	65.278124 
2773.000000	65.268206 
2772.000000	65.254831 
2771.000000	65.239262 
2770.000000	65.223360 
2769.000000	65.209341 
2768.000000	65.199470 
2767.000000	65.195703 
2766.000000	65.198898 
2765.000000	65.208649 
2764.000000	65.223169 
2763.000000	65.239739 
2762.000000	65.254998 
2761.000000	65.265822 
2760.000000	65.269708 
2759.000000	65.265417 
2758.000000	65.252971 
2757.000000	65.233588 
2756.000000	65.209412 
2755.000000	65.183162 
2754.000000	65.157651 
2753.000000	65.135431 
2752.000000	65.118432 
2751.000000	65.107846 
2750.000000	65.104126 
2749.000000	65.106725 
2748.000000	65.114355 
2747.000000	65.125274 
2746.000000	65.137505 
2745.000000	65.149235 
2744.000000	65.159010 
2743.000000	65.166234 
2742.000000	65.170955 
2741.000000	65.174031 
2740.000000	65.176725 
2739.000000	65.180397 
2738.000000	65.185904 
2737.000000	65.193533 
2736.000000	65.202832 
2735.000000	65.212821 
2734.000000	65.222263 
2733.000000	65.230011 
2732.000000	65.235590 
2731.000000	65.239143 
2730.000000	65.241312 
2729.000000	65.243220 
2728.000000	65.245699 
2727.000000	65.249156 
2726.000000	65.253186 
2725.000000	65.256810 
2724.000000	65.258526 
2723.000000	65.257048 
2722.000000	65.251851 
2721.000000	65.243315 
2720.000000	65.232658 
2719.000000	65.221738 
2718.000000	65.212440 
2717.000000	65.206146 
2716.000000	65.203380 
2715.000000	65.203619 
2714.000000	65.205430 
2713.000000	65.206980 
2712.000000	65.206432 
2711.000000	65.202713 
2710.000000	65.195465 
2709.000000	65.185475 
2708.000000	65.174269 
2707.000000	65.163755 
2706.000000	65.155863 
2705.000000	65.152001 
2704.000000	65.152812 
2703.000000	65.158081 
2702.000000	65.166878 
2701.000000	65.177536 
2700.000000	65.188193 
2699.000000	65.197110 
2698.000000	65.202832 
2697.000000	65.204620 
2696.000000	65.202403 
2695.000000	65.196919 
2694.000000	65.189385 
2693.000000	65.181326 
2692.000000	65.174126 
2691.000000	65.168619 
2690.000000	65.165185 
2689.000000	65.163445 
2688.000000	65.162587 
2687.000000	65.161609 
2686.000000	65.159535 
2685.000000	65.155839 
2684.000000	65.150690 
2683.000000	65.144753 
2682.000000	65.139174 
2681.000000	65.135264 
2680.000000	65.134406 
2679.000000	65.137386 
2678.000000	65.144491 
2677.000000	65.155553 
2676.000000	65.170001 
2675.000000	65.186882 
2674.000000	65.205049 
2673.000000	65.223240 
2672.000000	65.240383 
2671.000000	65.255451 
2670.000000	65.267682 
2669.000000	65.276646 
2668.000000	65.282320 
2667.000000	65.285229 
2666.000000	65.286064 
2665.000000	65.285396 
2664.000000	65.283679 
2663.000000	65.281224 
2662.000000	65.277743 
2661.000000	65.272641 
2660.000000	65.265178 
2659.000000	65.254640 
2658.000000	65.240621 
2657.000000	65.223002 
2656.000000	65.202021 
2655.000000	65.178203 
2654.000000	65.152406 
2653.000000	65.125417 
2652.000000	65.097975 
2651.000000	65.070843 
2650.000000	65.044856 
2649.000000	65.021204 
2648.000000	65.000939 
2647.000000	64.985609 
2646.000000	64.976644 
2645.000000	64.975571 
2644.000000	64.983057 
2643.000000	64.999485 
2642.000000	65.024256 
2641.000000	65.056395 
2640.000000	65.094113 
2639.000000	65.135622 
2638.000000	65.178871 
2637.000000	65.222144 
2636.000000	65.263819 
2635.000000	65.302419 
2634.000000	65.336704 
2633.000000	65.365409 
2632.000000	65.387487 
2631.000000	65.402007 
2630.000000	65.408396 
2629.000000	65.406680 
2628.000000	65.397334 
2627.000000	65.381479 
2626.000000	65.360498 
2625.000000	65.336227 
2624.000000	65.310239 
2623.000000	65.283799 
2622.000000	65.257740 
2621.000000	65.232610 
2620.000000	65.208888 
2619.000000	65.186953 
2618.000000	65.167498 
2617.000000	65.151476 
2616.000000	65.140128 
2615.000000	65.134501 
2614.000000	65.135335 
2613.000000	65.142464 
2612.000000	65.155053 
2611.000000	65.171504 
2610.000000	65.189552 
2609.000000	65.206694 
2608.000000	65.220928 
2607.000000	65.231132 
2606.000000	65.236806 
2605.000000	65.238261 
2604.000000	65.236330 
2603.000000	65.232110 
2602.000000	65.226411 
2601.000000	65.219759 
2600.000000	65.212416 
2599.000000	65.204644 
2598.000000	65.196847 
2597.000000	65.189576 
2596.000000	65.183663 
2595.000000	65.179896 
2594.000000	65.179085 
2593.000000	65.181636 
2592.000000	65.187263 
2591.000000	65.195345 
2590.000000	65.205025 
2589.000000	65.215587 
2588.000000	65.226340 
2587.000000	65.236854 
2586.000000	65.247154 
2585.000000	65.257167 
2584.000000	65.266418 
2583.000000	65.273880 
2582.000000	65.278244 
2581.000000	65.277934 
2580.000000	65.271878 
2579.000000	65.259766 
2578.000000	65.242290 
2577.000000	65.221357 
2576.000000	65.199589 
2575.000000	65.179729 
2574.000000	65.164232 
2573.000000	65.154743 
2572.000000	65.151977 
2571.000000	65.155673 
2570.000000	65.165042 
2569.000000	65.178871 
2568.000000	65.196275 
2567.000000	65.216541 
2566.000000	65.239214 
2565.000000	65.263938 
2564.000000	65.290236 
2563.000000	65.317249 
2562.000000	65.343713 
2561.000000	65.368270 
2560.000000	65.389442 
2559.000000	65.406179 
2558.000000	65.417671 
2557.000000	65.423607 
2556.000000	65.424013 
2555.000000	65.419220 
2554.000000	65.409588 
2553.000000	65.395736 
2552.000000	65.378355 
2551.000000	65.358471 
2550.000000	65.337371 
2549.000000	65.316653 
2548.000000	65.297937 
2547.000000	65.282702 
2546.000000	65.272164 
2545.000000	65.266895 
2544.000000	65.266704 
2543.000000	65.270781 
2542.000000	65.277695 
2541.000000	65.285944 
2540.000000	65.293955 
2539.000000	65.300488 
2538.000000	65.304780 
2537.000000	65.306591 
2536.000000	65.305685 
2535.000000	65.302348 
2534.000000	65.296936 
2533.000000	65.289855 
2532.000000	65.281581 
2531.000000	65.272879 
2530.000000	65.264558 
2529.000000	65.257787 
2528.000000	65.253639 
2527.000000	65.253162 
2526.000000	65.257096 
2525.000000	65.265774 
2524.000000	65.278673 
2523.000000	65.294599 
2522.000000	65.311574 
2521.000000	65.327310 
2520.000000	65.339422 
2519.000000	65.346026 
2518.000000	65.345835 
2517.000000	65.338563 
2516.000000	65.325021 
2515.000000	65.306901 
2514.000000	65.286421 
2513.000000	65.265941 
2512.000000	65.247583 
2511.000000	65.232872 
2510.000000	65.222549 
2509.000000	65.216612 
2508.000000	65.214252 
2507.000000	65.214347 
2506.000000	65.215587 
2505.000000	65.216779 
2504.000000	65.217065 
2503.000000	65.215849 
2502.000000	65.212917 
2501.000000	65.208435 
2500.000000	65.202856 
2499.000000	65.196800 
2498.000000	65.191125 
2497.000000	65.186643 
2496.000000	65.184330 
2495.000000	65.184855 
2494.000000	65.188503 
2493.000000	65.195131 
2492.000000	65.204000 
2491.000000	65.213751 
2490.000000	65.222692 
2489.000000	65.229082 
2488.000000	65.231442 
2487.000000	65.229058 
2486.000000	65.222096 
2485.000000	65.211653 
2484.000000	65.199518 
2483.000000	65.188002 
2482.000000	65.179347 
2481.000000	65.175437 
2480.000000	65.177440 
2479.000000	65.185594 
2478.000000	65.199470 
2477.000000	65.217971 
2476.000000	65.239763 
2475.000000	65.263295 
2474.000000	65.287160 
2473.000000	65.309977 
2472.000000	65.330553 
2471.000000	65.347766 
2470.000000	65.360760 
2469.000000	65.368914 
2468.000000	65.372061 
2467.000000	65.370535 
2466.000000	65.365362 
2465.000000	65.357899 
2464.000000	65.349650 
2463.000000	65.341949 
2462.000000	65.335702 
2461.000000	65.331149 
2460.000000	65.327692 
2459.000000	65.324234 
2458.000000	65.319561 
2457.000000	65.312600 
2456.000000	65.302872 
2455.000000	65.290665 
2454.000000	65.276885 
2453.000000	65.262937 
2452.000000	65.250229 
2451.000000	65.239906 
2450.000000	65.232467 
2449.000000	65.227842 
2448.000000	65.225291 
2447.000000	65.223813 
2446.000000	65.222311 
2445.000000	65.219879 
2444.000000	65.215945 
2443.000000	65.210342 
2442.000000	65.203404 
2441.000000	65.195727 
2440.000000	65.187931 
2439.000000	65.180587 
2438.000000	65.174078 
2437.000000	65.168642 
2436.000000	65.164351 
2435.000000	65.161228 
2434.000000	65.159368 
2433.000000	65.159082 
2432.000000	65.160799 
2431.000000	65.164995 
2430.000000	65.171933 
2429.000000	65.181589 
2428.000000	65.193533 
2427.000000	65.206861 
2426.000000	65.220260 
2425.000000	65.232253 
2424.000000	65.241551 
2423.000000	65.247321 
2422.000000	65.249466 
2421.000000	65.248632 
2420.000000	65.246105 
2419.000000	65.243458 
2418.000000	65.242099 
2417.000000	65.243005 
2416.000000	65.246462 
2415.000000	65.252041 
2414.000000	65.258669 
2413.000000	65.265250 
2412.000000	65.270686 
2411.000000	65.274357 
2410.000000	65.275979 
2409.000000	65.275859 
2408.000000	65.274381 
2407.000000	65.271925 
2406.000000	65.268588 
2405.000000	65.264201 
2404.000000	65.258336 
2403.000000	65.250515 
2402.000000	65.240359 
2401.000000	65.227890 
2400.000000	65.213465 
2399.000000	65.198016 
2398.000000	65.182542 
2397.000000	65.168070 
2396.000000	65.155267 
2395.000000	65.144538 
2394.000000	65.136122 
2393.000000	65.129804 
2392.000000	65.125823 
2391.000000	65.124654 
2390.000000	65.127158 
2389.000000	65.134382 
2388.000000	65.147471 
2387.000000	65.167093 
2386.000000	65.193152 
2385.000000	65.224647 
2384.000000	65.259695 
2383.000000	65.295791 
2382.000000	65.330338 
2381.000000	65.360713 
2380.000000	65.385055 
2379.000000	65.402126 
2378.000000	65.411639 
2377.000000	65.413761 
2376.000000	65.409016 
2375.000000	65.398097 
2374.000000	65.381860 
2373.000000	65.361166 
2372.000000	65.337061 
2371.000000	65.310740 
2370.000000	65.283799 
2369.000000	65.257883 
2368.000000	65.234613 
2367.000000	65.215253 
2366.000000	65.200614 
2365.000000	65.190958 
2364.000000	65.185976 
2363.000000	65.184903 
2362.000000	65.186715 
2361.000000	65.190148 
2360.000000	65.194010 
2359.000000	65.196990 
2358.000000	65.198016 
2357.000000	65.196371 
2356.000000	65.191912 
2355.000000	65.184998 
2354.000000	65.176653 
2353.000000	65.168499 
2352.000000	65.162682 
2351.000000	65.161252 
2350.000000	65.165829 
2349.000000	65.177273 
2348.000000	65.195250 
2347.000000	65.218234 
2346.000000	65.243673 
2345.000000	65.268325 
2344.000000	65.289115 
2343.000000	65.303611 
2342.000000	65.310478 
2341.000000	65.309524 
2340.000000	65.301871 
2339.000000	65.289592 
2338.000000	65.275025 
2337.000000	65.260171 
2336.000000	65.246486 
2335.000000	65.234589 
2334.000000	65.224051 
2333.000000	65.213751 
2332.000000	65.202379 
2331.000000	65.188884 
2330.000000	65.172910 
2329.000000	65.155220 
2328.000000	65.137267 
2327.000000	65.121197 
2326.000000	65.109276 
2325.000000	65.103507 
2324.000000	65.104866 
2323.000000	65.113425 
2322.000000	65.128183 
2321.000000	65.147614 
2320.000000	65.169548 
2319.000000	65.192127 
2318.000000	65.213847 
2317.000000	65.233969 
2316.000000	65.252184 
2315.000000	65.268778 
2314.000000	65.284395 
2313.000000	65.299606 
2312.000000	65.314722 
2311.000000	65.329933 
2310.000000	65.345191 
2309.000000	65.360355 
2308.000000	65.375161 
2307.000000	65.389251 
2306.000000	65.402078 
2305.000000	65.413117 
2304.000000	65.421652 
2303.000000	65.427184 
2302.000000	65.429043 
2301.000000	65.427136 
2300.000000	65.421772 
2299.000000	65.413641 
2298.000000	65.403771 
2297.000000	65.393662 
2296.000000	65.384721 
2295.000000	65.378189 
2294.000000	65.374732 
2293.000000	65.374660 
2292.000000	65.377616 
2291.000000	65.382766 
2290.000000	65.388846 
2289.000000	65.394449 
2288.000000	65.398073 
2287.000000	65.398621 
2286.000000	65.395307 
2285.000000	65.387773 
2284.000000	65.376138 
2283.000000	65.361118 
2282.000000	65.343856 
2281.000000	65.325665 
2280.000000	65.308117 
2279.000000	65.292716 
2278.000000	65.280437 
2277.000000	65.272068 
2276.000000	65.267777 
2275.000000	65.267515 
2274.000000	65.270733 
2273.000000	65.276789 
2272.000000	65.285253 
2271.000000	65.295624 
2270.000000	65.307712 
2269.000000	65.321040 
2268.000000	65.335035 
2267.000000	65.348696 
2266.000000	65.360593 
2265.000000	65.368914 
2264.000000	65.371775 
2263.000000	65.367627 
2262.000000	65.355873 
2261.000000	65.337133 
2260.000000	65.313458 
2259.000000	65.288090 
2258.000000	65.264749 
2257.000000	65.247035 
2256.000000	65.237593 
2255.000000	65.237545 
2254.000000	65.246105 
2253.000000	65.260958 
2252.000000	65.278816 
2251.000000	65.296196 
2250.000000	65.310263 
2249.000000	65.319085 
2248.000000	65.322160 
2247.000000	65.320158 
2246.000000	65.314531 
2245.000000	65.306901 
2244.000000	65.298628 
2243.000000	65.290617 
2242.000000	65.283155 
2241.000000	65.276217 
2240.000000	65.269517 
2239.000000	65.262985 
2238.000000	65.256762 
2237.000000	65.251278 
2236.000000	65.246868 
2235.000000	65.243840 
2234.000000	65.242123 
2233.000000	65.241360 
2232.000000	65.240979 
2231.000000	65.240240 
2230.000000	65.238571 
2229.000000	65.235495 
2228.000000	65.230989 
2227.000000	65.225434 
2226.000000	65.219569 
2225.000000	65.214157 
2224.000000	65.210127 
2223.000000	65.208244 
2222.000000	65.209126 
2221.000000	65.212965 
2220.000000	65.219616 
2219.000000	65.228557 
2218.000000	65.239071 
2217.000000	65.250420 
2216.000000	65.261721 
2215.000000	65.272235 
2214.000000	65.281486 
2213.000000	65.289306 
2212.000000	65.295886 
2211.000000	65.301465 
2210.000000	65.306210 
2209.000000	65.310192 
2208.000000	65.313172 
2207.000000	65.314888 
2206.000000	65.314984 
2205.000000	65.313410 
2204.000000	65.310406 
2203.000000	65.306544 
2202.000000	65.302777 
2201.000000	65.300107 
2200.000000	65.299391 
2199.000000	65.301156 
2198.000000	65.305233 
2197.000000	65.311026 
2196.000000	65.317344 
2195.000000	65.322685 
2194.000000	65.325760 
2193.000000	65.325522 
2192.000000	65.321874 
2191.000000	65.315151 
2190.000000	65.306639 
2189.000000	65.297913 
2188.000000	65.290808 
2187.000000	65.286803 
2186.000000	65.286874 
2185.000000	65.291213 
2184.000000	65.299248 
2183.000000	65.309882 
2182.000000	65.321540 
2181.000000	65.332722 
2180.000000	65.341949 
2179.000000	65.348148 
2178.000000	65.350627 
2177.000000	65.349006 
2176.000000	65.343117 
2175.000000	65.332937 
2174.000000	65.318608 
2173.000000	65.300512 
2172.000000	65.279459 
2171.000000	65.256857 
2170.000000	65.234518 
2169.000000	65.214610 
2168.000000	65.199160 
2167.000000	65.189671 
2166.000000	65.186643 
2165.000000	65.189504 
2164.000000	65.196847 
2163.000000	65.206575 
2162.000000	65.216493 
2161.000000	65.224623 
2160.000000	65.229606 
2159.000000	65.231132 
2158.000000	65.229582 
2157.000000	65.225958 
2156.000000	65.221548 
2155.000000	65.217566 
2154.000000	65.214729 
2153.000000	65.213298 
2152.000000	65.212965 
2151.000000	65.213084 
2150.000000	65.212965 
2149.000000	65.211963 
2148.000000	65.209889 
2147.000000	65.206909 
2146.000000	65.203595 
2145.000000	65.200757 
2144.000000	65.199255 
2143.000000	65.199732 
2142.000000	65.202450 
2141.000000	65.207099 
2140.000000	65.212821 
2139.000000	65.218496 
2138.000000	65.223097 
2137.000000	65.226006 
2136.000000	65.227246 
2135.000000	65.227651 
2134.000000	65.228462 
2133.000000	65.231037 
2132.000000	65.236234 
2131.000000	65.244245 
2130.000000	65.254187 
2129.000000	65.264511 
2128.000000	65.273332 
2127.000000	65.278887 
2126.000000	65.280008 
2125.000000	65.276503 
2124.000000	65.269279 
2123.000000	65.260124 
2122.000000	65.251159 
2121.000000	65.244436 
2120.000000	65.241456 
2119.000000	65.242791 
2118.000000	65.248155 
2117.000000	65.256500 
2116.000000	65.266251 
2115.000000	65.275764 
2114.000000	65.283536 
2113.000000	65.288567 
2112.000000	65.290260 
2111.000000	65.288686 
2110.000000	65.284633 
2109.000000	65.279293 
2108.000000	65.274167 
2107.000000	65.270566 
2106.000000	65.269637 
2105.000000	65.271806 
2104.000000	65.276813 
2103.000000	65.283751 
2102.000000	65.291309 
2101.000000	65.298008 
2100.000000	65.302729 
2099.000000	65.304923 
2098.000000	65.304446 
2097.000000	65.301918 
2096.000000	65.298295 
2095.000000	65.294766 
2094.000000	65.292358 
2093.000000	65.291762 
2092.000000	65.293169 
2091.000000	65.296339 
2090.000000	65.300607 
2089.000000	65.304994 
2088.000000	65.308427 
2087.000000	65.309929 
2086.000000	65.308570 
2085.000000	65.303730 
2084.000000	65.295076 
2083.000000	65.282607 
2082.000000	65.266633 
2081.000000	65.247964 
2080.000000	65.227723 
2079.000000	65.207457 
2078.000000	65.188860 
2077.000000	65.173697 
2076.000000	65.163326 
2075.000000	65.158605 
2074.000000	65.159654 
2073.000000	65.165805 
2072.000000	65.175843 
2071.000000	65.188455 
2070.000000	65.202188 
2069.000000	65.215849 
2068.000000	65.228414 
2067.000000	65.239000 
2066.000000	65.246820 
2065.000000	65.251159 
2064.000000	65.251445 
2063.000000	65.247416 
2062.000000	65.239477 
2061.000000	65.228557 
2060.000000	65.216231 
2059.000000	65.204286 
2058.000000	65.194630 
2057.000000	65.188670 
2056.000000	65.186977 
2055.000000	65.189361 
2054.000000	65.194559 
2053.000000	65.200781 
2052.000000	65.206050 
2051.000000	65.208721 
2050.000000	65.207862 
2049.000000	65.203404 
2048.000000	65.196108 
2047.000000	65.187335 
2046.000000	65.178728 
2045.000000	65.171813 
2044.000000	65.167593 
2043.000000	65.166568 
2042.000000	65.168714 
2041.000000	65.173506 
2040.000000	65.180206 
2039.000000	65.187978 
2038.000000	65.195941 
2037.000000	65.203452 
2036.000000	65.210175 
2035.000000	65.215921 
2034.000000	65.220665 
2033.000000	65.224719 
2032.000000	65.228343 
2031.000000	65.231943 
2030.000000	65.235781 
2029.000000	65.239810 
2028.000000	65.243554 
2027.000000	65.246295 
2026.000000	65.247011 
2025.000000	65.244817 
2024.000000	65.239048 
2023.000000	65.229654 
2022.000000	65.217232 
2021.000000	65.203189 
2020.000000	65.189528 
2019.000000	65.178370 
2018.000000	65.171718 
2017.000000	65.170788 
2016.000000	65.176057 
2015.000000	65.187001 
2014.000000	65.202283 
2013.000000	65.219950 
2012.000000	65.237951 
2011.000000	65.254449 
2010.000000	65.268015 
2009.000000	65.277767 
2008.000000	65.283465 
2007.000000	65.285325 
2006.000000	65.284252 
2005.000000	65.281534 
2004.000000	65.278553 
2003.000000	65.276598 
2002.000000	65.276789 
2001.000000	65.279459 
2000.000000	65.284323 
1999.000000	65.290331 
1998.000000	65.295910 
1997.000000	65.299201 
1996.000000	65.298676 
1995.000000	65.293550 
1994.000000	65.283989 
1993.000000	65.271520 
1992.000000	65.258479 
1991.000000	65.247845 
1990.000000	65.242385 
1989.000000	65.244269 
1988.000000	65.254473 
1987.000000	65.272450 
1986.000000	65.296196 
1985.000000	65.322685 
1984.000000	65.348505 
1983.000000	65.370225 
1982.000000	65.385079 
1981.000000	65.391397 
1980.000000	65.388560 
1979.000000	65.377211 
1978.000000	65.359020 
1977.000000	65.336179 
1976.000000	65.311121 
1975.000000	65.286183 
1974.000000	65.263366 
1973.000000	65.244174 
1972.000000	65.229439 
1971.000000	65.219378 
1970.000000	65.213918 
1969.000000	65.212368 
1968.000000	65.214133 
1967.000000	65.218615 
1966.000000	65.225505 
1965.000000	65.234494 
1964.000000	65.245604 
1963.000000	65.258955 
1962.000000	65.274667 
1961.000000	65.292620 
1960.000000	65.312528 
1959.000000	65.333724 
1958.000000	65.355300 
1957.000000	65.376114 
1956.000000	65.394830 
1955.000000	65.410113 
1954.000000	65.420794 
1953.000000	65.426063 
1952.000000	65.425539 
1951.000000	65.419292 
1950.000000	65.408182 
1949.000000	65.393304 
1948.000000	65.376162 
1947.000000	65.358400 
1946.000000	65.341520 
1945.000000	65.326547 
1944.000000	65.313839 
1943.000000	65.303087 
1942.000000	65.293717 
1941.000000	65.284943 
1940.000000	65.276169 
1939.000000	65.267276 
1938.000000	65.258717 
1937.000000	65.251588 
1936.000000	65.247154 
1935.000000	65.246415 
1934.000000	65.249705 
1933.000000	65.256500 
1932.000000	65.265345 
1931.000000	65.274024 
1930.000000	65.280246 
1929.000000	65.282034 
1928.000000	65.278458 
1927.000000	65.269851 
1926.000000	65.257692 
1925.000000	65.244245 
1924.000000	65.232157 
1923.000000	65.223574 
1922.000000	65.219831 
1921.000000	65.221071 
1920.000000	65.226674 
1919.000000	65.235304 
1918.000000	65.245366 
1917.000000	65.255665 
1916.000000	65.265512 
1915.000000	65.274763 
1914.000000	65.283751 
1913.000000	65.292859 
1912.000000	65.301990 
1911.000000	65.310740 
1910.000000	65.318179 
1909.000000	65.323066 
1908.000000	65.324306 
1907.000000	65.321397 
1906.000000	65.314531 
1905.000000	65.304803 
1904.000000	65.294027 
1903.000000	65.284442 
1902.000000	65.278124 
1901.000000	65.276575 
1900.000000	65.280389 
1899.000000	65.289020 
1898.000000	65.301036 
1897.000000	65.314197 
1896.000000	65.325975 
1895.000000	65.334177 
1894.000000	65.337133 
1893.000000	65.333986 
1892.000000	65.324950 
1891.000000	65.310978 
1890.000000	65.293717 
1889.000000	65.274930 
1888.000000	65.256428 
1887.000000	65.239691 
1886.000000	65.225768 
1885.000000	65.215301 
1884.000000	65.208458 
1883.000000	65.205287 
1882.000000	65.205740 
1881.000000	65.209913 
1880.000000	65.217709 
1879.000000	65.229058 
1878.000000	65.243649 
1877.000000	65.260815 
1876.000000	65.279436 
1875.000000	65.298151 
1874.000000	65.315508 
1873.000000	65.330052 
1872.000000	65.340614 
1871.000000	65.346407 
1870.000000	65.347170 
1869.000000	65.343213 
1868.000000	65.335345 
1867.000000	65.324616 
1866.000000	65.312337 
1865.000000	65.299916 
1864.000000	65.288734 
1863.000000	65.279984 
1862.000000	65.274620 
1861.000000	65.273284 
1860.000000	65.276074 
1859.000000	65.282297 
1858.000000	65.290951 
1857.000000	65.300559 
1856.000000	65.309643 
1855.000000	65.316867 
1854.000000	65.321373 
1853.000000	65.322923 
1852.000000	65.321803 
1851.000000	65.318608 
1850.000000	65.313982 
1849.000000	65.308427 
1848.000000	65.302443 
1847.000000	65.296411 
1846.000000	65.290760 
1845.000000	65.285849 
1844.000000	65.282344 
1843.000000	65.280961 
1842.000000	65.282154 
1841.000000	65.286135 
1840.000000	65.292429 
1839.000000	65.300297 
1838.000000	65.308356 
1837.000000	65.315175 
1836.000000	65.319681 
1835.000000	65.321278 
1834.000000	65.320277 
1833.000000	65.317583 
1832.000000	65.314412 
1831.000000	65.311956 
1830.000000	65.311098 
1829.000000	65.312123 
1828.000000	65.314507 
1827.000000	65.317392 
1826.000000	65.319705 
1825.000000	65.320396 
1824.000000	65.318751 
1823.000000	65.314507 
1822.000000	65.307903 
1821.000000	65.299630 
1820.000000	65.290617 
1819.000000	65.281844 
1818.000000	65.274190 
1817.000000	65.268182 
1816.000000	65.263938 
1815.000000	65.261292 
1814.000000	65.259885 
1813.000000	65.259122 
1812.000000	65.258646 
1811.000000	65.258049 
1810.000000	65.257382 
1809.000000	65.256881 
1808.000000	65.257143 
1807.000000	65.258812 
1806.000000	65.262532 
1805.000000	65.268826 
1804.000000	65.277862 
1803.000000	65.289568 
1802.000000	65.303492 
1801.000000	65.319037 
1800.000000	65.335297 
1799.000000	65.351343 
1798.000000	65.366125 
1797.000000	65.378475 
1796.000000	65.387272 
1795.000000	65.391731 
1794.000000	65.391492 
1793.000000	65.386867 
1792.000000	65.378880 
1791.000000	65.368962 
1790.000000	65.358781 
1789.000000	65.349721 
1788.000000	65.342712 
1787.000000	65.337705 
1786.000000	65.333962 
1785.000000	65.330195 
1784.000000	65.324997 
1783.000000	65.317440 
1782.000000	65.307569 
1781.000000	65.296363 
1780.000000	65.285539 
1779.000000	65.277147 
1778.000000	65.272831 
1777.000000	65.273571 
1776.000000	65.278887 
1775.000000	65.287208 
1774.000000	65.296268 
1773.000000	65.303730 
1772.000000	65.307688 
1771.000000	65.307259 
1770.000000	65.302777 
1769.000000	65.295457 
1768.000000	65.287041 
1767.000000	65.279102 
1766.000000	65.272879 
1765.000000	65.268754 
1764.000000	65.266394 
1763.000000	65.265035 
1762.000000	65.263819 
1761.000000	65.262317 
1760.000000	65.260314 
1759.000000	65.257930 
1758.000000	65.255379 
1757.000000	65.252614 
1756.000000	65.249323 
1755.000000	65.244770 
1754.000000	65.237903 
1753.000000	65.227890 
1752.000000	65.214061 
1751.000000	65.196442 
1750.000000	65.175628 
1749.000000	65.152812 
1748.000000	65.129590 
1747.000000	65.107512 
1746.000000	65.088081 
1745.000000	65.072393 
1744.000000	65.060901 
1743.000000	65.053439 
1742.000000	65.049290 
1741.000000	65.047502 
1740.000000	65.046858 
1739.000000	65.046310 
1738.000000	65.044903 
1737.000000	65.042042 
1736.000000	65.037536 
1735.000000	65.031814 
1734.000000	65.025448 
1733.000000	65.019631 
1732.000000	65.015459 
1731.000000	65.013980 
1730.000000	65.015864 
1729.000000	65.021228 
1728.000000	65.029478 
1727.000000	65.039467 
1726.000000	65.049600 
1725.000000	65.058279 
1724.000000	65.064191 
1723.000000	65.066933 
1722.000000	65.066885 
1721.000000	65.065479 
1720.000000	65.064954 
1719.000000	65.067672 
1718.000000	65.075635 
1717.000000	65.089893 
1716.000000	65.110111 
1715.000000	65.134406 
1714.000000	65.159893 
1713.000000	65.183067 
1712.000000	65.200638 
1711.000000	65.210294 
1710.000000	65.211486 
1709.000000	65.205168 
1708.000000	65.193796 
1707.000000	65.180873 
1706.000000	65.169787 
1705.000000	65.163087 
1704.000000	65.162014 
1703.000000	65.166187 
1702.000000	65.173816 
1701.000000	65.182280 
1700.000000	65.188598 
1699.000000	65.190577 
1698.000000	65.186858 
1697.000000	65.177512 
1696.000000	65.163588 
1695.000000	65.146732 
1694.000000	65.128779 
1693.000000	65.111160 
1692.000000	65.094733 
1691.000000	65.079545 
1690.000000	65.065288 
1689.000000	65.051841 
1688.000000	65.039300 
1687.000000	65.028381 
1686.000000	65.020489 
1685.000000	65.017533 
1684.000000	65.021181 
1683.000000	65.032601 
1682.000000	65.052127 
1681.000000	65.078997 
1680.000000	65.111446 
1679.000000	65.146756 
1678.000000	65.182018 
1677.000000	65.214347 
1676.000000	65.241312 
1675.000000	65.261363 
1674.000000	65.273690 
1673.000000	65.278363 
1672.000000	65.276241 
1671.000000	65.268802 
1670.000000	65.257954 
1669.000000	65.245676 
1668.000000	65.234112 
1667.000000	65.225028 
1666.000000	65.219807 
1665.000000	65.219020 
1664.000000	65.222573 
1663.000000	65.229463 
1662.000000	65.237998 
1661.000000	65.246129 
1660.000000	65.251994 
1659.000000	65.254116 
1658.000000	65.251803 
1657.000000	65.245413 
1656.000000	65.236115 
1655.000000	65.225839 
1654.000000	65.216588 
1653.000000	65.210127 
1652.000000	65.207314 
1651.000000	65.208148 
1650.000000	65.211510 
1649.000000	65.215563 
1648.000000	65.218234 
1647.000000	65.217876 
1646.000000	65.213775 
1645.000000	65.206074 
1644.000000	65.195941 
1643.000000	65.185046 
1642.000000	65.175271 
1641.000000	65.168023 
1640.000000	65.164065 
1639.000000	65.163373 
1638.000000	65.165305 
1637.000000	65.169095 
1636.000000	65.174150 
1635.000000	65.180420 
1634.000000	65.188241 
1633.000000	65.198254 
1632.000000	65.211081 
1631.000000	65.226817 
1630.000000	65.244746 
1629.000000	65.263175 
1628.000000	65.280055 
1627.000000	65.292811 
1626.000000	65.299487 
1625.000000	65.298628 
1624.000000	65.289831 
1623.000000	65.273547 
1622.000000	65.251159 
1621.000000	65.224599 
1620.000000	65.196251 
1619.000000	65.168213 
1618.000000	65.142583 
1617.000000	65.120983 
1616.000000	65.104699 
1615.000000	65.094566 
1614.000000	65.090632 
1613.000000	65.092349 
1612.000000	65.098452 
1611.000000	65.107226 
1610.000000	65.116572 
1609.000000	65.124511 
1608.000000	65.129327 
1607.000000	65.130043 
1606.000000	65.126466 
1605.000000	65.119123 
1604.000000	65.109157 
1603.000000	65.097951 
1602.000000	65.086865 
1601.000000	65.077257 
1600.000000	65.070343 
1599.000000	65.067052 
1598.000000	65.068149 
1597.000000	65.074133 
1596.000000	65.084910 
1595.000000	65.099906 
1594.000000	65.117573 
1593.000000	65.135645 
1592.000000	65.151309 
1591.000000	65.161633 
1590.000000	65.164136 
1589.000000	65.157198 
1588.000000	65.140819 
1587.000000	65.116977 
1586.000000	65.089154 
1585.000000	65.061712 
1584.000000	65.039157 
1583.000000	65.025281 
1582.000000	65.022134 
1581.000000	65.029788 
1580.000000	65.046191 
1579.000000	65.067768 
1578.000000	65.090298 
1577.000000	65.109777 
1576.000000	65.123176 
1575.000000	65.129041 
1574.000000	65.127539 
1573.000000	65.120100 
1572.000000	65.108752 
1571.000000	65.095329 
1570.000000	65.081024 
1569.000000	65.066051 
1568.000000	65.049982 
1567.000000	65.032291 
1566.000000	65.012955 
1565.000000	64.992928 
1564.000000	64.974451 
1563.000000	64.960813 
1562.000000	64.955377 
1561.000000	64.961028 
1560.000000	64.978933 
1559.000000	65.008282 
1558.000000	65.045833 
1557.000000	65.086865 
1556.000000	65.125799 
1555.000000	65.157508 
1554.000000	65.178418 
1553.000000	65.186977 
1552.000000	65.183925 
1551.000000	65.171551 
1550.000000	65.152931 
1549.000000	65.131044 
1548.000000	65.108084 
1547.000000	65.085387 
1546.000000	65.063405 
1545.000000	65.042281 
1544.000000	65.022134 
1543.000000	65.003561 
1542.000000	64.987683 
1541.000000	64.975833 
1540.000000	64.969348 
1539.000000	64.968800 
1538.000000	64.974236 
1537.000000	64.984774 
1536.000000	64.998960 
1535.000000	65.015125 
1534.000000	65.031909 
1533.000000	65.048336 
1532.000000	65.064167 
1531.000000	65.079569 
1530.000000	65.094923 
1529.000000	65.110373 
1528.000000	65.125560 
1527.000000	65.139770 
1526.000000	65.151882 
1525.000000	65.160608 
1524.000000	65.165138 
1523.000000	65.165114 
1522.000000	65.161013 
1521.000000	65.153932 
1520.000000	65.145468 
1519.000000	65.137553 
1518.000000	65.131878 
1517.000000	65.129899 
1516.000000	65.132355 
1515.000000	65.139245 
1514.000000	65.150094 
1513.000000	65.163874 
1512.000000	65.179181 
1511.000000	65.194463 
1510.000000	65.208101 
1509.000000	65.218544 
1508.000000	65.224528 
1507.000000	65.225172 
1506.000000	65.220069 
1505.000000	65.209484 
1504.000000	65.194439 
1503.000000	65.176415 
1502.000000	65.157437 
1501.000000	65.139484 
1500.000000	65.124416 
1499.000000	65.113472 
1498.000000	65.107083 
1497.000000	65.104866 
1496.000000	65.105843 
1495.000000	65.108609 
1494.000000	65.111756 
1493.000000	65.114355 
1492.000000	65.116119 
1491.000000	65.117383 
1490.000000	65.118885 
1489.000000	65.121316 
1488.000000	65.124988 
1487.000000	65.129613 
1486.000000	65.134191 
1485.000000	65.137386 
1484.000000	65.137720 
1483.000000	65.134096 
1482.000000	65.126132 
1481.000000	65.114140 
1480.000000	65.099215 
1479.000000	65.082812 
1478.000000	65.066552 
1477.000000	65.051960 
1476.000000	65.040159 
1475.000000	65.031599 
1474.000000	65.026187 
1473.000000	65.023207 
1472.000000	65.021657 
1471.000000	65.020561 
1470.000000	65.019249 
1469.000000	65.017485 
1468.000000	65.015792 
1467.000000	65.015196 
1466.000000	65.016913 
1465.000000	65.022325 
1464.000000	65.032315 
1463.000000	65.047287 
1462.000000	65.067028 
1461.000000	65.090537 
1460.000000	65.116357 
1459.000000	65.142488 
1458.000000	65.166997 
1457.000000	65.187788 
1456.000000	65.203356 
1455.000000	65.212512 
1454.000000	65.214872 
1453.000000	65.210556 
1452.000000	65.200376 
1451.000000	65.185642 
1450.000000	65.168213 
1449.000000	65.150046 
1448.000000	65.133094 
1447.000000	65.118932 
1446.000000	65.108609 
1445.000000	65.102434 
1444.000000	65.100216 
1443.000000	65.101408 
1442.000000	65.105199 
1441.000000	65.110754 
1440.000000	65.117454 
1439.000000	65.124559 
1438.000000	65.131592 
1437.000000	65.137887 
1436.000000	65.142965 
1435.000000	65.146398 
1434.000000	65.148138 
1433.000000	65.148305 
1432.000000	65.147304 
1431.000000	65.145969 
1430.000000	65.145039 
1429.000000	65.145015 
1428.000000	65.145826 
1427.000000	65.146970 
1426.000000	65.147471 
1425.000000	65.146112 
1424.000000	65.142059 
1423.000000	65.135121 
1422.000000	65.126061 
1421.000000	65.116357 
1420.000000	65.107727 
1419.000000	65.101504 
1418.000000	65.098237 
1417.000000	65.097475 
1416.000000	65.097999 
1415.000000	65.098309 
1414.000000	65.097188 
1413.000000	65.094161 
1412.000000	65.089726 
1411.000000	65.085220 
1410.000000	65.082240 
1409.000000	65.082240 
1408.000000	65.085864 
1407.000000	65.092802 
1406.000000	65.101575 
1405.000000	65.110111 
1404.000000	65.116286 
1403.000000	65.118455 
1402.000000	65.115880 
1401.000000	65.108895 
1400.000000	65.098571 
1399.000000	65.086531 
1398.000000	65.074372 
1397.000000	65.063595 
1396.000000	65.055274 
1395.000000	65.050005 
1394.000000	65.048074 
1393.000000	65.049076 
1392.000000	65.052270 
1391.000000	65.056467 
1390.000000	65.060353 
1389.000000	65.062713 
1388.000000	65.062856 
1387.000000	65.060853 
1386.000000	65.057325 
1385.000000	65.053534 
1384.000000	65.050721 
1383.000000	65.049910 
1382.000000	65.051364 
1381.000000	65.054512 
1380.000000	65.058231 
1379.000000	65.061044 
1378.000000	65.061545 
1377.000000	65.058875 
1376.000000	65.052986 
1375.000000	65.044808 
1374.000000	65.036058 
1373.000000	65.028691 
1372.000000	65.024495 
1371.000000	65.024495 
1370.000000	65.028882 
1369.000000	65.036869 
1368.000000	65.047049 
1367.000000	65.057730 
1366.000000	65.067219 
1365.000000	65.074133 
1364.000000	65.077495 
1363.000000	65.077042 
1362.000000	65.072989 
1361.000000	65.065979 
1360.000000	65.056681 
1359.000000	65.045881 
1358.000000	65.034222 
1357.000000	65.022206 
1356.000000	65.010237 
1355.000000	64.998817 
1354.000000	64.988589 
1353.000000	64.980506 
1352.000000	64.975738 
1351.000000	64.975190 
1350.000000	64.979481 
1349.000000	64.988565 
1348.000000	65.001702 
1347.000000	65.017390 
1346.000000	65.033817 
1345.000000	65.048980 
1344.000000	65.061521 
1343.000000	65.070700 
1342.000000	65.076780 
1341.000000	65.080857 
1340.000000	65.084314 
1339.000000	65.088438 
1338.000000	65.093827 
1337.000000	65.100216 
1336.000000	65.106463 
1335.000000	65.110778 
1334.000000	65.111422 
1333.000000	65.107178 
1332.000000	65.097618 
1331.000000	65.083432 
1330.000000	65.066194 
1329.000000	65.047860 
1328.000000	65.030550 
1327.000000	65.015912 
1326.000000	65.005207 
1325.000000	64.998912 
1324.000000	64.997100 
1323.000000	64.999675 
1322.000000	65.006494 
1321.000000	65.017366 
1320.000000	65.031862 
1319.000000	65.049219 
1318.000000	65.067982 
1317.000000	65.085911 
1316.000000	65.100574 
1315.000000	65.109586 
1314.000000	65.111398 
1313.000000	65.105366 
1312.000000	65.092372 
1311.000000	65.074586 
1310.000000	65.054941 
1309.000000	65.036773 
1308.000000	65.023159 
1307.000000	65.016174 
1306.000000	65.016865 
1305.000000	65.024852 
1304.000000	65.038704 
1303.000000	65.056109 
1302.000000	65.074372 
1301.000000	65.091037 
1300.000000	65.104198 
1299.000000	65.112709 
1298.000000	65.116238 
1297.000000	65.115070 
1296.000000	65.109896 
1295.000000	65.101361 
1294.000000	65.090084 
1293.000000	65.076589 
1292.000000	65.061092 
1291.000000	65.043687 
1290.000000	65.024733 
1289.000000	65.004706 
1288.000000	64.984416 
1287.000000	64.964962 
1286.000000	64.947509 
1285.000000	64.933133 
1284.000000	64.922642 
1283.000000	64.916324 
1282.000000	64.913845 
1281.000000	64.914512 
1280.000000	64.917445 
1279.000000	64.921522 
1278.000000	64.925718 
1277.000000	64.929056 
1276.000000	64.930725 
1275.000000	64.930057 
1274.000000	64.926838 
1273.000000	64.921259 
1272.000000	64.914035 
1271.000000	64.906287 
1270.000000	64.899349 
1269.000000	64.894676 
1268.000000	64.893388 
1267.000000	64.896130 
1266.000000	64.902806 
1265.000000	64.912796 
1264.000000	64.924907 
1263.000000	64.937663 
1262.000000	64.949679 
1261.000000	64.959836 
1260.000000	64.967489 
1259.000000	64.972376 
1258.000000	64.974403 
1257.000000	64.973664 
1256.000000	64.970111 
1255.000000	64.963746 
1254.000000	64.954519 
1253.000000	64.942550 
1252.000000	64.928364 
1251.000000	64.912796 
1250.000000	64.897108 
1249.000000	64.882898 
1248.000000	64.871501 
1247.000000	64.864206 
1246.000000	64.862012 
1245.000000	64.865636 
1244.000000	64.875197 
1243.000000	64.890122 
1242.000000	64.909338 
1241.000000	64.931106 
1240.000000	64.953088 
1239.000000	64.972901 
1238.000000	64.988040 
1237.000000	64.996862 
1236.000000	64.998602 
1235.000000	64.993810 
1234.000000	64.984226 
1233.000000	64.972710 
1232.000000	64.962458 
1231.000000	64.956402 
1230.000000	64.956569 
1229.000000	64.963436 
1228.000000	64.976024 
1227.000000	64.991784 
1226.000000	65.007281 
1225.000000	65.019011 
1224.000000	65.023875 
1223.000000	65.019869 
1222.000000	65.006351 
1221.000000	64.984083 
1220.000000	64.954853 
1219.000000	64.921021 
1218.000000	64.885234 
1217.000000	64.850044 
1216.000000	64.817571 
1215.000000	64.789509 
1214.000000	64.766931 
1213.000000	64.750790 
1212.000000	64.741754 
1211.000000	64.740061 
1210.000000	64.745831 
1209.000000	64.758372 
1208.000000	64.776587 
1207.000000	64.798951 
1206.000000	64.823532 
1205.000000	64.848160 
1204.000000	64.871001 
1203.000000	64.890718 
1202.000000	64.906644 
1201.000000	64.918613 
1200.000000	64.926815 
1199.000000	64.931440 
1198.000000	64.932680 
1197.000000	64.930295 
1196.000000	64.924120 
1195.000000	64.914155 
1194.000000	64.900708 
1193.000000	64.885210 
1192.000000	64.869642 
1191.000000	64.856719 
1190.000000	64.849305 
1189.000000	64.849734 
1188.000000	64.859199 
1187.000000	64.877486 
1186.000000	64.902997 
1185.000000	64.932727 
1184.000000	64.963030 
1183.000000	64.990019 
1182.000000	65.010714 
1181.000000	65.022993 
1180.000000	65.025901 
1179.000000	65.019369 
1178.000000	65.004324 
1177.000000	64.982366 
1176.000000	64.955401 
1175.000000	64.925551 
1174.000000	64.895009 
1173.000000	64.865994 
1172.000000	64.840650 
1171.000000	64.820599 
1170.000000	64.806890 
1169.000000	64.799833 
1168.000000	64.798998 
1167.000000	64.803123 
1166.000000	64.810705 
1165.000000	64.820003 
1164.000000	64.829778 
1163.000000	64.839243 
1162.000000	64.848446 
1161.000000	64.857935 
1160.000000	64.868688 
1159.000000	64.881515 
1158.000000	64.896750 
1157.000000	64.914083 
1156.000000	64.932394 
1155.000000	64.950108 
1154.000000	64.965415 
1153.000000	64.976859 
1152.000000	64.983296 
1151.000000	64.984369 
1150.000000	64.980077 
1149.000000	64.970827 
1148.000000	64.957118 
1147.000000	64.939522 
1146.000000	64.918804 
1145.000000	64.896011 
1144.000000	64.872670 
1143.000000	64.850831 
1142.000000	64.832878 
1141.000000	64.821028 
1140.000000	64.817047 
1139.000000	64.821505 
1138.000000	64.833664 
1137.000000	64.851307 
1136.000000	64.871215 
1135.000000	64.889907 
1134.000000	64.904212 
1133.000000	64.912247 
1132.000000	64.913702 
1131.000000	64.909863 
1130.000000	64.903116 
1129.000000	64.896535 
1128.000000	64.892935 
1127.000000	64.894199 
1126.000000	64.901185 
1125.000000	64.913320 
1124.000000	64.929175 
1123.000000	64.946413 
1122.000000	64.962434 
1121.000000	64.974546 
1120.000000	64.980697 
1119.000000	64.979600 
1118.000000	64.971089 
1117.000000	64.955854 
1116.000000	64.935398 
1115.000000	64.911603 
1114.000000	64.886713 
1113.000000	64.862632 
1112.000000	64.841151 
1111.000000	64.823865 
1110.000000	64.812278 
1109.000000	64.807486 
1108.000000	64.810395 
1107.000000	64.821267 
1106.000000	64.840006 
1105.000000	64.865303 
1104.000000	64.895415 
1103.000000	64.928174 
1102.000000	64.961290 
1101.000000	64.992523 
1100.000000	65.020084 
1099.000000	65.042972 
1098.000000	65.060830 
1097.000000	65.073847 
1096.000000	65.082335 
1095.000000	65.086388 
1094.000000	65.085577 
1093.000000	65.079212 
1092.000000	65.066432 
1091.000000	65.046715 
1090.000000	65.020036 
1089.000000	64.987182 
1088.000000	64.949750 
1087.000000	64.910054 
1086.000000	64.870834 
1085.000000	64.835071 
1084.000000	64.805293 
1083.000000	64.783573 
1082.000000	64.771151 
1081.000000	64.768266 
1080.000000	64.773607 
1079.000000	64.784789 
1078.000000	64.798164 
1077.000000	64.810252 
1076.000000	64.817786 
1075.000000	64.819145 
1074.000000	64.814114 
1073.000000	64.804530 
1072.000000	64.793825 
1071.000000	64.785981 
1070.000000	64.784431 
1069.000000	64.791035 
1068.000000	64.805603 
1067.000000	64.825630 
1066.000000	64.846944 
1065.000000	64.864754 
1064.000000	64.875030 
1063.000000	64.875674 
1062.000000	64.867353 
1061.000000	64.853262 
1060.000000	64.838695 
1059.000000	64.829492 
1058.000000	64.830899 
1057.000000	64.846014 
1056.000000	64.875078 
1055.000000	64.915704 
1054.000000	64.962720 
1053.000000	65.009784 
1052.000000	65.050005 
1051.000000	65.077853 
1050.000000	65.089869 
1049.000000	65.085077 
1048.000000	65.065240 
1047.000000	65.034079 
1046.000000	64.996838 
1045.000000	64.959001 
1044.000000	64.925599 
1043.000000	64.900493 
1042.000000	64.885711 
1041.000000	64.881563 
1040.000000	64.886498 
1039.000000	64.897656 
1038.000000	64.911055 
1037.000000	64.922428 
1036.000000	64.927697 
1035.000000	64.924097 
1034.000000	64.910364 
1033.000000	64.887499 
1032.000000	64.858317 
1031.000000	64.826869 
1030.000000	64.797639 
1029.000000	64.774560 
1028.000000	64.760065 
1027.000000	64.754700 
1026.000000	64.757537 
1025.000000	64.766430 
1024.000000	64.778566 
1023.000000	64.791393 
1022.000000	64.803099 
1021.000000	64.812946 
1020.000000	64.820790 
1019.000000	64.827179 
1018.000000	64.832806 
1017.000000	64.838242 
1016.000000	64.843606 
1015.000000	64.848637 
1014.000000	64.852738 
1013.000000	64.855504 
1012.000000	64.856863 
1011.000000	64.857029 
1010.000000	64.856290 
1009.000000	64.855313 
1008.000000	64.854693 
1007.000000	64.854741 
1006.000000	64.855194 
1005.000000	64.855599 
1004.000000	64.854955 
1003.000000	64.852166 
1002.000000	64.845895 
1001.000000	64.835119 
1000.000000	64.818978 
999.000000	 64.797210 
998.000000	 64.770269 
997.000000	 64.739251 
996.000000	 64.706015 
995.000000	 64.672827 
994.000000	 64.642143 
993.000000	 64.616155 
992.000000	 64.596390 
991.000000	 64.583301 
990.000000	 64.576435 
989.000000	 64.574217 
988.000000	 64.575052 
987.000000	 64.577627 
986.000000	 64.581656 
985.000000	 64.588046 
984.000000	 64.599013 
983.000000	 64.617395 
982.000000	 64.646029 
981.000000	 64.686417 
980.000000	 64.738106 
979.000000	 64.797925 
978.000000	 64.860510 
977.000000	 64.918589 
976.000000	 64.964771 
975.000000	 64.992547 
974.000000	 64.997887 
973.000000	 64.980077 
972.000000	 64.942073 
971.000000	 64.889883 
970.000000	 64.831876 
969.000000	 64.776778 
968.000000	 64.732360 
967.000000	 64.703845 
966.000000	 64.693832 
965.000000	 64.701414 
964.000000	 64.722967 
963.000000	 64.753055 
962.000000	 64.785790 
961.000000	 64.815998 
960.000000	 64.839935 
959.000000	 64.855933 
958.000000	 64.864182 
957.000000	 64.866876 
956.000000	 64.867162 
955.000000	 64.868450 
954.000000	 64.873027 
953.000000	 64.881372 
952.000000	 64.891624 
951.000000	 64.900469 
950.000000	 64.903616 
949.000000	 64.897251 
948.000000	 64.879393 
947.000000	 64.850211 
946.000000	 64.813065 
945.000000	 64.773654 
944.000000	 64.739322 
943.000000	 64.716815 
942.000000	 64.711403 
941.000000	 64.725589 
940.000000	 64.758777 
939.000000	 64.807105 
938.000000	 64.864563 
937.000000	 64.924478 
936.000000	 64.980053 
935.000000	 65.025448 
934.000000	 65.056204 
933.000000	 65.069627 
932.000000	 65.064692 
931.000000	 65.042066 
930.000000	 65.005302 
929.000000	 64.960432 
928.000000	 64.915847 
927.000000	 64.880442 
926.000000	 64.862418 
925.000000	 64.866590 
924.000000	 64.893841 
923.000000	 64.939951 
922.000000	 64.996170 
921.000000	 65.051198 
920.000000	 65.094137 
919.000000	 65.116596 
918.000000	 65.114927 
917.000000	 65.090107 
916.000000	 65.048193 
915.000000	 64.996695 
914.000000	 64.942836 
913.000000	 64.890360 
912.000000	 64.839601 
911.000000	 64.786577 
910.000000	 64.725422 
909.000000	 64.650034 
908.000000	 64.557361 
907.000000	 64.447855 
906.000000	 64.326500 
905.000000	 64.201378 
904.000000	 64.082169 
903.000000	 63.978600 
902.000000	 63.898968 
901.000000	 63.848590 
900.000000	 63.829731 
899.000000	 63.841724 
898.000000	 63.881921 
897.000000	 63.945746 
896.000000	 64.028143 
895.000000	 64.122986 
894.000000	 64.224553 
893.000000	 64.326357 
892.000000	 64.422869 
891.000000	 64.509415 
890.000000	 64.582800 
889.000000	 64.641499 
888.000000	 64.685511 
887.000000	 64.716267 
886.000000	 64.735722 
885.000000	 64.746737 
884.000000	 64.751696 
883.000000	 64.752817 
882.000000	 64.751839 
881.000000	 64.750862 
880.000000	 64.750909 
879.000000	 64.752101 
878.000000	 64.753651 
877.000000	 64.754462 
876.000000	 64.753270 
875.000000	 64.749193 
874.000000	 64.742350 
873.000000	 64.733982 
872.000000	 64.725637 
871.000000	 64.718770 
870.000000	 64.714360 
869.000000	 64.712262 
868.000000	 64.710879 
867.000000	 64.707565 
866.000000	 64.698910 
865.000000	 64.682316 
864.000000	 64.656734 
863.000000	 64.623570 
862.000000	 64.586329 
861.000000	 64.550566 
860.000000	 64.522838 
859.000000	 64.509153 
858.000000	 64.513373 
857.000000	 64.536404 
856.000000	 64.576387 
855.000000	 64.628148 
854.000000	 64.684414 
853.000000	 64.737081 
852.000000	 64.778780 
851.000000	 64.804100 
850.000000	 64.810299 
849.000000	 64.798069 
848.000000	 64.771151 
847.000000	 64.735627 
846.000000	 64.698338 
845.000000	 64.665699 
844.000000	 64.642119 
843.000000	 64.629626 
842.000000	 64.627528 
841.000000	 64.633297 
840.000000	 64.643502 
839.000000	 64.655113 
838.000000	 64.666509 
837.000000	 64.677596 
836.000000	 64.689826 
835.000000	 64.705491 
834.000000	 64.726662 
833.000000	 64.754033 
832.000000	 64.786171 
831.000000	 64.819622 
830.000000	 64.848995 
829.000000	 64.868640 
828.000000	 64.873528 
827.000000	 64.860773 
826.000000	 64.830040 
825.000000	 64.783740 
824.000000	 64.726614 
823.000000	 64.664483 
822.000000	 64.603233 
821.000000	 64.547657 
820.000000	 64.500546 
819.000000	 64.462614 
818.000000	 64.432835 
817.000000	 64.409422 
816.000000	 64.390468 
815.000000	 64.375185 
814.000000	 64.363765 
813.000000	 64.357948 
812.000000	 64.359855 
811.000000	 64.371633 
810.000000	 64.394116 
809.000000	 64.426398 
808.000000	 64.465284 
807.000000	 64.505481 
806.000000	 64.540147 
805.000000	 64.562726 
804.000000	 64.567732 
803.000000	 64.552927 
802.000000	 64.520001 
801.000000	 64.474391 
800.000000	 64.424228 
799.000000	 64.378380 
798.000000	 64.344310 
797.000000	 64.326405 
796.000000	 64.325141 
795.000000	 64.337253 
794.000000	 64.356994 
793.000000	 64.378094 
792.000000	 64.395213 
791.000000	 64.404964 
790.000000	 64.406514 
789.000000	 64.400792 
788.000000	 64.390110 
787.000000	 64.376878 
786.000000	 64.363217 
785.000000	 64.350175 
784.000000	 64.338040 
783.000000	 64.327216 
782.000000	 64.317798 
781.000000	 64.310455 
780.000000	 64.305496 
779.000000	 64.303088 
778.000000	 64.302372 
777.000000	 64.301204 
776.000000	 64.296817 
775.000000	 64.286494 
774.000000	 64.268469 
773.000000	 64.242863 
772.000000	 64.212274 
771.000000	 64.181351 
770.000000	 64.156222 
769.000000	 64.142584 
768.000000	 64.143753 
767.000000	 64.159488 
766.000000	 64.185881 
765.000000	 64.215970 
764.000000	 64.241218 
763.000000	 64.253544 
762.000000	 64.247441 
761.000000	 64.220952 
760.000000	 64.176106 
759.000000	 64.118003 
758.000000	 64.053225 
757.000000	 63.988471 
756.000000	 63.929271 
755.000000	 63.878893 
754.000000	 63.838553 
753.000000	 63.807272 
752.000000	 63.782882 
751.000000	 63.762617 
750.000000	 63.744091 
749.000000	 63.725590 
748.000000	 63.706374 
747.000000	 63.686966 
746.000000	 63.668489 
745.000000	 63.652992 
744.000000	 63.642764 
743.000000	 63.640213 
742.000000	 63.647341 
741.000000	 63.665008 
740.000000	 63.692665 
739.000000	 63.728237 
738.000000	 63.768410 
737.000000	 63.808751 
736.000000	 63.844656 
735.000000	 63.871955 
734.000000	 63.887691 
733.000000	 63.890528 
732.000000	 63.880825 
731.000000	 63.860177 
730.000000	 63.831114 
729.000000	 63.796877 
728.000000	 63.760709 
727.000000	 63.725852 
726.000000	 63.695025 
725.000000	 63.670134 
724.000000	 63.652324 
723.000000	 63.642454 
722.000000	 63.640427 
721.000000	 63.645267 
720.000000	 63.655805 
719.000000	 63.670516 
718.000000	 63.688373 
717.000000	 63.708639 
716.000000	 63.731527 
715.000000	 63.757681 
714.000000	 63.788056 
713.000000	 63.823032 
712.000000	 63.861942 
711.000000	 63.902425 
710.000000	 63.940358 
709.000000	 63.969993 
708.000000	 63.985276 
707.000000	 63.980674 
706.000000	 63.952851 
705.000000	 63.901448 
704.000000	 63.829421 
703.000000	 63.742995 
702.000000	 63.650631 
701.000000	 63.561868 
700.000000	 63.485527 
699.000000	 63.428854 
698.000000	 63.396191 
697.000000	 63.388967 
696.000000	 63.405656 
695.000000	 63.442564 
694.000000	 63.494253 
693.000000	 63.554573 
692.000000	 63.616967 
691.000000	 63.675451 
690.000000	 63.724684 
689.000000	 63.760757 
688.000000	 63.781237 
687.000000	 63.786268 
686.000000	 63.778185 
685.000000	 63.761425 
684.000000	 63.741278 
683.000000	 63.723373 
682.000000	 63.711857 
681.000000	 63.708639 
680.000000	 63.712596 
679.000000	 63.720464 
678.000000	 63.727450 
677.000000	 63.728666 
676.000000	 63.720655 
675.000000	 63.702440 
674.000000	 63.676071 
673.000000	 63.645935 
672.000000	 63.617992 
671.000000	 63.597726 
670.000000	 63.589549 
669.000000	 63.595652 
668.000000	 63.615489 
667.000000	 63.645982 
666.000000	 63.682603 
665.000000	 63.720631 
664.000000	 63.755679 
663.000000	 63.784503 
662.000000	 63.804674 
661.000000	 63.814544 
660.000000	 63.812923 
659.000000	 63.798618 
658.000000	 63.770627 
657.000000	 63.728189 
656.000000	 63.671684 
655.000000	 63.602733 
654.000000	 63.524889 
653.000000	 63.443040 
652.000000	 63.362669 
651.000000	 63.288998 
650.000000	 63.225746 
649.000000	 63.175344 
648.000000	 63.138151 
647.000000	 63.113808 
646.000000	 63.100862 
645.000000	 63.098311 
644.000000	 63.105344 
643.000000	 63.122272 
642.000000	 63.149046 
641.000000	 63.185596 
640.000000	 63.230538 
639.000000	 63.280844 
638.000000	 63.331913 
637.000000	 63.377952 
636.000000	 63.412809 
635.000000	 63.431358 
634.000000	 63.430595 
633.000000	 63.411045 
632.000000	 63.376879 
631.000000	 63.335299 
630.000000	 63.295030 
629.000000	 63.264608 
628.000000	 63.250279 
627.000000	 63.254857 
626.000000	 63.276433 
625.000000	 63.309288 
624.000000	 63.344740 
623.000000	 63.373565 
622.000000	 63.388109 
621.000000	 63.383507 
620.000000	 63.359451 
619.000000	 63.319754 
618.000000	 63.272070 
617.000000	 63.225460 
616.000000	 63.189125 
615.000000	 63.169932 
614.000000	 63.171076 
613.000000	 63.191938 
612.000000	 63.227725 
611.000000	 63.271236 
610.000000	 63.313913 
609.000000	 63.347935 
608.000000	 63.367462 
607.000000	 63.369464 
606.000000	 63.354325 
605.000000	 63.325309 
604.000000	 63.287234 
603.000000	 63.245344 
602.000000	 63.204145 
601.000000	 63.166713 
600.000000	 63.134384 
599.000000	 63.106966 
598.000000	 63.084006 
597.000000	 63.065242 
596.000000	 63.051533 
595.000000	 63.044071 
594.000000	 63.043808 
593.000000	 63.050770 
592.000000	 63.062834 
591.000000	 63.076591 
590.000000	 63.087797 
589.000000	 63.092422 
588.000000	 63.087630 
587.000000	 63.072657 
586.000000	 63.048720 
585.000000	 63.019347 
584.000000	 62.989163 
583.000000	 62.963485 
582.000000	 62.946820 
581.000000	 62.941956 
580.000000	 62.949228 
579.000000	 62.965226 
578.000000	 62.983369 
577.000000	 62.994813 
576.000000	 62.990832 
575.000000	 62.965035 
574.000000	 62.915205 
573.000000	 62.844800 
572.000000	 62.761926 
571.000000	 62.677812 
570.000000	 62.603783 
569.000000	 62.548756 
568.000000	 62.516975 
567.000000	 62.507653 
566.000000	 62.514877 
565.000000	 62.529516 
564.000000	 62.541556 
563.000000	 62.543034 
562.000000	 62.529587 
561.000000	 62.500667 
560.000000	 62.459993 
559.000000	 62.413620 
558.000000	 62.368917 
557.000000	 62.332057 
556.000000	 62.308287 
555.000000	 62.300920 
554.000000	 62.311673 
553.000000	 62.340664 
552.000000	 62.385988 
551.000000	 62.444090 
550.000000	 62.510132 
549.000000	 62.578606 
548.000000	 62.644171 
547.000000	 62.702226 
546.000000	 62.750005 
545.000000	 62.785649 
544.000000	 62.808823 
543.000000	 62.818646 
542.000000	 62.814378 
541.000000	 62.793803 
540.000000	 62.754487 
539.000000	 62.693953 
538.000000	 62.611842 
537.000000	 62.510275 
536.000000	 62.394785 
535.000000	 62.273502 
534.000000	 62.156319 
533.000000	 62.052702 
532.000000	 61.969733 
531.000000	 61.911177 
530.000000	 61.876392 
529.000000	 61.862063 
528.000000	 61.863136 
527.000000	 61.875295 
526.000000	 61.895918 
525.000000	 61.924719 
524.000000	 61.962747 
523.000000	 62.010717 
522.000000	 62.067198 
521.000000	 62.127208 
520.000000	 62.182426 
519.000000	 62.222003 
518.000000	 62.235403 
517.000000	 62.216496 
516.000000	 62.164354 
515.000000	 62.085580 
514.000000	 61.991095 
513.000000	 61.893630 
512.000000	 61.804294 
511.000000	 61.729216 
510.000000	 61.669540 
509.000000	 61.622476 
508.000000	 61.583542 
507.000000	 61.549067 
506.000000	 61.518096 
505.000000	 61.492776 
504.000000	 61.477994 
503.000000	 61.479043 
502.000000	 61.500120 
501.000000	 61.541652 
500.000000	 61.600422 
499.000000	 61.669206 
498.000000	 61.737465 
497.000000	 61.793208 
496.000000	 61.825489 
495.000000	 61.827230 
494.000000	 61.795973 
493.000000	 61.735200 
492.000000	 61.654257 
491.000000	 61.566305 
490.000000	 61.486029 
489.000000	 61.425566 
488.000000	 61.393284 
487.000000	 61.390113 
486.000000	 61.411404 
485.000000	 61.445784 
484.000000	 61.477875 
483.000000	 61.491751 
482.000000	 61.474609 
481.000000	 61.420178 
480.000000	 61.329197 
479.000000	 61.211585 
478.000000	 61.083865 
477.000000	 60.965847 
476.000000	 60.875844 
475.000000	 60.826659 
474.000000	 60.822916 
473.000000	 60.860276 
472.000000	 60.927295 
471.000000	 61.009955 
470.000000	 61.096405 
469.000000	 61.180043 
468.000000	 61.261010 
467.000000	 61.345839 
466.000000	 61.443138 
465.000000	 61.559033 
464.000000	 61.692047 
463.000000	 61.833024 
462.000000	 61.963152 
461.000000	 62.059807 
460.000000	 62.098884 
459.000000	 62.062931 
458.000000	 61.943125 
457.000000	 61.745214 
456.000000	 61.485433 
455.000000	 61.188030 
454.000000	 60.880088 
453.000000	 60.587906 
452.000000	 60.330939 
451.000000	 60.119509 
450.000000	 59.955406 
449.000000	 59.834361 
448.000000	 59.749031 
447.000000	 59.692168 
446.000000	 59.658288 
445.000000	 59.643888 
444.000000	 59.645891 
443.000000	 59.660339 
442.000000	 59.680080 
441.000000	 59.695029 
440.000000	 59.694743 
439.000000	 59.669804 
438.000000	 59.613871 
437.000000	 59.524965 
436.000000	 59.406352 
435.000000	 59.267282 
434.000000	 59.116125 
433.000000	 58.965778 
432.000000	 58.834028 
431.000000	 58.741307 
430.000000	 58.702993 
429.000000	 58.732557 
428.000000	 58.840465 
427.000000	 59.028768 
426.000000	 59.288907 
425.000000	 59.600424 
424.000000	 59.931802 
423.000000	 60.246753 
422.000000	 60.510134 
421.000000	 60.694718 
420.000000	 60.785984 
419.000000	 60.783624 
418.000000	 60.700416 
417.000000	 60.556602 
416.000000	 60.374426 
415.000000	 60.177159 
414.000000	 59.984111 
413.000000	 59.807705 
412.000000	 59.648346 
411.000000	 59.517669 
410.000000	 59.416341 
409.000000	 59.325528 
408.000000	 59.201550 
407.000000	 58.996367 
406.000000	 58.654141 
405.000000	 58.110952 
404.000000	 57.329487 
403.000000	 56.318545 
402.000000	 55.139923 
401.000000	 53.891777 
400.000000	 52.708125 
399.000000	 51.732182 
398.000000	 51.085996 
397.000000	 50.846338 
396.000000	 51.014780 
395.000000	 51.515698 
394.000000	 52.202582 
393.000000	 52.889609 
392.000000	 53.400778 
391.000000	 53.615736 
390.000000	 53.509330 
389.000000	 53.171396 
388.000000	 52.770876 
387.000000	 52.535033 
386.000000	 52.720046 
385.000000	 53.555774 
384.000000	 55.175638 
383.000000	 57.597684 
382.000000	 60.700106 
381.000000	 64.275765 
380.000000	 68.038749 
379.000000	 71.732807 
378.000000	 75.228571 
377.000000	 78.480195 
376.000000	 81.538486 
375.000000	 84.429192 
374.000000	 87.100052 
373.000000	 89.388346 
372.000000	 91.013598 
371.000000	 91.722011 
370.000000	 91.393327 

