PE IR       SPECTRUM    SPECTRUM    ASCII       PEDS        1.60        
  -1
C-1B6F~1.ASC
17/05/02
13:44:44.00
17/05/02
13:44:44.00
tln
$C-4040-8_t0034$<tbV0>[-2.5,12.0,8.0,0.0,22,1,0]
370.000000
64









2002,4.07    
MIRTGS : RIGHTBACK : INTERNAL 2
MIR : ON : INTERNAL 2
OPTKBR

0.200000
8
8.000000
FILLER
RATIO
SPECTRUM
UNLOCKED 256

DOUBLE
64
COMBINED
1
0
0


1.000000
RATIO


1
0
TRUE
51149
0
LEFT NOT FITTED RIGHT NOT FITTED 0
NONE
NONE
15600
12.000000
4.427000
51148
TRUE
1 0 8 72 0 0 0 0 

15798.010000






#HDR
-1
-1
#GR
CM-1
%T
0.00002384185791015625
0.0
7800.000000
-1.000000
7431
8
87.139797
56.557607
#DATA
7800.000000	68.239450 
7799.000000	70.643043 
7798.000000	72.613644 
7797.000000	73.900866 
7796.000000	74.326062 
7795.000000	73.817634 
7794.000000	72.442483 
7793.000000	70.403051 
7792.000000	67.975807 
7791.000000	65.464496 
7790.000000	63.161897 
7789.000000	61.303830 
7788.000000	60.056400 
7787.000000	59.488248 
7786.000000	59.592056 
7785.000000	60.270047 
7784.000000	61.346626 
7783.000000	62.597584 
7782.000000	63.746595 
7781.000000	64.556622 
7780.000000	64.859414 
7779.000000	64.611077 
7778.000000	63.889980 
7777.000000	62.877154 
7776.000000	61.799168 
7775.000000	60.875964 
7774.000000	60.250329 
7773.000000	59.988355 
7772.000000	60.081315 
7771.000000	60.464787 
7770.000000	61.056923 
7769.000000	61.776590 
7768.000000	62.567400 
7767.000000	63.390827 
7766.000000	64.221477 
7765.000000	65.040516 
7764.000000	65.827155 
7763.000000	66.564011 
7762.000000	67.238712 
7761.000000	67.842173 
7760.000000	68.375611 
7759.000000	68.868184 
7758.000000	69.362115 
7757.000000	69.910168 
7756.000000	70.544338 
7755.000000	71.278262 
7754.000000	72.071981 
7753.000000	72.849154 
7752.000000	73.486590 
7751.000000	73.851561 
7750.000000	73.818850 
7749.000000	73.314380 
7748.000000	72.330021 
7747.000000	70.933508 
7746.000000	69.268035 
7745.000000	67.525124 
7744.000000	65.924096 
7743.000000	64.666438 
7742.000000	63.921856 
7741.000000	63.798379 
7740.000000	64.339423 
7739.000000	65.517282 
7738.000000	67.245721 
7737.000000	69.388961 
7736.000000	71.771383 
7735.000000	74.191737 
7734.000000	76.443505 
7733.000000	78.330111 
7732.000000	79.682421 
7731.000000	80.376267 
7730.000000	80.350637 
7729.000000	79.616904 
7728.000000	78.268885 
7727.000000	76.466727 
7726.000000	74.437665 
7725.000000	72.419857 
7724.000000	70.651245 
7723.000000	69.301199 
7722.000000	68.463253 
7721.000000	68.123269 
7720.000000	68.177461 
7719.000000	68.461775 
7718.000000	68.793106 
7717.000000	69.021868 
7716.000000	69.058322 
7715.000000	68.897080 
7714.000000	68.599677 
7713.000000	68.278551 
7712.000000	68.053197 
7711.000000	68.018126 
7710.000000	68.212699 
7709.000000	68.620371 
7708.000000	69.173812 
7707.000000	69.783878 
7706.000000	70.360541 
7705.000000	70.836424 
7704.000000	71.174764 
7703.000000	71.378207 
7702.000000	71.471118 
7701.000000	71.473050 
7700.000000	71.394109 
7699.000000	71.231675 
7698.000000	70.974922 
7697.000000	70.613026 
7696.000000	70.151853 
7695.000000	69.627761 
7694.000000	69.104170 
7693.000000	68.669319 
7692.000000	68.407034 
7691.000000	68.372583 
7690.000000	68.580174 
7689.000000	68.995237 
7688.000000	69.544267 
7687.000000	70.130205 
7686.000000	70.663166 
7685.000000	71.081686 
7684.000000	71.365547 
7683.000000	71.535205 
7682.000000	71.642827 
7681.000000	71.749854 
7680.000000	71.905207 
7679.000000	72.122669 
7678.000000	72.385835 
7677.000000	72.636914 
7676.000000	72.800874 
7675.000000	72.788119 
7674.000000	72.530055 
7673.000000	71.979856 
7672.000000	71.131706 
7671.000000	70.015597 
7670.000000	68.691086 
7669.000000	67.243242 
7668.000000	65.768289 
7667.000000	64.368319 
7666.000000	63.135051 
7665.000000	62.149572 
7664.000000	61.469912 
7663.000000	61.134290 
7662.000000	61.151266 
7661.000000	61.509156 
7660.000000	62.171268 
7659.000000	63.084411 
7658.000000	64.178514 
7657.000000	65.377306 
7656.000000	66.603302 
7655.000000	67.780947 
7654.000000	68.844270 
7653.000000	69.750022 
7652.000000	70.476984 
7651.000000	71.028614 
7650.000000	71.420192 
7649.000000	71.679615 
7648.000000	71.826195 
7647.000000	71.878337 
7646.000000	71.834444 
7645.000000	71.687650 
7644.000000	71.419858 
7643.000000	71.024155 
7642.000000	70.503306 
7641.000000	69.878554 
7640.000000	69.193291 
7639.000000	68.511676 
7638.000000	67.908406 
7637.000000	67.451429 
7636.000000	67.195487 
7635.000000	67.172551 
7634.000000	67.377662 
7633.000000	67.766594 
7632.000000	68.265867 
7631.000000	68.786263 
7630.000000	69.232797 
7629.000000	69.522285 
7628.000000	69.596862 
7627.000000	69.433665 
7626.000000	69.049668 
7625.000000	68.494772 
7624.000000	67.838358 
7623.000000	67.153596 
7622.000000	66.508293 
7621.000000	65.950822 
7620.000000	65.502357 
7619.000000	65.162348 
7618.000000	64.921474 
7617.000000	64.767837 
7616.000000	64.689755 
7615.000000	64.685249 
7614.000000	64.755368 
7613.000000	64.907526 
7612.000000	65.136528 
7611.000000	65.438318 
7610.000000	65.797448 
7609.000000	66.204357 
7608.000000	66.651916 
7607.000000	67.143082 
7606.000000	67.684984 
7605.000000	68.291854 
7604.000000	68.976449 
7603.000000	69.738507 
7602.000000	70.557188 
7601.000000	71.392178 
7600.000000	72.185277 
7599.000000	72.873663 
7598.000000	73.396039 
7597.000000	73.710060 
7596.000000	73.791050 
7595.000000	73.645544 
7594.000000	73.295354 
7593.000000	72.779035 
7592.000000	72.133064 
7591.000000	71.393656 
7590.000000	70.586919 
7589.000000	69.736671 
7588.000000	68.865966 
7587.000000	68.003654 
7586.000000	67.191052 
7585.000000	66.478276 
7584.000000	65.925693 
7583.000000	65.587019 
7582.000000	65.507745 
7581.000000	65.705895 
7580.000000	66.176652 
7579.000000	66.884732 
7578.000000	67.772507 
7577.000000	68.762898 
7576.000000	69.772744 
7575.000000	70.719289 
7574.000000	71.525168 
7573.000000	72.121834 
7572.000000	72.460269 
7571.000000	72.507739 
7570.000000	72.253298 
7569.000000	71.701693 
7568.000000	70.881009 
7567.000000	69.834947 
7566.000000	68.626403 
7565.000000	67.330765 
7564.000000	66.035556 
7563.000000	64.831995 
7562.000000	63.807392 
7561.000000	63.037490 
7560.000000	62.568235 
7559.000000	62.422776 
7558.000000	62.590599 
7557.000000	63.041114 
7556.000000	63.718557 
7555.000000	64.560008 
7554.000000	65.495204 
7553.000000	66.455626 
7552.000000	67.373514 
7551.000000	68.185329 
7550.000000	68.831872 
7549.000000	69.264650 
7548.000000	69.449591 
7547.000000	69.373393 
7546.000000	69.045639 
7545.000000	68.507432 
7544.000000	67.822051 
7543.000000	67.070388 
7542.000000	66.333270 
7541.000000	65.679335 
7540.000000	65.154671 
7539.000000	64.779210 
7538.000000	64.552640 
7537.000000	64.456176 
7536.000000	64.470553 
7535.000000	64.584803 
7534.000000	64.797759 
7533.000000	65.107154 
7532.000000	65.509510 
7531.000000	65.988373 
7530.000000	66.511702 
7529.000000	67.028188 
7528.000000	67.477178 
7527.000000	67.799019 
7526.000000	67.947554 
7525.000000	67.902660 
7524.000000	67.669343 
7523.000000	67.276978 
7522.000000	66.773748 
7521.000000	66.218566 
7520.000000	65.662932 
7519.000000	65.147280 
7518.000000	64.703822 
7517.000000	64.358854 
7516.000000	64.134073 
7515.000000	64.051008 
7514.000000	64.125776 
7513.000000	64.371180 
7512.000000	64.787364 
7511.000000	65.362524 
7510.000000	66.064810 
7509.000000	66.846728 
7508.000000	67.650914 
7507.000000	68.411135 
7506.000000	69.060993 
7505.000000	69.539904 
7504.000000	69.803380 
7503.000000	69.828486 
7502.000000	69.622802 
7501.000000	69.217061 
7500.000000	68.666815 
7499.000000	68.029713 
7498.000000	67.358732 
7497.000000	66.689419 
7496.000000	66.040706 
7495.000000	65.410757 
7494.000000	64.788150 
7493.000000	64.162921 
7492.000000	63.540220 
7491.000000	62.940788 
7490.000000	62.406373 
7489.000000	61.989116 
7488.000000	61.745190 
7487.000000	61.714649 
7486.000000	61.914157 
7485.000000	62.325334 
7484.000000	62.896966 
7483.000000	63.553285 
7482.000000	64.204287 
7481.000000	64.759731 
7480.000000	65.145635 
7479.000000	65.312623 
7478.000000	65.249800 
7477.000000	64.974522 
7476.000000	64.545607 
7475.000000	64.049196 
7474.000000	63.589668 
7473.000000	63.268470 
7472.000000	63.170957 
7471.000000	63.351464 
7470.000000	63.822126 
7469.000000	64.551973 
7468.000000	65.472745 
7467.000000	66.492295 
7466.000000	67.513823 
7465.000000	68.451356 
7464.000000	69.239902 
7463.000000	69.840049 
7462.000000	70.240831 
7461.000000	70.450520 
7460.000000	70.487260 
7459.000000	70.370578 
7458.000000	70.124840 
7457.000000	69.772005 
7456.000000	69.341969 
7455.000000	68.864893 
7454.000000	68.386268 
7453.000000	67.946243 
7452.000000	67.582893 
7451.000000	67.314410 
7450.000000	67.137908 
7449.000000	67.027783 
7448.000000	66.942334 
7447.000000	66.836309 
7446.000000	66.672730 
7445.000000	66.433787 
7444.000000	66.124558 
7443.000000	65.772747 
7442.000000	65.419912 
7441.000000	65.109610 
7440.000000	64.875531 
7439.000000	64.731907 
7438.000000	64.671778 
7437.000000	64.675188 
7436.000000	64.716649 
7435.000000	64.769339 
7434.000000	64.815235 
7433.000000	64.852905 
7432.000000	64.895009 
7431.000000	64.952039 
7430.000000	65.035486 
7429.000000	65.149927 
7428.000000	65.295577 
7427.000000	65.463232 
7426.000000	65.644645 
7425.000000	65.832114 
7424.000000	66.027760 
7423.000000	66.243958 
7422.000000	66.499805 
7421.000000	66.813039 
7420.000000	67.194628 
7419.000000	67.643094 
7418.000000	68.139123 
7417.000000	68.647050 
7416.000000	69.119906 
7415.000000	69.508600 
7414.000000	69.770741 
7413.000000	69.877910 
7412.000000	69.822001 
7411.000000	69.612026 
7410.000000	69.270515 
7409.000000	68.822288 
7408.000000	68.292498 
7407.000000	67.696762 
7406.000000	67.042970 
7405.000000	66.333770 
7404.000000	65.572476 
7403.000000	64.775252 
7402.000000	63.974237 
7401.000000	63.223814 
7400.000000	62.588691 
7399.000000	62.139058 
7398.000000	61.930799 
7397.000000	61.993908 
7396.000000	62.317323 
7395.000000	62.849807 
7394.000000	63.503956 
7393.000000	64.172744 
7392.000000	64.747548 
7391.000000	65.140318 
7390.000000	65.297222 
7389.000000	65.211367 
7388.000000	64.919590 
7387.000000	64.490509 
7386.000000	64.004921 
7385.000000	63.541197 
7384.000000	63.156056 
7383.000000	62.875008 
7382.000000	62.689709 
7381.000000	62.567353 
7380.000000	62.464141 
7379.000000	62.340998 
7378.000000	62.178540 
7377.000000	61.979269 
7376.000000	61.772108 
7375.000000	61.596894 
7374.000000	61.499285 
7373.000000	61.510944 
7372.000000	61.646223 
7371.000000	61.891174 
7370.000000	62.214398 
7369.000000	62.571978 
7368.000000	62.925052 
7367.000000	63.245010 
7366.000000	63.529491 
7365.000000	63.797211 
7364.000000	64.090251 
7363.000000	64.458060 
7362.000000	64.946746 
7361.000000	65.581440 
7360.000000	66.361188 
7359.000000	67.252182 
7358.000000	68.192768 
7357.000000	69.098925 
7356.000000	69.878792 
7355.000000	70.445108 
7354.000000	70.732736 
7353.000000	70.707345 
7352.000000	70.375108 
7351.000000	69.778203 
7350.000000	68.990969 
7349.000000	68.103647 
7348.000000	67.213964 
7347.000000	66.406798 
7346.000000	65.747642 
7345.000000	65.272808 
7344.000000	64.994072 
7343.000000	64.898133 
7342.000000	64.954805 
7341.000000	65.124917 
7340.000000	65.366172 
7339.000000	65.640306 
7338.000000	65.910649 
7337.000000	66.152143 
7336.000000	66.347765 
7335.000000	66.491651 
7334.000000	66.583514 
7333.000000	66.633105 
7332.000000	66.652393 
7331.000000	66.654729 
7330.000000	66.643977 
7329.000000	66.608953 
7328.000000	66.519284 
7327.000000	66.331958 
7326.000000	66.000080 
7325.000000	65.489506 
7324.000000	64.790534 
7323.000000	63.927888 
7322.000000	62.960052 
7321.000000	61.969113 
7320.000000	61.047959 
7319.000000	60.279726 
7318.000000	59.725952 
7317.000000	59.410285 
7316.000000	59.323477 
7315.000000	59.428572 
7314.000000	59.670639 
7313.000000	59.984207 
7312.000000	60.312414 
7311.000000	60.610246 
7310.000000	60.856676 
7309.000000	61.049222 
7308.000000	61.204266 
7307.000000	61.345458 
7306.000000	61.504220 
7305.000000	61.709690 
7304.000000	61.986017 
7303.000000	62.345266 
7302.000000	62.787008 
7301.000000	63.295102 
7300.000000	63.839554 
7299.000000	64.379572 
7298.000000	64.873194 
7297.000000	65.282416 
7296.000000	65.578579 
7295.000000	65.749406 
7294.000000	65.799236 
7293.000000	65.752005 
7292.000000	65.647339 
7291.000000	65.534639 
7290.000000	65.464639 
7289.000000	65.478920 
7288.000000	65.611267 
7287.000000	65.866875 
7286.000000	66.222691 
7285.000000	66.628670 
7284.000000	67.021489 
7283.000000	67.334604 
7282.000000	67.513585 
7281.000000	67.531585 
7280.000000	67.394542 
7279.000000	67.142844 
7278.000000	66.838121 
7277.000000	66.545820 
7276.000000	66.312456 
7275.000000	66.155028 
7274.000000	66.050767 
7273.000000	65.941214 
7272.000000	65.748310 
7271.000000	65.401148 
7270.000000	64.859604 
7269.000000	64.124941 
7268.000000	63.252019 
7267.000000	62.336659 
7266.000000	61.501932 
7265.000000	60.859298 
7264.000000	60.497164 
7263.000000	60.453772 
7262.000000	60.720896 
7261.000000	61.242699 
7260.000000	61.939883 
7259.000000	62.724566 
7258.000000	63.523745 
7257.000000	64.288640 
7256.000000	64.993381 
7255.000000	65.625333 
7254.000000	66.175127 
7253.000000	66.624689 
7252.000000	66.944360 
7251.000000	67.093586 
7250.000000	67.033863 
7249.000000	66.738462 
7248.000000	66.205453 
7247.000000	65.461802 
7246.000000	64.565587 
7245.000000	63.596820 
7244.000000	62.645840 
7243.000000	61.798048 
7242.000000	61.120343 
7241.000000	60.653162 
7240.000000	60.402917 
7239.000000	60.352849 
7238.000000	60.463857 
7237.000000	60.697340 
7236.000000	61.014080 
7235.000000	61.395168 
7234.000000	61.830878 
7233.000000	62.328720 
7232.000000	62.894320 
7231.000000	63.531231 
7230.000000	64.227867 
7229.000000	64.956092 
7228.000000	65.671491 
7227.000000	66.318988 
7226.000000	66.842555 
7225.000000	67.197656 
7224.000000	67.359256 
7223.000000	67.323660 
7222.000000	67.106199 
7221.000000	66.735315 
7220.000000	66.245698 
7219.000000	65.673017 
7218.000000	65.051817 
7217.000000	64.418148 
7216.000000	63.808536 
7215.000000	63.268017 
7214.000000	62.839722 
7213.000000	62.556886 
7212.000000	62.437748 
7211.000000	62.477660 
7210.000000	62.653422 
7209.000000	62.918543 
7208.000000	63.223695 
7207.000000	63.518452 
7206.000000	63.773107 
7205.000000	63.980388 
7204.000000	64.156317 
7203.000000	64.328503 
7202.000000	64.526510 
7201.000000	64.768695 
7200.000000	65.050435 
7199.000000	65.341997 
7198.000000	65.595054 
7197.000000	65.755057 
7196.000000	65.777826 
7195.000000	65.642666 
7194.000000	65.357708 
7193.000000	64.961099 
7192.000000	64.511966 
7191.000000	64.080166 
7190.000000	63.730764 
7189.000000	63.512206 
7188.000000	63.451504 
7187.000000	63.546967 
7186.000000	63.772988 
7185.000000	64.083409 
7184.000000	64.423799 
7183.000000	64.739513 
7182.000000	64.984774 
7181.000000	65.129613 
7180.000000	65.159893 
7179.000000	65.079832 
7178.000000	64.904832 
7177.000000	64.662241 
7176.000000	64.383316 
7175.000000	64.105725 
7174.000000	63.869094 
7173.000000	63.712191 
7172.000000	63.668322 
7171.000000	63.762950 
7170.000000	64.009237 
7169.000000	64.403057 
7168.000000	64.921712 
7167.000000	65.527844 
7166.000000	66.171884 
7165.000000	66.799116 
7164.000000	67.353749 
7163.000000	67.787218 
7162.000000	68.060302 
7161.000000	68.151855 
7160.000000	68.055653 
7159.000000	67.780566 
7158.000000	67.349648 
7157.000000	66.802811 
7156.000000	66.189908 
7155.000000	65.568494 
7154.000000	64.996075 
7153.000000	64.526295 
7152.000000	64.199829 
7151.000000	64.042663 
7150.000000	64.056897 
7149.000000	64.220523 
7148.000000	64.490318 
7147.000000	64.809441 
7146.000000	65.115571 
7145.000000	65.351152 
7144.000000	65.474224 
7143.000000	65.465021 
7142.000000	65.326809 
7141.000000	65.084099 
7140.000000	64.776229 
7139.000000	64.450287 
7138.000000	64.151072 
7137.000000	63.916444 
7136.000000	63.774895 
7135.000000	63.743209 
7134.000000	63.826751 
7133.000000	64.019346 
7132.000000	64.309072 
7131.000000	64.673709 
7130.000000	65.082049 
7129.000000	65.493965 
7128.000000	65.862274 
7127.000000	66.140389 
7126.000000	66.288948 
7125.000000	66.284465 
7124.000000	66.123795 
7123.000000	65.827894 
7122.000000	65.442156 
7121.000000	65.020084 
7120.000000	64.613413 
7119.000000	64.261293 
7118.000000	63.985157 
7117.000000	63.785266 
7116.000000	63.646054 
7115.000000	63.544321 
7114.000000	63.459086 
7113.000000	63.380718 
7112.000000	63.313412 
7111.000000	63.269090 
7110.000000	63.262748 
7109.000000	63.301491 
7108.000000	63.382124 
7107.000000	63.486361 
7106.000000	63.588190 
7105.000000	63.658881 
7104.000000	63.677501 
7103.000000	63.639664 
7102.000000	63.556599 
7101.000000	63.450908 
7100.000000	63.352012 
7099.000000	63.283061 
7098.000000	63.263010 
7097.000000	63.301801 
7096.000000	63.402485 
7095.000000	63.561773 
7094.000000	63.773870 
7093.000000	64.032554 
7092.000000	64.327049 
7091.000000	64.641022 
7090.000000	64.950013 
7089.000000	65.222454 
7088.000000	65.422368 
7087.000000	65.516328 
7086.000000	65.478062 
7085.000000	65.297865 
7084.000000	64.990544 
7083.000000	64.595890 
7082.000000	64.170002 
7081.000000	63.778281 
7080.000000	63.485860 
7079.000000	63.343071 
7078.000000	63.375782 
7077.000000	63.579201 
7076.000000	63.923192 
7075.000000	64.353537 
7074.000000	64.804887 
7073.000000	65.209865 
7072.000000	65.510916 
7071.000000	65.668606 
7070.000000	65.666699 
7069.000000	65.510368 
7068.000000	65.223646 
7067.000000	64.836907 
7066.000000	64.380145 
7065.000000	63.878631 
7064.000000	63.353180 
7063.000000	62.823462 
7062.000000	62.314271 
7061.000000	61.857700 
7060.000000	61.496329 
7059.000000	61.279559 
7058.000000	61.259126 
7057.000000	61.470580 
7056.000000	61.929559 
7055.000000	62.624669 
7054.000000	63.515496 
7053.000000	64.533877 
7052.000000	65.591859 
7051.000000	66.592288 
7050.000000	67.444038 
7049.000000	68.074607 
7048.000000	68.442320 
7047.000000	68.539142 
7046.000000	68.395066 
7045.000000	68.072104 
7044.000000	67.653179 
7043.000000	67.230439 
7042.000000	66.886281 
7041.000000	66.684722 
7040.000000	66.657185 
7039.000000	66.804409 
7038.000000	67.094111 
7037.000000	67.472553 
7036.000000	67.871975 
7035.000000	68.224978 
7034.000000	68.473815 
7033.000000	68.579840 
7032.000000	68.524289 
7031.000000	68.310260 
7030.000000	67.958879 
7029.000000	67.506074 
7028.000000	66.995263 
7027.000000	66.473579 
7026.000000	65.989279 
7025.000000	65.584945 
7024.000000	65.296316 
7023.000000	65.144872 
7022.000000	65.136027 
7021.000000	65.257167 
7020.000000	65.480089 
7019.000000	65.764117 
7018.000000	66.056632 
7017.000000	66.309976 
7016.000000	66.487908 
7015.000000	66.572475 
7014.000000	66.563296 
7013.000000	66.477155 
7012.000000	66.341018 
7011.000000	66.183018 
7010.000000	66.025209 
7009.000000	65.877532 
7008.000000	65.738129 
7007.000000	65.596556 
7006.000000	65.442013 
7005.000000	65.270614 
7004.000000	65.092396 
7003.000000	64.928817 
7002.000000	64.812970 
7001.000000	64.780163 
7000.000000	64.862012 
6999.000000	65.075421 
6998.000000	65.419101 
6997.000000	65.869045 
6996.000000	66.383814 
6995.000000	66.914820 
6994.000000	67.410254 
6993.000000	67.825341 
6992.000000	68.125295 
6991.000000	68.292474 
6990.000000	68.321108 
6989.000000	68.217635 
6988.000000	67.995381 
6987.000000	67.673182 
6986.000000	67.274522 
6985.000000	66.829109 
6984.000000	66.368961 
6983.000000	65.928077 
6982.000000	65.535545 
6981.000000	65.213680 
6980.000000	64.971899 
6979.000000	64.808702 
6978.000000	64.713001 
6977.000000	64.671516 
6976.000000	64.670276 
6975.000000	64.702415 
6974.000000	64.767169 
6973.000000	64.871954 
6972.000000	65.023541 
6971.000000	65.227127 
6970.000000	65.480422 
6969.000000	65.770959 
6968.000000	66.077160 
6967.000000	66.368198 
6966.000000	66.612052 
6965.000000	66.776823 
6964.000000	66.839241 
6963.000000	66.786456 
6962.000000	66.620874 
6961.000000	66.357588 
6960.000000	66.022324 
6959.000000	65.648841 
6958.000000	65.274548 
6957.000000	64.934897 
6956.000000	64.659047 
6955.000000	64.461970 
6954.000000	64.342808 
6953.000000	64.286303 
6952.000000	64.267373 
6951.000000	64.253664 
6950.000000	64.215111 
6949.000000	64.131236 
6948.000000	63.997316 
6947.000000	63.820886 
6946.000000	63.623118 
6945.000000	63.430452 
6944.000000	63.270878 
6943.000000	63.165926 
6942.000000	63.127183 
6941.000000	63.153982 
6940.000000	63.233828 
6939.000000	63.347172 
6938.000000	63.469886 
6937.000000	63.578581 
6936.000000	63.654446 
6935.000000	63.685584 
6934.000000	63.668322 
6933.000000	63.605403 
6932.000000	63.506507 
6931.000000	63.385343 
6930.000000	63.259577 
6929.000000	63.148117 
6928.000000	63.071012 
6927.000000	63.046932 
6926.000000	63.091516 
6925.000000	63.214874 
6924.000000	63.418292 
6923.000000	63.693404 
6922.000000	64.022445 
6921.000000	64.380717 
6920.000000	64.739584 
6919.000000	65.070819 
6918.000000	65.350818 
6917.000000	65.563178 
6916.000000	65.699267 
6915.000000	65.758919 
6914.000000	65.751338 
6913.000000	65.690970 
6912.000000	65.594148 
6911.000000	65.478515 
6910.000000	65.364360 
6909.000000	65.269255 
6908.000000	65.209364 
6907.000000	65.193033 
6906.000000	65.222430 
6905.000000	65.287137 
6904.000000	65.367269 
6903.000000	65.433979 
6902.000000	65.455794 
6901.000000	65.408110 
6900.000000	65.279746 
6899.000000	65.077233 
6898.000000	64.823865 
6897.000000	64.553570 
6896.000000	64.303159 
6895.000000	64.100933 
6894.000000	63.963413 
6893.000000	63.892507 
6892.000000	63.881564 
6891.000000	63.915872 
6890.000000	63.985347 
6889.000000	64.089226 
6888.000000	64.238023 
6887.000000	64.446568 
6886.000000	64.728689 
6885.000000	65.086913 
6884.000000	65.507626 
6883.000000	65.957832 
6882.000000	66.390967 
6881.000000	66.756534 
6880.000000	67.010402 
6879.000000	67.127418 
6878.000000	67.102456 
6877.000000	66.952109 
6876.000000	66.708803 
6875.000000	66.413736 
6874.000000	66.109275 
6873.000000	65.830826 
6872.000000	65.604925 
6871.000000	65.444469 
6870.000000	65.348935 
6869.000000	65.304660 
6868.000000	65.289163 
6867.000000	65.276145 
6866.000000	65.237903 
6865.000000	65.155243 
6864.000000	65.016508 
6863.000000	64.827656 
6862.000000	64.608407 
6861.000000	64.392995 
6860.000000	64.220690 
6859.000000	64.128351 
6858.000000	64.141798 
6857.000000	64.267015 
6856.000000	64.486956 
6855.000000	64.765214 
6854.000000	65.055012 
6853.000000	65.307879 
6852.000000	65.483975 
6851.000000	65.560388 
6850.000000	65.534520 
6849.000000	65.423130 
6848.000000	65.256142 
6847.000000	65.071964 
6846.000000	64.907884 
6845.000000	64.796137 
6844.000000	64.756608 
6843.000000	64.795088 
6842.000000	64.901304 
6841.000000	65.054512 
6840.000000	65.225505 
6839.000000	65.380716 
6838.000000	65.489149 
6837.000000	65.526986 
6836.000000	65.483379 
6835.000000	65.360999 
6834.000000	65.176272 
6833.000000	64.956569 
6832.000000	64.732456 
6831.000000	64.531540 
6830.000000	64.371991 
6829.000000	64.259815 
6828.000000	64.189910 
6827.000000	64.149498 
6826.000000	64.125108 
6825.000000	64.106774 
6824.000000	64.094591 
6823.000000	64.098691 
6822.000000	64.133906 
6821.000000	64.212918 
6820.000000	64.342379 
6819.000000	64.518046 
6818.000000	64.722466 
6817.000000	64.927840 
6816.000000	65.102219 
6815.000000	65.217828 
6814.000000	65.259861 
6813.000000	65.230154 
6812.000000	65.146613 
6811.000000	65.038514 
6810.000000	64.940547 
6809.000000	64.882135 
6808.000000	64.879775 
6807.000000	64.933037 
6806.000000	65.028238 
6805.000000	65.140652 
6804.000000	65.244936 
6803.000000	65.318131 
6802.000000	65.349745 
6801.000000	65.335416 
6800.000000	65.276861 
6799.000000	65.175771 
6798.000000	65.031361 
6797.000000	64.840149 
6796.000000	64.598131 
6795.000000	64.304852 
6794.000000	63.967299 
6793.000000	63.603305 
6792.000000	63.241887 
6791.000000	62.917399 
6790.000000	62.665152 
6789.000000	62.513566 
6788.000000	62.480664 
6787.000000	62.567973 
6786.000000	62.763905 
6785.000000	63.045930 
6784.000000	63.387632 
6783.000000	63.760566 
6782.000000	64.141082 
6781.000000	64.509654 
6780.000000	64.853429 
6779.000000	65.162682 
6778.000000	65.430641 
6777.000000	65.652418 
6776.000000	65.821957 
6775.000000	65.936923 
6774.000000	65.991377 
6773.000000	65.981674 
6772.000000	65.901279 
6771.000000	65.747117 
6770.000000	65.517783 
6769.000000	65.218400 
6768.000000	64.862275 
6767.000000	64.472866 
6766.000000	64.080858 
6765.000000	63.720870 
6764.000000	63.427424 
6763.000000	63.228750 
6762.000000	63.139915 
6761.000000	63.160324 
6760.000000	63.272476 
6759.000000	63.447308 
6758.000000	63.648939 
6757.000000	63.844490 
6756.000000	64.006638 
6755.000000	64.121294 
6754.000000	64.188408 
6753.000000	64.218592 
6752.000000	64.225673 
6751.000000	64.222025 
6750.000000	64.215278 
6749.000000	64.204168 
6748.000000	64.180421 
6747.000000	64.132142 
6746.000000	64.050436 
6745.000000	63.933563 
6744.000000	63.791012 
6743.000000	63.641786 
6742.000000	63.510537 
6741.000000	63.423848 
6740.000000	63.403367 
6739.000000	63.460779 
6738.000000	63.593387 
6737.000000	63.787150 
6736.000000	64.017224 
6735.000000	64.250445 
6734.000000	64.449858 
6733.000000	64.582562 
6732.000000	64.623260 
6731.000000	64.555954 
6730.000000	64.377355 
6729.000000	64.097428 
6728.000000	63.739204 
6727.000000	63.335824 
6726.000000	62.926554 
6725.000000	62.550902 
6724.000000	62.244606 
6723.000000	62.034130 
6722.000000	61.935424 
6721.000000	61.950230 
6720.000000	62.070775 
6719.000000	62.279772 
6718.000000	62.557244 
6717.000000	62.880992 
6716.000000	63.231182 
6715.000000	63.589119 
6714.000000	63.939166 
6713.000000	64.266705 
6712.000000	64.560103 
6711.000000	64.810252 
6710.000000	65.013551 
6709.000000	65.171527 
6708.000000	65.292406 
6707.000000	65.387558 
6706.000000	65.472054 
6705.000000	65.557336 
6704.000000	65.650510 
6703.000000	65.749144 
6702.000000	65.842318 
6701.000000	65.913057 
6700.000000	65.945887 
6699.000000	65.931010 
6698.000000	65.868735 
6697.000000	65.771126 
6696.000000	65.660357 
6695.000000	65.563964 
6694.000000	65.508818 
6693.000000	65.513896 
6692.000000	65.584969 
6691.000000	65.713667 
6690.000000	65.880632 
6689.000000	66.058897 
6688.000000	66.221094 
6687.000000	66.344547 
6686.000000	66.415786 
6685.000000	66.434001 
6684.000000	66.409611 
6683.000000	66.359901 
6682.000000	66.302824 
6681.000000	66.254806 
6680.000000	66.224002 
6679.000000	66.209602 
6678.000000	66.199064 
6677.000000	66.174650 
6676.000000	66.114211 
6675.000000	65.998601 
6674.000000	65.814876 
6673.000000	65.558052 
6672.000000	65.236496 
6671.000000	64.868760 
6670.000000	64.485883 
6669.000000	64.125013 
6668.000000	63.825535 
6667.000000	63.621163 
6666.000000	63.533449 
6665.000000	63.566350 
6664.000000	63.705635 
6663.000000	63.919663 
6662.000000	64.169263 
6661.000000	64.414954 
6660.000000	64.625453 
6659.000000	64.781880 
6658.000000	64.878463 
6657.000000	64.919924 
6656.000000	64.915561 
6655.000000	64.874649 
6654.000000	64.802813 
6653.000000	64.702677 
6652.000000	64.576601 
6651.000000	64.430713 
6650.000000	64.278578 
6649.000000	64.141392 
6648.000000	64.046835 
6647.000000	64.022231 
6646.000000	64.087486 
6645.000000	64.248824 
6644.000000	64.494252 
6643.000000	64.795541 
6642.000000	65.112996 
6641.000000	65.403103 
6640.000000	65.629005 
6639.000000	65.764904 
6638.000000	65.800309 
6637.000000	65.740251 
6636.000000	65.602540 
6635.000000	65.412926 
6634.000000	65.199017 
6633.000000	64.988040 
6632.000000	64.803242 
6631.000000	64.663982 
6630.000000	64.584445 
6629.000000	64.572596 
6628.000000	64.628887 
6627.000000	64.745831 
6626.000000	64.908003 
6625.000000	65.091013 
6624.000000	65.266442 
6623.000000	65.405726 
6622.000000	65.486264 
6621.000000	65.495634 
6620.000000	65.433478 
6619.000000	65.310883 
6618.000000	65.146851 
6617.000000	64.964246 
6616.000000	64.783811 
6615.000000	64.620089 
6614.000000	64.479947 
6613.000000	64.364957 
6612.000000	64.272403 
6611.000000	64.199542 
6610.000000	64.144778 
6609.000000	64.108943 
6608.000000	64.094519 
6607.000000	64.104008 
6606.000000	64.136266 
6605.000000	64.184784 
6604.000000	64.238929 
6603.000000	64.285182 
6602.000000	64.311909 
6601.000000	64.311361 
6600.000000	64.280748 
6599.000000	64.222192 
6598.000000	64.141869 
6597.000000	64.048457 
6596.000000	63.949751 
6595.000000	63.852691 
6594.000000	63.760948 
6593.000000	63.678646 
6592.000000	63.610816 
6591.000000	63.566136 
6590.000000	63.555240 
6589.000000	63.590717 
6588.000000	63.684177 
6587.000000	63.841748 
6586.000000	64.060521 
6585.000000	64.325666 
6584.000000	64.611244 
6583.000000	64.883303 
6582.000000	65.106225 
6581.000000	65.249752 
6580.000000	65.295529 
6579.000000	65.242338 
6578.000000	65.106534 
6577.000000	64.920377 
6576.000000	64.724850 
6575.000000	64.562082 
6574.000000	64.465236 
6573.000000	64.451575 
6572.000000	64.518237 
6571.000000	64.644455 
6570.000000	64.796423 
6569.000000	64.937376 
6568.000000	65.035295 
6567.000000	65.070271 
6566.000000	65.037512 
6565.000000	64.945363 
6564.000000	64.812469 
6563.000000	64.661049 
6562.000000	64.511299 
6561.000000	64.376783 
6560.000000	64.262175 
6559.000000	64.166784 
6558.000000	64.083433 
6557.000000	64.003920 
6556.000000	63.920068 
6555.000000	63.827276 
6554.000000	63.724780 
6553.000000	63.615560 
6552.000000	63.506054 
6551.000000	63.403868 
6550.000000	63.318800 
6549.000000	63.260436 
6548.000000	63.236618 
6547.000000	63.250660 
6546.000000	63.299202 
6545.000000	63.372015 
6544.000000	63.451099 
6543.000000	63.515973 
6542.000000	63.547229 
6541.000000	63.533806 
6540.000000	63.474655 
6539.000000	63.382649 
6538.000000	63.280797 
6537.000000	63.198876 
6536.000000	63.164830 
6535.000000	63.199567 
6534.000000	63.311123 
6533.000000	63.493323 
6532.000000	63.727378 
6531.000000	63.986587 
6530.000000	64.242029 
6529.000000	64.470005 
6528.000000	64.655947 
6527.000000	64.797163 
6526.000000	64.900732 
6525.000000	64.980220 
6524.000000	65.050053 
6523.000000	65.119433 
6522.000000	65.188336 
6521.000000	65.248870 
6520.000000	65.286421 
6519.000000	65.282726 
6518.000000	65.220713 
6517.000000	65.091109 
6516.000000	64.895558 
6515.000000	64.647102 
6514.000000	64.369893 
6513.000000	64.093971 
6512.000000	63.851737 
6511.000000	63.672041 
6510.000000	63.575124 
6509.000000	63.569664 
6508.000000	63.650083 
6507.000000	63.799428 
6506.000000	63.990092 
6505.000000	64.188599 
6504.000000	64.361548 
6503.000000	64.480209 
6502.000000	64.526748 
6501.000000	64.494085 
6500.000000	64.391684 
6499.000000	64.242053 
6498.000000	64.078259 
6497.000000	63.936305 
6496.000000	63.850474 
6495.000000	63.846015 
6494.000000	63.934731 
6493.000000	64.112210 
6492.000000	64.358091 
6491.000000	64.640092 
6490.000000	64.920735 
6489.000000	65.164709 
6488.000000	65.345358 
6487.000000	65.449237 
6486.000000	65.477395 
6485.000000	65.442848 
6484.000000	65.366554 
6483.000000	65.270233 
6482.000000	65.173101 
6481.000000	65.085482 
6480.000000	65.010857 
6479.000000	64.943861 
6478.000000	64.876699 
6477.000000	64.800167 
6476.000000	64.708876 
6475.000000	64.602518 
6474.000000	64.485621 
6473.000000	64.368963 
6472.000000	64.266252 
6471.000000	64.192867 
6470.000000	64.161586 
6469.000000	64.181971 
6468.000000	64.257526 
6467.000000	64.385676 
6466.000000	64.557290 
6465.000000	64.757609 
6464.000000	64.967513 
6463.000000	65.166234 
6462.000000	65.333294 
6461.000000	65.451669 
6460.000000	65.508460 
6459.000000	65.497946 
6458.000000	65.419578 
6457.000000	65.279912 
6456.000000	65.088248 
6455.000000	64.857387 
6454.000000	64.599680 
6453.000000	64.327597 
6452.000000	64.052581 
6451.000000	63.785338 
6450.000000	63.538050 
6449.000000	63.324308 
6448.000000	63.159465 
6447.000000	63.057971 
6446.000000	63.031148 
6445.000000	63.083314 
6444.000000	63.209843 
6443.000000	63.395810 
6442.000000	63.617992 
6441.000000	63.848209 
6440.000000	64.058470 
6439.000000	64.226126 
6438.000000	64.336347 
6437.000000	64.385437 
6436.000000	64.380288 
6435.000000	64.336943 
6434.000000	64.277482 
6433.000000	64.223957 
6432.000000	64.196467 
6431.000000	64.205360 
6430.000000	64.252924 
6429.000000	64.328408 
6428.000000	64.414906 
6427.000000	64.488482 
6426.000000	64.523482 
6425.000000	64.499211 
6424.000000	64.405179 
6423.000000	64.244675 
6422.000000	64.033055 
6421.000000	63.797926 
6420.000000	63.573718 
6419.000000	63.392853 
6418.000000	63.278317 
6417.000000	63.240265 
6416.000000	63.274502 
6415.000000	63.366818 
6414.000000	63.497972 
6413.000000	63.649201 
6412.000000	63.806462 
6411.000000	63.962364 
6410.000000	64.115500 
6409.000000	64.264082 
6408.000000	64.405488 
6407.000000	64.534258 
6406.000000	64.643883 
6405.000000	64.727091 
6404.000000	64.780735 
6403.000000	64.807701 
6402.000000	64.818882 
6401.000000	64.832806 
6400.000000	64.871478 
6399.000000	64.954829 
6398.000000	65.095829 
6397.000000	65.296888 
6396.000000	65.548038 
6395.000000	65.829324 
6394.000000	66.113519 
6393.000000	66.373062 
6392.000000	66.582894 
6391.000000	66.725850 
6390.000000	66.793036 
6389.000000	66.784524 
6388.000000	66.706919 
6387.000000	66.571021 
6386.000000	66.389894 
6385.000000	66.176438 
6384.000000	65.942049 
6383.000000	65.696811 
6382.000000	65.450215 
6381.000000	65.213179 
6380.000000	64.999556 
6379.000000	64.826154 
6378.000000	64.709138 
6377.000000	64.662981 
6376.000000	64.695501 
6375.000000	64.806652 
6374.000000	64.984536 
6373.000000	65.208697 
6372.000000	65.452194 
6371.000000	65.686178 
6370.000000	65.883827 
6369.000000	66.025090 
6368.000000	66.100168 
6367.000000	66.107821 
6366.000000	66.054201 
6365.000000	65.949249 
6364.000000	65.804696 
6363.000000	65.631175 
6362.000000	65.437889 
6361.000000	65.234899 
6360.000000	65.034317 
6359.000000	64.851021 
6358.000000	64.701652 
6357.000000	64.599943 
6356.000000	64.554667 
6355.000000	64.566326 
6354.000000	64.628362 
6353.000000	64.726233 
6352.000000	64.842963 
6351.000000	64.962530 
6350.000000	65.073895 
6349.000000	65.171980 
6348.000000	65.256714 
6347.000000	65.331363 
6346.000000	65.397691 
6345.000000	65.452933 
6344.000000	65.489029 
6343.000000	65.494418 
6342.000000	65.457201 
6341.000000	65.371179 
6340.000000	65.237188 
6339.000000	65.065884 
6338.000000	64.875125 
6337.000000	64.687585 
6336.000000	64.525294 
6335.000000	64.405179 
6334.000000	64.340066 
6333.000000	64.337158 
6332.000000	64.399743 
6331.000000	64.526605 
6330.000000	64.712238 
6329.000000	64.945530 
6328.000000	65.208768 
6327.000000	65.478658 
6326.000000	65.725445 
6325.000000	65.919780 
6324.000000	66.036868 
6323.000000	66.063785 
6322.000000	66.002917 
6321.000000	65.872311 
6320.000000	65.704441 
6319.000000	65.536165 
6318.000000	65.402913 
6317.000000	65.327310 
6316.000000	65.316176 
6315.000000	65.358304 
6314.000000	65.430784 
6313.000000	65.503787 
6312.000000	65.551304 
6311.000000	65.553784 
6310.000000	65.502858 
6309.000000	65.400004 
6308.000000	65.254521 
6307.000000	65.078783 
6306.000000	64.884924 
6305.000000	64.684128 
6304.000000	64.486479 
6303.000000	64.302420 
6302.000000	64.144015 
6301.000000	64.025306 
6300.000000	63.961100 
6299.000000	63.963913 
6298.000000	64.040708 
6297.000000	64.187097 
6296.000000	64.388585 
6295.000000	64.621448 
6294.000000	64.857101 
6293.000000	65.065979 
6292.000000	65.223979 
6291.000000	65.316510 
6290.000000	65.340828 
6289.000000	65.304327 
6288.000000	65.223693 
6287.000000	65.120029 
6286.000000	65.015959 
6285.000000	64.931845 
6284.000000	64.882969 
6283.000000	64.878296 
6282.000000	64.920330 
6281.000000	65.006303 
6280.000000	65.127587 
6279.000000	65.271615 
6278.000000	65.422654 
6277.000000	65.564179 
6276.000000	65.680217 
6275.000000	65.758228 
6274.000000	65.791320 
6273.000000	65.779209 
6272.000000	65.728282 
6271.000000	65.649867 
6270.000000	65.559267 
6269.000000	65.470957 
6268.000000	65.397858 
6267.000000	65.346121 
6266.000000	65.316104 
6265.000000	65.300321 
6264.000000	65.287637 
6263.000000	65.264534 
6262.000000	65.218091 
6261.000000	65.140938 
6260.000000	65.033245 
6259.000000	64.904046 
6258.000000	64.767980 
6257.000000	64.644932 
6256.000000	64.555025 
6255.000000	64.514398 
6254.000000	64.531111 
6253.000000	64.602923 
6252.000000	64.717459 
6251.000000	64.854192 
6250.000000	64.988803 
6249.000000	65.098977 
6248.000000	65.168571 
6247.000000	65.190505 
6246.000000	65.166449 
6245.000000	65.105128 
6244.000000	65.018010 
6243.000000	64.916110 
6242.000000	64.806604 
6241.000000	64.692640 
6240.000000	64.573073 
6239.000000	64.446902 
6238.000000	64.313578 
6237.000000	64.176034 
6236.000000	64.040398 
6235.000000	63.916087 
6234.000000	63.812780 
6233.000000	63.737201 
6232.000000	63.691735 
6231.000000	63.673472 
6230.000000	63.673973 
6229.000000	63.680481 
6228.000000	63.680076 
6227.000000	63.662672 
6226.000000	63.622975 
6225.000000	63.561534 
6224.000000	63.484239 
6223.000000	63.400936 
6222.000000	63.323569 
6221.000000	63.263821 
6220.000000	63.230633 
6219.000000	63.228845 
6218.000000	63.259100 
6217.000000	63.317418 
6216.000000	63.396477 
6215.000000	63.486552 
6214.000000	63.576889 
6213.000000	63.657641 
6212.000000	63.719820 
6211.000000	63.758778 
6210.000000	63.772058 
6209.000000	63.763809 
6208.000000	63.742160 
6207.000000	63.721489 
6206.000000	63.718795 
6205.000000	63.751626 
6204.000000	63.835406 
6203.000000	63.976144 
6202.000000	64.168214 
6201.000000	64.392733 
6200.000000	64.621162 
6199.000000	64.818310 
6198.000000	64.950108 
6197.000000	64.991998 
6196.000000	64.935183 
6195.000000	64.788961 
6194.000000	64.579248 
6193.000000	64.344596 
6192.000000	64.126586 
6191.000000	63.961601 
6190.000000	63.871550 
6189.000000	63.861298 
6188.000000	63.916850 
6187.000000	64.011812 
6186.000000	64.113545 
6185.000000	64.190912 
6184.000000	64.223074 
6183.000000	64.202523 
6182.000000	64.137959 
6181.000000	64.047193 
6180.000000	63.956308 
6179.000000	63.890337 
6178.000000	63.869309 
6177.000000	63.902783 
6176.000000	63.989758 
6175.000000	64.119839 
6174.000000	64.277005 
6173.000000	64.444160 
6172.000000	64.608168 
6171.000000	64.762401 
6170.000000	64.906859 
6169.000000	65.045690 
6168.000000	65.184164 
6167.000000	65.323925 
6166.000000	65.461158 
6165.000000	65.584254 
6164.000000	65.677332 
6163.000000	65.721893 
6162.000000	65.704488 
6161.000000	65.618252 
6160.000000	65.466237 
6159.000000	65.261244 
6158.000000	65.025234 
6157.000000	64.784765 
6156.000000	64.566206 
6155.000000	64.391303 
6154.000000	64.273643 
6153.000000	64.217209 
6152.000000	64.217257 
6151.000000	64.261603 
6150.000000	64.334082 
6149.000000	64.417862 
6148.000000	64.498353 
6147.000000	64.565253 
6146.000000	64.612746 
6145.000000	64.641332 
6144.000000	64.656138 
6143.000000	64.664459 
6142.000000	64.673376 
6141.000000	64.688992 
6140.000000	64.714574 
6139.000000	64.749741 
6138.000000	64.790749 
6137.000000	64.832711 
6136.000000	64.870429 
6135.000000	64.900517 
6134.000000	64.921617 
6133.000000	64.933848 
6132.000000	64.938998 
6131.000000	64.939045 
6130.000000	64.936637 
6129.000000	64.933967 
6128.000000	64.933466 
6127.000000	64.938306 
6126.000000	64.951062 
6125.000000	64.973759 
6124.000000	65.006136 
6123.000000	65.046405 
6122.000000	65.088486 
6121.000000	65.122890 
6120.000000	65.137410 
6119.000000	65.119814 
6118.000000	65.060496 
6117.000000	64.955544 
6116.000000	64.808440 
6115.000000	64.630913 
6114.000000	64.442372 
6113.000000	64.267158 
6112.000000	64.129376 
6111.000000	64.049124 
6110.000000	64.038443 
6109.000000	64.099502 
6108.000000	64.223480 
6107.000000	64.393043 
6106.000000	64.586615 
6105.000000	64.781761 
6104.000000	64.958190 
6103.000000	65.100884 
6102.000000	65.200495 
6101.000000	65.254044 
6100.000000	65.263867 
6099.000000	65.235710 
6098.000000	65.176439 
6097.000000	65.094256 
6096.000000	64.998865 
6095.000000	64.900088 
6094.000000	64.808297 
6093.000000	64.732408 
6092.000000	64.679741 
6091.000000	64.652824 
6090.000000	64.649486 
6089.000000	64.662456 
6088.000000	64.681339 
6087.000000	64.695930 
6086.000000	64.697980 
6085.000000	64.684104 
6084.000000	64.654517 
6083.000000	64.610600 
6082.000000	64.554071 
6081.000000	64.484047 
6080.000000	64.399933 
6079.000000	64.300489 
6078.000000	64.189696 
6077.000000	64.075326 
6076.000000	63.973546 
6075.000000	63.906645 
6074.000000	63.898658 
6073.000000	63.968491 
6072.000000	64.124202 
6071.000000	64.358949 
6070.000000	64.649915 
6069.000000	64.960980 
6068.000000	65.251088 
6067.000000	65.482854 
6066.000000	65.630340 
6065.000000	65.684294 
6064.000000	65.651035 
6063.000000	65.549492 
6062.000000	65.405511 
6061.000000	65.246152 
6060.000000	65.095973 
6059.000000	64.972710 
6058.000000	64.889550 
6057.000000	64.851331 
6056.000000	64.857077 
6055.000000	64.897656 
6054.000000	64.959216 
6053.000000	65.023112 
6052.000000	65.067362 
6051.000000	65.072655 
6050.000000	65.024399 
6049.000000	64.919137 
6048.000000	64.764165 
6047.000000	64.578509 
6046.000000	64.389586 
6045.000000	64.225983 
6044.000000	64.111018 
6043.000000	64.056968 
6042.000000	64.061951 
6041.000000	64.112782 
6040.000000	64.189219 
6039.000000	64.269876 
6038.000000	64.337706 
6037.000000	64.383006 
6036.000000	64.404416 
6035.000000	64.405560 
6034.000000	64.392805 
6033.000000	64.372682 
6032.000000	64.351058 
6031.000000	64.331841 
6030.000000	64.318680 
6029.000000	64.316296 
6028.000000	64.331269 
6027.000000	64.372134 
6026.000000	64.446997 
6025.000000	64.561080 
6024.000000	64.713978 
6023.000000	64.897751 
6022.000000	65.097784 
6021.000000	65.295386 
6020.000000	65.470004 
6019.000000	65.604710 
6018.000000	65.686774 
6017.000000	65.710091 
6016.000000	65.676188 
6015.000000	65.593743 
6014.000000	65.478157 
6013.000000	65.348577 
6012.000000	65.226745 
6011.000000	65.133643 
6010.000000	65.084934 
6009.000000	65.088176 
6008.000000	65.140056 
6007.000000	65.226507 
6006.000000	65.324926 
6005.000000	65.409421 
6004.000000	65.455412 
6003.000000	65.446090 
6002.000000	65.375733 
6001.000000	65.251421 
6000.000000	65.091228 
5999.000000	64.919590 
5998.000000	64.761209 
5997.000000	64.635801 
5996.000000	64.553189 
5995.000000	64.514088 
5994.000000	64.511919 
5993.000000	64.536690 
5992.000000	64.578557 
5991.000000	64.631295 
5990.000000	64.693880 
5989.000000	64.767885 
5988.000000	64.853978 
5987.000000	64.949893 
5986.000000	65.048289 
5985.000000	65.136957 
5984.000000	65.200781 
5983.000000	65.226531 
5982.000000	65.206885 
5981.000000	65.144419 
5980.000000	65.052247 
5979.000000	64.951491 
5978.000000	64.866757 
5977.000000	64.820337 
5976.000000	64.826560 
5975.000000	64.889097 
5974.000000	64.999246 
5973.000000	65.138936 
5972.000000	65.284061 
5971.000000	65.411305 
5970.000000	65.502071 
5969.000000	65.546250 
5968.000000	65.543198 
5967.000000	65.499162 
5966.000000	65.426015 
5965.000000	65.337491 
5964.000000	65.246081 
5963.000000	65.160489 
5962.000000	65.085172 
5961.000000	65.021872 
5960.000000	64.970088 
5959.000000	64.929437 
5958.000000	64.899826 
5957.000000	64.881896 
5956.000000	64.876747 
5955.000000	64.885282 
5954.000000	64.906597 
5953.000000	64.937114 
5952.000000	64.970707 
5951.000000	64.999270 
5950.000000	65.013694 
5949.000000	65.006184 
5948.000000	64.971756 
5947.000000	64.910244 
5946.000000	64.826059 
5945.000000	64.728689 
5944.000000	64.630484 
5943.000000	64.545440 
5942.000000	64.486479 
5941.000000	64.463424 
5940.000000	64.480996 
5939.000000	64.538097 
5938.000000	64.628314 
5937.000000	64.740681 
5936.000000	64.861655 
5935.000000	64.977312 
5934.000000	65.075659 
5933.000000	65.147662 
5932.000000	65.187883 
5931.000000	65.195512 
5930.000000	65.173816 
5929.000000	65.129971 
5928.000000	65.073180 
5927.000000	65.013480 
5926.000000	64.959311 
5925.000000	64.916086 
5924.000000	64.884853 
5923.000000	64.862203 
5922.000000	64.841794 
5921.000000	64.815545 
5920.000000	64.777994 
5919.000000	64.726877 
5918.000000	64.666867 
5917.000000	64.607930 
5916.000000	64.565300 
5915.000000	64.554476 
5914.000000	64.588761 
5913.000000	64.675045 
5912.000000	64.812135 
5911.000000	64.989447 
5910.000000	65.190029 
5909.000000	65.393996 
5908.000000	65.581488 
5907.000000	65.736675 
5906.000000	65.849041 
5905.000000	65.914416 
5904.000000	65.933227 
5903.000000	65.909194 
5902.000000	65.847015 
5901.000000	65.751552 
5900.000000	65.628838 
5899.000000	65.486431 
5898.000000	65.333962 
5897.000000	65.182995 
5896.000000	65.047883 
5895.000000	64.943003 
5894.000000	64.879655 
5893.000000	64.863538 
5892.000000	64.892864 
5891.000000	64.958405 
5890.000000	65.045666 
5889.000000	65.136957 
5888.000000	65.214705 
5887.000000	65.264058 
5886.000000	65.275287 
5885.000000	65.244007 
5884.000000	65.170454 
5883.000000	65.059614 
5882.000000	64.919543 
5881.000000	64.761519 
5880.000000	64.597916 
5879.000000	64.443516 
5878.000000	64.314341 
5877.000000	64.226484 
5876.000000	64.193701 
5875.000000	64.226412 
5874.000000	64.329385 
5873.000000	64.499902 
5872.000000	64.727067 
5871.000000	64.993524 
5870.000000	65.277004 
5869.000000	65.553522 
5868.000000	65.799355 
5867.000000	65.994286 
5866.000000	66.122794 
5865.000000	66.177129 
5864.000000	66.156387 
5863.000000	66.066861 
5862.000000	65.920019 
5861.000000	65.734195 
5860.000000	65.528678 
5859.000000	65.323448 
5858.000000	65.134787 
5857.000000	64.975786 
5856.000000	64.853024 
5855.000000	64.767956 
5854.000000	64.717411 
5853.000000	64.695501 
5852.000000	64.696264 
5851.000000	64.714574 
5850.000000	64.747381 
5849.000000	64.792728 
5848.000000	64.848351 
5847.000000	64.910006 
5846.000000	64.970183 
5845.000000	65.018391 
5844.000000	65.042829 
5843.000000	65.033340 
5842.000000	64.983916 
5841.000000	64.895701 
5840.000000	64.778280 
5839.000000	64.648818 
5838.000000	64.527654 
5837.000000	64.435362 
5836.000000	64.388942 
5835.000000	64.398479 
5834.000000	64.463949 
5833.000000	64.577174 
5832.000000	64.723491 
5831.000000	64.885592 
5830.000000	65.047168 
5829.000000	65.195298 
5828.000000	65.321087 
5827.000000	65.420436 
5826.000000	65.492773 
5825.000000	65.539002 
5824.000000	65.559601 
5823.000000	65.554738 
5822.000000	65.524578 
5821.000000	65.469765 
5820.000000	65.392947 
5819.000000	65.299487 
5818.000000	65.197420 
5817.000000	65.097427 
5816.000000	65.010547 
5815.000000	64.945912 
5814.000000	64.908313 
5813.000000	64.897179 
5812.000000	64.906382 
5811.000000	64.925503 
5810.000000	64.942884 
5809.000000	64.947819 
5808.000000	64.934086 
5807.000000	64.900827 
5806.000000	64.852976 
5805.000000	64.798665 
5804.000000	64.747667 
5803.000000	64.708304 
5802.000000	64.685368 
5801.000000	64.679002 
5800.000000	64.685010 
5799.000000	64.696264 
5798.000000	64.704823 
5797.000000	64.704465 
5796.000000	64.691257 
5795.000000	64.664506 
5794.000000	64.624404 
5793.000000	64.571142 
5792.000000	64.504694 
5791.000000	64.425158 
5790.000000	64.333105 
5789.000000	64.230895 
5788.000000	64.124202 
5787.000000	64.021825 
5786.000000	63.934278 
5785.000000	63.872241 
5784.000000	63.843083 
5783.000000	63.850164 
5782.000000	63.891577 
5781.000000	63.961148 
5780.000000	64.048910 
5779.000000	64.144158 
5778.000000	64.237070 
5777.000000	64.320731 
5776.000000	64.390802 
5775.000000	64.446711 
5774.000000	64.489173 
5773.000000	64.521980 
5772.000000	64.549469 
5771.000000	64.578962 
5770.000000	64.618945 
5769.000000	64.679884 
5768.000000	64.771938 
5767.000000	64.902234 
5766.000000	65.072178 
5765.000000	65.275335 
5764.000000	65.496993 
5763.000000	65.716075 
5762.000000	65.907907 
5761.000000	66.049647 
5760.000000	66.123604 
5759.000000	66.121029 
5758.000000	66.042923 
5757.000000	65.900301 
5756.000000	65.711212 
5755.000000	65.497350 
5754.000000	65.280413 
5753.000000	65.080070 
5752.000000	64.911532 
5751.000000	64.785456 
5750.000000	64.706921 
5749.000000	64.676928 
5748.000000	64.692378 
5747.000000	64.746594 
5746.000000	64.830112 
5745.000000	64.929556 
5744.000000	65.032339 
5743.000000	65.127468 
5742.000000	65.207147 
5741.000000	65.266370 
5740.000000	65.304183 
5739.000000	65.322279 
5738.000000	65.323114 
5737.000000	65.308499 
5736.000000	65.279126 
5735.000000	65.234375 
5734.000000	65.173625 
5733.000000	65.097141 
5732.000000	65.008139 
5731.000000	64.913010 
5730.000000	64.820933 
5729.000000	64.742398 
5728.000000	64.687252 
5727.000000	64.662694 
5726.000000	64.671468 
5725.000000	64.711380 
5724.000000	64.775347 
5723.000000	64.852595 
5722.000000	64.932465 
5721.000000	65.002751 
5720.000000	65.051317 
5719.000000	65.067005 
5718.000000	65.041637 
5717.000000	64.970350 
5716.000000	64.852666 
5715.000000	64.693689 
5714.000000	64.504241 
5713.000000	64.300322 
5712.000000	64.101362 
5711.000000	63.927030 
5710.000000	63.794326 
5709.000000	63.715386 
5708.000000	63.695979 
5707.000000	63.733220 
5706.000000	63.817381 
5705.000000	63.933181 
5704.000000	64.063715 
5703.000000	64.191818 
5702.000000	64.305019 
5701.000000	64.395332 
5700.000000	64.462614 
5699.000000	64.511609 
5698.000000	64.552283 
5697.000000	64.595532 
5696.000000	64.651632 
5695.000000	64.728355 
5694.000000	64.827919 
5693.000000	64.947271 
5692.000000	65.077781 
5691.000000	65.208435 
5690.000000	65.326118 
5689.000000	65.419220 
5688.000000	65.478706 
5687.000000	65.500068 
5686.000000	65.482616 
5685.000000	65.429019 
5684.000000	65.344834 
5683.000000	65.237021 
5682.000000	65.112352 
5681.000000	64.976859 
5680.000000	64.836716 
5679.000000	64.698076 
5678.000000	64.567208 
5677.000000	64.450669 
5676.000000	64.354538 
5675.000000	64.284777 
5674.000000	64.245581 
5673.000000	64.239978 
5672.000000	64.266228 
5671.000000	64.320993 
5670.000000	64.398264 
5669.000000	64.491844 
5668.000000	64.594292 
5667.000000	64.699482 
5666.000000	64.802098 
5665.000000	64.898419 
5664.000000	64.985752 
5663.000000	65.061688 
5662.000000	65.123486 
5661.000000	65.168738 
5660.000000	65.195608 
5659.000000	65.204143 
5658.000000	65.196609 
5657.000000	65.177702 
5656.000000	65.153717 
5655.000000	65.131473 
5654.000000	65.116286 
5653.000000	65.110635 
5652.000000	65.112924 
5651.000000	65.118336 
5650.000000	65.119719 
5649.000000	65.109801 
5648.000000	65.083193 
5647.000000	65.037703 
5646.000000	64.976143 
5645.000000	64.904975 
5644.000000	64.834713 
5643.000000	64.775872 
5642.000000	64.739608 
5641.000000	64.733695 
5640.000000	64.763760 
5639.000000	64.831495 
5638.000000	64.935445 
5637.000000	65.070772 
5636.000000	65.229558 
5635.000000	65.401363 
5634.000000	65.573430 
5633.000000	65.731954 
5632.000000	65.863323 
5631.000000	65.955519 
5630.000000	66.000247 
5629.000000	65.993428 
5628.000000	65.935516 
5627.000000	65.830779 
5626.000000	65.687632 
5625.000000	65.516996 
5624.000000	65.330982 
5623.000000	65.141963 
5622.000000	64.962315 
5621.000000	64.803481 
5620.000000	64.675807 
5619.000000	64.587497 
5618.000000	64.542841 
5617.000000	64.542508 
5616.000000	64.582514 
5615.000000	64.655780 
5614.000000	64.750146 
5613.000000	64.854073 
5612.000000	64.956426 
5611.000000	65.050601 
5610.000000	65.133595 
5609.000000	65.207052 
5608.000000	65.274906 
5607.000000	65.342044 
5606.000000	65.412020 
5605.000000	65.486264 
5604.000000	65.563511 
5603.000000	65.641260 
5602.000000	65.716409 
5601.000000	65.787076 
5600.000000	65.852499 
5599.000000	65.913844 
5598.000000	65.971922 
5597.000000	66.027045 
5596.000000	66.075897 
5595.000000	66.113042 
5594.000000	66.129255 
5593.000000	66.114807 
5592.000000	66.060519 
5591.000000	65.962409 
5590.000000	65.822052 
5589.000000	65.647459 
5588.000000	65.452766 
5587.000000	65.256047 
5586.000000	65.077137 
5585.000000	64.933753 
5584.000000	64.839553 
5583.000000	64.801287 
5582.000000	64.819407 
5581.000000	64.888477 
5580.000000	64.998412 
5579.000000	65.135765 
5578.000000	65.288162 
5577.000000	65.445494 
5576.000000	65.599822 
5575.000000	65.744853 
5574.000000	65.875411 
5573.000000	65.985918 
5572.000000	66.069936 
5571.000000	66.120052 
5570.000000	66.130042 
5569.000000	66.095805 
5568.000000	66.018557 
5567.000000	65.904259 
5566.000000	65.764594 
5565.000000	65.614652 
5564.000000	65.471482 
5563.000000	65.350556 
5562.000000	65.264034 
5561.000000	65.218162 
5560.000000	65.213251 
5559.000000	65.243411 
5558.000000	65.298533 
5557.000000	65.365433 
5556.000000	65.430665 
5555.000000	65.481185 
5554.000000	65.505957 
5553.000000	65.497231 
5552.000000	65.451359 
5551.000000	65.369510 
5550.000000	65.257501 
5549.000000	65.125584 
5548.000000	64.986920 
5547.000000	64.855885 
5546.000000	64.745688 
5545.000000	64.665961 
5544.000000	64.622044 
5543.000000	64.614725 
5542.000000	64.640831 
5541.000000	64.693808 
5540.000000	64.764976 
5539.000000	64.844942 
5538.000000	64.924526 
5537.000000	64.995145 
5536.000000	65.049767 
5535.000000	65.082836 
5534.000000	65.090918 
5533.000000	65.073013 
5532.000000	65.030431 
5531.000000	64.966821 
5530.000000	64.887738 
5529.000000	64.800548 
5528.000000	64.713001 
5527.000000	64.632511 
5526.000000	64.565539 
5525.000000	64.517188 
5524.000000	64.491486 
5523.000000	64.490985 
5522.000000	64.516949 
5521.000000	64.568948 
5520.000000	64.643692 
5519.000000	64.735364 
5518.000000	64.835596 
5517.000000	64.934921 
5516.000000	65.023279 
5515.000000	65.092396 
5514.000000	65.138053 
5513.000000	65.159988 
5512.000000	65.162038 
5511.000000	65.149402 
5510.000000	65.128207 
5509.000000	65.101742 
5508.000000	65.071082 
5507.000000	65.033268 
5506.000000	64.983034 
5505.000000	64.915299 
5504.000000	64.828062 
5503.000000	64.724397 
5502.000000	64.612889 
5501.000000	64.506649 
5500.000000	64.420270 
5499.000000	64.366555 
5498.000000	64.353346 
5497.000000	64.381837 
5496.000000	64.446330 
5495.000000	64.535880 
5494.000000	64.637112 
5493.000000	64.737558 
5492.000000	64.828681 
5491.000000	64.906716 
5490.000000	64.972686 
5489.000000	65.031290 
5488.000000	65.087270 
5487.000000	65.143632 
5486.000000	65.198111 
5485.000000	65.243554 
5484.000000	65.268135 
5483.000000	65.259766 
5482.000000	65.208578 
5481.000000	65.110659 
5480.000000	64.970612 
5479.000000	64.802002 
5478.000000	64.625811 
5477.000000	64.466452 
5476.000000	64.346480 
5475.000000	64.281845 
5474.000000	64.278101 
5473.000000	64.329433 
5472.000000	64.419555 
5471.000000	64.525675 
5470.000000	64.623808 
5469.000000	64.693999 
5468.000000	64.724040 
5467.000000	64.711475 
5466.000000	64.661622 
5465.000000	64.585900 
5464.000000	64.497423 
5463.000000	64.409041 
5462.000000	64.330434 
5461.000000	64.268732 
5460.000000	64.229202 
5459.000000	64.216089 
5458.000000	64.233756 
5457.000000	64.285612 
5456.000000	64.374327 
5455.000000	64.498209 
5454.000000	64.649510 
5453.000000	64.813542 
5452.000000	64.970040 
5451.000000	65.096163 
5450.000000	65.171360 
5449.000000	65.181064 
5448.000000	65.120959 
5447.000000	64.997291 
5446.000000	64.826107 
5445.000000	64.630055 
5444.000000	64.434003 
5443.000000	64.260840 
5442.000000	64.127993 
5441.000000	64.045691 
5440.000000	64.017009 
5439.000000	64.039564 
5438.000000	64.108037 
5437.000000	64.213967 
5436.000000	64.349555 
5435.000000	64.507198 
5434.000000	64.681816 
5433.000000	64.867782 
5432.000000	65.060591 
5431.000000	65.255475 
5430.000000	65.446639 
5429.000000	65.629172 
5428.000000	65.795421 
5427.000000	65.937089 
5426.000000	66.042995 
5425.000000	66.103196 
5424.000000	66.108059 
5423.000000	66.052865 
5422.000000	65.937924 
5421.000000	65.771055 
5420.000000	65.567064 
5419.000000	65.346860 
5418.000000	65.133404 
5417.000000	64.948630 
5416.000000	64.808487 
5415.000000	64.720296 
5414.000000	64.681720 
5413.000000	64.681959 
5412.000000	64.703130 
5411.000000	64.725637 
5410.000000	64.731764 
5409.000000	64.711213 
5408.000000	64.660978 
5407.000000	64.588356 
5406.000000	64.505982 
5405.000000	64.431595 
5404.000000	64.383435 
5403.000000	64.376020 
5402.000000	64.417147 
5401.000000	64.504790 
5400.000000	64.628767 
5399.000000	64.770340 
5398.000000	64.906382 
5397.000000	65.013790 
5396.000000	65.074515 
5395.000000	65.079069 
5394.000000	65.027666 
5393.000000	64.931488 
5392.000000	64.809584 
5391.000000	64.685773 
5390.000000	64.583325 
5389.000000	64.520835 
5388.000000	64.508724 
5387.000000	64.548444 
5386.000000	64.633178 
5385.000000	64.750003 
5384.000000	64.883184 
5383.000000	65.017175 
5382.000000	65.139698 
5381.000000	65.241765 
5380.000000	65.319323 
5379.000000	65.371370 
5378.000000	65.400457 
5377.000000	65.411186 
5376.000000	65.409255 
5375.000000	65.401935 
5374.000000	65.394544 
5373.000000	65.390872 
5372.000000	65.390610 
5371.000000	65.390944 
5370.000000	65.386486 
5369.000000	65.372037 
5368.000000	65.343499 
5367.000000	65.299487 
5366.000000	65.241813 
5365.000000	65.175509 
5364.000000	65.106678 
5363.000000	65.041160 
5362.000000	64.982366 
5361.000000	64.930367 
5360.000000	64.882063 
5359.000000	64.832425 
5358.000000	64.775681 
5357.000000	64.708566 
5356.000000	64.630532 
5355.000000	64.546489 
5354.000000	64.467430 
5353.000000	64.408540 
5352.000000	64.383602 
5351.000000	64.402580 
5350.000000	64.470195 
5349.000000	64.581990 
5348.000000	64.724230 
5347.000000	64.875578 
5346.000000	65.011143 
5345.000000	65.107536 
5344.000000	65.147852 
5343.000000	65.125441 
5342.000000	65.043807 
5341.000000	64.917898 
5340.000000	64.771151 
5339.000000	64.629578 
5338.000000	64.515590 
5337.000000	64.445710 
5336.000000	64.428067 
5335.000000	64.461231 
5334.000000	64.535188 
5333.000000	64.634132 
5332.000000	64.738607 
5331.000000	64.827322 
5330.000000	64.878916 
5329.000000	64.873504 
5328.000000	64.795064 
5327.000000	64.632964 
5326.000000	64.385414 
5325.000000	64.059638 
5324.000000	63.675069 
5323.000000	63.261342 
5322.000000	62.857103 
5321.000000	62.502264 
5320.000000	62.235569 
5319.000000	62.086033 
5318.000000	62.072300 
5317.000000	62.194466 
5316.000000	62.441873 
5315.000000	62.793564 
5314.000000	63.223290 
5313.000000	63.699793 
5312.000000	64.192962 
5311.000000	64.674401 
5310.000000	65.117526 
5309.000000	65.497231 
5308.000000	65.790891 
5307.000000	65.979218 
5306.000000	66.052174 
5305.000000	66.010308 
5304.000000	65.865087 
5303.000000	65.636515 
5302.000000	65.355491 
5301.000000	65.055060 
5300.000000	64.765596 
5299.000000	64.508080 
5298.000000	64.293813 
5297.000000	64.122915 
5296.000000	63.989138 
5295.000000	63.881468 
5294.000000	63.790965 
5293.000000	63.709402 
5292.000000	63.630700 
5291.000000	63.548398 
5290.000000	63.454389 
5289.000000	63.338279 
5288.000000	63.186240 
5287.000000	62.987446 
5286.000000	62.735915 
5285.000000	62.437462 
5284.000000	62.109661 
5283.000000	61.783981 
5282.000000	61.499691 
5281.000000	61.302232 
5280.000000	61.233448 
5279.000000	61.322522 
5278.000000	61.578202 
5277.000000	61.987257 
5276.000000	62.514448 
5275.000000	63.107061 
5274.000000	63.702726 
5273.000000	64.239311 
5272.000000	64.664292 
5271.000000	64.942479 
5270.000000	65.059494 
5269.000000	65.020275 
5268.000000	64.846706 
5267.000000	64.574503 
5266.000000	64.244890 
5265.000000	63.899445 
5264.000000	63.575172 
5263.000000	63.304829 
5262.000000	63.112211 
5261.000000	63.014411 
5260.000000	63.018584 
5259.000000	63.123917 
5258.000000	63.318824 
5257.000000	63.581418 
5256.000000	63.882064 
5255.000000	64.186310 
5254.000000	64.461135 
5253.000000	64.679312 
5252.000000	64.825606 
5251.000000	64.897966 
5250.000000	64.907026 
5249.000000	64.871811 
5248.000000	64.815187 
5247.000000	64.757251 
5246.000000	64.712381 
5245.000000	64.686036 
5244.000000	64.675641 
5243.000000	64.672827 
5242.000000	64.671325 
5241.000000	64.666604 
5240.000000	64.658260 
5239.000000	64.648556 
5238.000000	64.640879 
5237.000000	64.637637 
5236.000000	64.636850 
5235.000000	64.634990 
5234.000000	64.626288 
5233.000000	64.607930 
5232.000000	64.582562 
5231.000000	64.556908 
5230.000000	64.540386 
5229.000000	64.542365 
5228.000000	64.568972 
5227.000000	64.620971 
5226.000000	64.692687 
5225.000000	64.772772 
5224.000000	64.846348 
5223.000000	64.900279 
5222.000000	64.925599 
5221.000000	64.918708 
5220.000000	64.881706 
5219.000000	64.821863 
5218.000000	64.749479 
5217.000000	64.674210 
5216.000000	64.604544 
5215.000000	64.546823 
5214.000000	64.505267 
5213.000000	64.483022 
5212.000000	64.481830 
5211.000000	64.502143 
5210.000000	64.543533 
5209.000000	64.602804 
5208.000000	64.676642 
5207.000000	64.760756 
5206.000000	64.851498 
5205.000000	64.945769 
5204.000000	65.040564 
5203.000000	65.132427 
5202.000000	65.216970 
5201.000000	65.289020 
5200.000000	65.342736 
5199.000000	65.372586 
5198.000000	65.374565 
5197.000000	65.347099 
5196.000000	65.291285 
5195.000000	65.210676 
5194.000000	65.111494 
5193.000000	65.001273 
5192.000000	64.887642 
5191.000000	64.777159 
5190.000000	64.675259 
5189.000000	64.585638 
5188.000000	64.509892 
5187.000000	64.448380 
5186.000000	64.400362 
5185.000000	64.365100 
5184.000000	64.340782 
5183.000000	64.326500 
5182.000000	64.320230 
5181.000000	64.321780 
5180.000000	64.331841 
5179.000000	64.352440 
5178.000000	64.385509 
5177.000000	64.432191 
5176.000000	64.491677 
5175.000000	64.560174 
5174.000000	64.630937 
5173.000000	64.696073 
5172.000000	64.748311 
5171.000000	64.783048 
5170.000000	64.799952 
5169.000000	64.802908 
5168.000000	64.800047 
5167.000000	64.801836 
5166.000000	64.818930 
5165.000000	64.860415 
5164.000000	64.930820 
5163.000000	65.030598 
5162.000000	65.153527 
5161.000000	65.288162 
5160.000000	65.418386 
5159.000000	65.527606 
5158.000000	65.600180 
5157.000000	65.624833 
5156.000000	65.596699 
5155.000000	65.518712 
5154.000000	65.400958 
5153.000000	65.259075 
5152.000000	65.111446 
5151.000000	64.976215 
5150.000000	64.868354 
5149.000000	64.797925 
5148.000000	64.768838 
5147.000000	64.779233 
5146.000000	64.823150 
5145.000000	64.892530 
5144.000000	64.978551 
5143.000000	65.073037 
5142.000000	65.168786 
5141.000000	65.260148 
5140.000000	65.341782 
5139.000000	65.409350 
5138.000000	65.460085 
5137.000000	65.492463 
5136.000000	65.507268 
5135.000000	65.506505 
5134.000000	65.493679 
5133.000000	65.472054 
5132.000000	65.444874 
5131.000000	65.414118 
5130.000000	65.381836 
5129.000000	65.348792 
5128.000000	65.315961 
5127.000000	65.283751 
5126.000000	65.252757 
5125.000000	65.223431 
5124.000000	65.195846 
5123.000000	65.170145 
5122.000000	65.146183 
5121.000000	65.124273 
5120.000000	65.105104 
5119.000000	65.090084 
5118.000000	65.080881 
5117.000000	65.079450 
5116.000000	65.087461 
5115.000000	65.105581 
5114.000000	65.133190 
5113.000000	65.167951 
5112.000000	65.206289 
5111.000000	65.244483 
5110.000000	65.279126 
5109.000000	65.307569 
5108.000000	65.328073 
5107.000000	65.339994 
5106.000000	65.343523 
5105.000000	65.338850 
5104.000000	65.326762 
5103.000000	65.308499 
5102.000000	65.286016 
5101.000000	65.262722 
5100.000000	65.242004 
5099.000000	65.226960 
5098.000000	65.219283 
5097.000000	65.219092 
5096.000000	65.223979 
5095.000000	65.229439 
5094.000000	65.229916 
5093.000000	65.220236 
5092.000000	65.196967 
5091.000000	65.159583 
5090.000000	65.111017 
5089.000000	65.057110 
5088.000000	65.005636 
5087.000000	64.964461 
5086.000000	64.939427 
5085.000000	64.932799 
5084.000000	64.942836 
5083.000000	64.964413 
5082.000000	64.989852 
5081.000000	65.012025 
5080.000000	65.025830 
5079.000000	65.030503 
5078.000000	65.028643 
5077.000000	65.026521 
5076.000000	65.031576 
5075.000000	65.050864 
5074.000000	65.088224 
5073.000000	65.143775 
5072.000000	65.213537 
5071.000000	65.290689 
5070.000000	65.367317 
5069.000000	65.436196 
5068.000000	65.492558 
5067.000000	65.534162 
5066.000000	65.561580 
5065.000000	65.576410 
5064.000000	65.580296 
5063.000000	65.573883 
5062.000000	65.556788 
5061.000000	65.527987 
5060.000000	65.486478 
5059.000000	65.433263 
5058.000000	65.371036 
5057.000000	65.304112 
5056.000000	65.237331 
5055.000000	65.175175 
5054.000000	65.120720 
5053.000000	65.074467 
5052.000000	65.035009 
5051.000000	64.999771 
5050.000000	64.965963 
5049.000000	64.931631 
5048.000000	64.896535 
5047.000000	64.862060 
5046.000000	64.831018 
5045.000000	64.806079 
5044.000000	64.789271 
5043.000000	64.780521 
5042.000000	64.778161 
5041.000000	64.779281 
5040.000000	64.780497 
5039.000000	64.779019 
5038.000000	64.774227 
5037.000000	64.768075 
5036.000000	64.764237 
5035.000000	64.767074 
5034.000000	64.780497 
5033.000000	64.806652 
5032.000000	64.844751 
5031.000000	64.891338 
5030.000000	64.940810 
5029.000000	64.987111 
5028.000000	65.025234 
5027.000000	65.052890 
5026.000000	65.070867 
5025.000000	65.083456 
5024.000000	65.096974 
5023.000000	65.118384 
5022.000000	65.153026 
5021.000000	65.203166 
5020.000000	65.267562 
5019.000000	65.340828 
5018.000000	65.415263 
5017.000000	65.481328 
5016.000000	65.530443 
5015.000000	65.555691 
5014.000000	65.553522 
5013.000000	65.523958 
5012.000000	65.470600 
5011.000000	65.399646 
5010.000000	65.318727 
5009.000000	65.236043 
5008.000000	65.158987 
5007.000000	65.093445 
5006.000000	65.043044 
5005.000000	65.008807 
5004.000000	64.989328 
5003.000000	64.981055 
5002.000000	64.979171 
5001.000000	64.978456 
5000.000000	64.974522 
4999.000000	64.964389 
4998.000000	64.947342 
4997.000000	64.924216 
4996.000000	64.896893 
4995.000000	64.867639 
4994.000000	64.837789 
4993.000000	64.807105 
4992.000000	64.774274 
4991.000000	64.737272 
4990.000000	64.694809 
4989.000000	64.646840 
4988.000000	64.596271 
4987.000000	64.548921 
4986.000000	64.512038 
4985.000000	64.492487 
4984.000000	64.494705 
4983.000000	64.519190 
4982.000000	64.561533 
4981.000000	64.613580 
4980.000000	64.665365 
4979.000000	64.707899 
4978.000000	64.735817 
4977.000000	64.749026 
4976.000000	64.751625 
4975.000000	64.751267 
4974.000000	64.756536 
4973.000000	64.774346 
4972.000000	64.807891 
4971.000000	64.855360 
4970.000000	64.911675 
4969.000000	64.968276 
4968.000000	65.017032 
4967.000000	65.050220 
4966.000000	65.063571 
4965.000000	65.055084 
4964.000000	65.025448 
4963.000000	64.977049 
4962.000000	64.913415 
4961.000000	64.839053 
4960.000000	64.759087 
4959.000000	64.679837 
4958.000000	64.608526 
4957.000000	64.552307 
4956.000000	64.517498 
4955.000000	64.507842 
4954.000000	64.524078 
4953.000000	64.563083 
4952.000000	64.619040 
4951.000000	64.684081 
4950.000000	64.750385 
4949.000000	64.811992 
4948.000000	64.865612 
4947.000000	64.910459 
4946.000000	64.947342 
4945.000000	64.977788 
4944.000000	65.002226 
4943.000000	65.019297 
4942.000000	65.025949 
4941.000000	65.018939 
4940.000000	64.995694 
4939.000000	64.956665 
4938.000000	64.904975 
4937.000000	64.847540 
4936.000000	64.792513 
4935.000000	64.747953 
4934.000000	64.719271 
4933.000000	64.707875 
4932.000000	64.711165 
4931.000000	64.723253 
4930.000000	64.737057 
4929.000000	64.746046 
4928.000000	64.746761 
4927.000000	64.739513 
4926.000000	64.727425 
4925.000000	64.715361 
4924.000000	64.707875 
4923.000000	64.707756 
4922.000000	64.715147 
4921.000000	64.727210 
4920.000000	64.739847 
4919.000000	64.747714 
4918.000000	64.746546 
4917.000000	64.733123 
4916.000000	64.706206 
4915.000000	64.666247 
4914.000000	64.615035 
4913.000000	64.555859 
4912.000000	64.492201 
4911.000000	64.428615 
4910.000000	64.369869 
4909.000000	64.321231 
4908.000000	64.287924 
4907.000000	64.274406 
4906.000000	64.283394 
4905.000000	64.315223 
4904.000000	64.367389 
4903.000000	64.434623 
4902.000000	64.509677 
4901.000000	64.584851 
4900.000000	64.653348 
4899.000000	64.710116 
4898.000000	64.752602 
4897.000000	64.780664 
4896.000000	64.796376 
4895.000000	64.803719 
4894.000000	64.807057 
4893.000000	64.810395 
4892.000000	64.815926 
4891.000000	64.824056 
4890.000000	64.833068 
4889.000000	64.840579 
4888.000000	64.844083 
4887.000000	64.842295 
4886.000000	64.835500 
4885.000000	64.826154 
4884.000000	64.817428 
4883.000000	64.812016 
4882.000000	64.811515 
4881.000000	64.815521 
4880.000000	64.822316 
4879.000000	64.829182 
4878.000000	64.834284 
4877.000000	64.837479 
4876.000000	64.841032 
4875.000000	64.848971 
4874.000000	64.865517 
4873.000000	64.893150 
4872.000000	64.930462 
4871.000000	64.971494 
4870.000000	65.005826 
4869.000000	65.021133 
4868.000000	65.006756 
4867.000000	64.957213 
4866.000000	64.874172 
4865.000000	64.767479 
4864.000000	64.652895 
4863.000000	64.549326 
4862.000000	64.474010 
4861.000000	64.439201 
4860.000000	64.449715 
4859.000000	64.502000 
4858.000000	64.585685 
4857.000000	64.685750 
4856.000000	64.786195 
4855.000000	64.872980 
4854.000000	64.936423 
4853.000000	64.972591 
4852.000000	64.982461 
4851.000000	64.971208 
4850.000000	64.945888 
4849.000000	64.913773 
4848.000000	64.880490 
4847.000000	64.849805 
4846.000000	64.823603 
4845.000000	64.802145 
4844.000000	64.784884 
4843.000000	64.771461 
4842.000000	64.762139 
4841.000000	64.758014 
4840.000000	64.760684 
4839.000000	64.771366 
4838.000000	64.790487 
4837.000000	64.816808 
4836.000000	64.847826 
4835.000000	64.879202 
4834.000000	64.906525 
4833.000000	64.925932 
4832.000000	64.935636 
4831.000000	64.936375 
4830.000000	64.931368 
4829.000000	64.925312 
4828.000000	64.923644 
4827.000000	64.930844 
4826.000000	64.949750 
4825.000000	64.980864 
4824.000000	65.022134 
4823.000000	65.069437 
4822.000000	65.118002 
4821.000000	65.163278 
4820.000000	65.201902 
4819.000000	65.232014 
4818.000000	65.253114 
4817.000000	65.265417 
4816.000000	65.269732 
4815.000000	65.266513 
4814.000000	65.255641 
4813.000000	65.236043 
4812.000000	65.206861 
4811.000000	65.167307 
4810.000000	65.117716 
4809.000000	65.059518 
4808.000000	64.995718 
4807.000000	64.930534 
4806.000000	64.868879 
4805.000000	64.815926 
4804.000000	64.775967 
4803.000000	64.751958 
4802.000000	64.744830 
4801.000000	64.753508 
4800.000000	64.774942 
4799.000000	64.804816 
4798.000000	64.838171 
4797.000000	64.870333 
4796.000000	64.897537 
4795.000000	64.917707 
4794.000000	64.930415 
4793.000000	64.936852 
4792.000000	64.938950 
4791.000000	64.939427 
4790.000000	64.940500 
4789.000000	64.943552 
4788.000000	64.948630 
4787.000000	64.954924 
4786.000000	64.960908 
4785.000000	64.965033 
4784.000000	64.966082 
4783.000000	64.963507 
4782.000000	64.957785 
4781.000000	64.950275 
4780.000000	64.943337 
4779.000000	64.939475 
4778.000000	64.941215 
4777.000000	64.950346 
4776.000000	64.967799 
4775.000000	64.993047 
4774.000000	65.024471 
4773.000000	65.059733 
4772.000000	65.096092 
4771.000000	65.130853 
4770.000000	65.161752 
4769.000000	65.187215 
4768.000000	65.206265 
4767.000000	65.218257 
4766.000000	65.222549 
4765.000000	65.218591 
4764.000000	65.205788 
4763.000000	65.184116 
4762.000000	65.154385 
4761.000000	65.118741 
4760.000000	65.080928 
4759.000000	65.045928 
4758.000000	65.019488 
4757.000000	65.006446 
4756.000000	65.009665 
4755.000000	65.028905 
4754.000000	65.060710 
4753.000000	65.099120 
4752.000000	65.136575 
4751.000000	65.166020 
4750.000000	65.182185 
4749.000000	65.183329 
4748.000000	65.170884 
4747.000000	65.149354 
4746.000000	65.124845 
4745.000000	65.103769 
4744.000000	65.091300 
4743.000000	65.090155 
4742.000000	65.100240 
4741.000000	65.118980 
4740.000000	65.142369 
4739.000000	65.165519 
4738.000000	65.184092 
4737.000000	65.195250 
4736.000000	65.198254 
4735.000000	65.193986 
4734.000000	65.184903 
4733.000000	65.174341 
4732.000000	65.165877 
4731.000000	65.162873 
4730.000000	65.167784 
4729.000000	65.181899 
4728.000000	65.204906 
4727.000000	65.235590 
4726.000000	65.271353 
4725.000000	65.308785 
4724.000000	65.344071 
4723.000000	65.373492 
4722.000000	65.393853 
4721.000000	65.403199 
4720.000000	65.400695 
4719.000000	65.386843 
4718.000000	65.363287 
4717.000000	65.332579 
4716.000000	65.297412 
4715.000000	65.260243 
4714.000000	65.222311 
4713.000000	65.183782 
4712.000000	65.143966 
4711.000000	65.102148 
4710.000000	65.058231 
4709.000000	65.013742 
4708.000000	64.971637 
4707.000000	64.936470 
4706.000000	64.913296 
4705.000000	64.906859 
4704.000000	64.919781 
4703.000000	64.952182 
4702.000000	65.001130 
4701.000000	65.061044 
4700.000000	65.124750 
4699.000000	65.184760 
4698.000000	65.234541 
4697.000000	65.269470 
4696.000000	65.287375 
4695.000000	65.288424 
4694.000000	65.274739 
4693.000000	65.249848 
4692.000000	65.217924 
4691.000000	65.183663 
4690.000000	65.151572 
4689.000000	65.125870 
4688.000000	65.110349 
4687.000000	65.107369 
4686.000000	65.117573 
4685.000000	65.139389 
4684.000000	65.169167 
4683.000000	65.201783 
4682.000000	65.231609 
4681.000000	65.253710 
4680.000000	65.265011 
4679.000000	65.264797 
4678.000000	65.254950 
4677.000000	65.239572 
4676.000000	65.223407 
4675.000000	65.210700 
4674.000000	65.203976 
4673.000000	65.203475 
4672.000000	65.207505 
4671.000000	65.213203 
4670.000000	65.217804 
4669.000000	65.219283 
4668.000000	65.217924 
4667.000000	65.216326 
4666.000000	65.218830 
4665.000000	65.229701 
4664.000000	65.252232 
4663.000000	65.287494 
4662.000000	65.333366 
4661.000000	65.384840 
4660.000000	65.434265 
4659.000000	65.472984 
4658.000000	65.493178 
4657.000000	65.489721 
4656.000000	65.461111 
4655.000000	65.409898 
4654.000000	65.342712 
4653.000000	65.268850 
4652.000000	65.198898 
4651.000000	65.142321 
4650.000000	65.106415 
4649.000000	65.094041 
4648.000000	65.104007 
4647.000000	65.130448 
4646.000000	65.164804 
4645.000000	65.197253 
4644.000000	65.218544 
4643.000000	65.222191 
4642.000000	65.205049 
4641.000000	65.168404 
4640.000000	65.116715 
4639.000000	65.057110 
4638.000000	64.997053 
4637.000000	64.943790 
4636.000000	64.903116 
4635.000000	64.878559 
4634.000000	64.871430 
4633.000000	64.881157 
4632.000000	64.906024 
4631.000000	64.943242 
4630.000000	64.989686 
4629.000000	65.042114 
4628.000000	65.097451 
4627.000000	65.152525 
4626.000000	65.204453 
4625.000000	65.250658 
4624.000000	65.289425 
4623.000000	65.320086 
4622.000000	65.343236 
4621.000000	65.360713 
4620.000000	65.374827 
4619.000000	65.388703 
4618.000000	65.404248 
4617.000000	65.422534 
4616.000000	65.442252 
4615.000000	65.460896 
4614.000000	65.474152 
4613.000000	65.477824 
4612.000000	65.468025 
4611.000000	65.442872 
4610.000000	65.402793 
4609.000000	65.350770 
4608.000000	65.291976 
4607.000000	65.232634 
4606.000000	65.178847 
4605.000000	65.135288 
4604.000000	65.104746 
4603.000000	65.087723 
4602.000000	65.083050 
4601.000000	65.088367 
4600.000000	65.100741 
4599.000000	65.117239 
4598.000000	65.135812 
4597.000000	65.155196 
4596.000000	65.173721 
4595.000000	65.189933 
4594.000000	65.202331 
4593.000000	65.209531 
4592.000000	65.209960 
4591.000000	65.202760 
4590.000000	65.188431 
4589.000000	65.168476 
4588.000000	65.145301 
4587.000000	65.121746 
4586.000000	65.100669 
4585.000000	65.084171 
4584.000000	65.073180 
4583.000000	65.067672 
4582.000000	65.067052 
4581.000000	65.070533 
4580.000000	65.077495 
4579.000000	65.087580 
4578.000000	65.100526 
4577.000000	65.115833 
4576.000000	65.132355 
4575.000000	65.147328 
4574.000000	65.156722 
4573.000000	65.156078 
4572.000000	65.141272 
4571.000000	65.109920 
4570.000000	65.061616 
4569.000000	64.999127 
4568.000000	64.927077 
4567.000000	64.851737 
4566.000000	64.778780 
4565.000000	64.712524 
4564.000000	64.654874 
4563.000000	64.605569 
4562.000000	64.562463 
4561.000000	64.522933 
4560.000000	64.484643 
4559.000000	64.446020 
4558.000000	64.407300 
4557.000000	64.369750 
4556.000000	64.335823 
4555.000000	64.307713 
4554.000000	64.287424 
4553.000000	64.275932 
4552.000000	64.273762 
4551.000000	64.280915 
4550.000000	64.297294 
4549.000000	64.322733 
4548.000000	64.356875 
4547.000000	64.398980 
4546.000000	64.447140 
4545.000000	64.497995 
4544.000000	64.547514 
4543.000000	64.590764 
4542.000000	64.622950 
4541.000000	64.639997 
4540.000000	64.639163 
4539.000000	64.620327 
4538.000000	64.585590 
4537.000000	64.540457 
4536.000000	64.492821 
4535.000000	64.452362 
4534.000000	64.428901 
4533.000000	64.430022 
4532.000000	64.459347 
4531.000000	64.515352 
4530.000000	64.591598 
4529.000000	64.677977 
4528.000000	64.762926 
4527.000000	64.835929 
4526.000000	64.889788 
4525.000000	64.921188 
4524.000000	64.930701 
4523.000000	64.921927 
4522.000000	64.899778 
4521.000000	64.868879 
4520.000000	64.832043 
4519.000000	64.790558 
4518.000000	64.744067 
4517.000000	64.692115 
4516.000000	64.634680 
4515.000000	64.573550 
4514.000000	64.511704 
4513.000000	64.453077 
4512.000000	64.401054 
4511.000000	64.357757 
4510.000000	64.323019 
4509.000000	64.294457 
4508.000000	64.268159 
4507.000000	64.239525 
4506.000000	64.204812 
4505.000000	64.162206 
4504.000000	64.112615 
4503.000000	64.058852 
4502.000000	64.006066 
4501.000000	63.960146 
4500.000000	63.926577 
4499.000000	63.908839 
4498.000000	63.908123 
4497.000000	63.923144 
4496.000000	63.950014 
4495.000000	63.983178 
4494.000000	64.016342 
4493.000000	64.044237 
4492.000000	64.063167 
4491.000000	64.072370 
4490.000000	64.073491 
4489.000000	64.070868 
4488.000000	64.070463 
4487.000000	64.078521 
4486.000000	64.100289 
4485.000000	64.137935 
4484.000000	64.191079 
4483.000000	64.255142 
4482.000000	64.322590 
4481.000000	64.383411 
4480.000000	64.428138 
4479.000000	64.448547 
4478.000000	64.439702 
4477.000000	64.400434 
4476.000000	64.334154 
4475.000000	64.247226 
4474.000000	64.148044 
4473.000000	64.045429 
4472.000000	63.947463 
4471.000000	63.861632 
4470.000000	63.794231 
4469.000000	63.750696 
4468.000000	63.734817 
4467.000000	63.748264 
4466.000000	63.789939 
4465.000000	63.855051 
4464.000000	63.935971 
4463.000000	64.022541 
4462.000000	64.104366 
4461.000000	64.171814 
4460.000000	64.218187 
4459.000000	64.240360 
4458.000000	64.239859 
4457.000000	64.222002 
4456.000000	64.194798 
4455.000000	64.167547 
4454.000000	64.148116 
4453.000000	64.142203 
4452.000000	64.151144 
4451.000000	64.173078 
4450.000000	64.201736 
4449.000000	64.229035 
4448.000000	64.245724 
4447.000000	64.244079 
4446.000000	64.219355 
4445.000000	64.170932 
4444.000000	64.103055 
4443.000000	64.023876 
4442.000000	63.944935 
4441.000000	63.878655 
4440.000000	63.834047 
4439.000000	63.815355 
4438.000000	63.820838 
4437.000000	63.844609 
4436.000000	63.879275 
4435.000000	63.918375 
4434.000000	63.958311 
4433.000000	63.998246 
4432.000000	64.039659 
4431.000000	64.084124 
4430.000000	64.130234 
4429.000000	64.174175 
4428.000000	64.210915 
4427.000000	64.233875 
4426.000000	64.238572 
4425.000000	64.221167 
4424.000000	64.178013 
4423.000000	64.109706 
4422.000000	64.023923 
4421.000000	63.930082 
4420.000000	63.834381 
4419.000000	63.748884 
4418.000000	63.690829 
4417.000000	63.675880 
4416.000000	63.714694 
4415.000000	63.810348 
4414.000000	63.956236 
4413.000000	64.136147 
4412.000000	64.326143 
4411.000000	64.500689 
4410.000000	64.636039 
4409.000000	64.711427 
4408.000000	64.714217 
4407.000000	64.643979 
4406.000000	64.510989 
4405.000000	64.336657 
4404.000000	64.145231 
4403.000000	63.958239 
4402.000000	63.792300 
4401.000000	63.646531 
4400.000000	63.527059 
4399.000000	63.425183 
4398.000000	63.372731 
4397.000000	63.439488 
4396.000000	63.733100 
4395.000000	64.374208 
4394.000000	65.452647 
4393.000000	66.992020 
4392.000000	68.914651 
4391.000000	71.038937 
4390.000000	73.120427 
4389.000000	74.901962 
4388.000000	76.176190 
4387.000000	76.833343 
4386.000000	76.877808 
4385.000000	76.425623 
4384.000000	75.668931 
4383.000000	74.831032 
4382.000000	74.130845 
4381.000000	73.723101 
4380.000000	73.699831 
4379.000000	74.043083 
4378.000000	74.656963 
4377.000000	75.365686 
4376.000000	75.970435 
4375.000000	76.279687 
4374.000000	76.157331 
4373.000000	75.545716 
4372.000000	74.475598 
4371.000000	73.054289 
4370.000000	71.434664 
4369.000000	69.783496 
4368.000000	68.245053 
4367.000000	66.920948 
4366.000000	65.863418 
4365.000000	65.073490 
4364.000000	64.517617 
4363.000000	64.144539 
4362.000000	63.906407 
4361.000000	63.760709 
4360.000000	63.678407 
4359.000000	63.645052 
4358.000000	63.659477 
4357.000000	63.712549 
4356.000000	63.792204 
4355.000000	63.884186 
4354.000000	63.976383 
4353.000000	64.060211 
4352.000000	64.133119 
4351.000000	64.196705 
4350.000000	64.255952 
4349.000000	64.318299 
4348.000000	64.388680 
4347.000000	64.465403 
4346.000000	64.541387 
4345.000000	64.607286 
4344.000000	64.652132 
4343.000000	64.667725 
4342.000000	64.649176 
4341.000000	64.598345 
4340.000000	64.519739 
4339.000000	64.417862 
4338.000000	64.301156 
4337.000000	64.182639 
4336.000000	64.072489 
4335.000000	63.976287 
4334.000000	63.901042 
4333.000000	63.854289 
4332.000000	63.839912 
4331.000000	63.857650 
4330.000000	63.903236 
4329.000000	63.969087 
4328.000000	64.044499 
4327.000000	64.118480 
4326.000000	64.180874 
4325.000000	64.224863 
4324.000000	64.248394 
4323.000000	64.253926 
4322.000000	64.246344 
4321.000000	64.231991 
4320.000000	64.216470 
4319.000000	64.203429 
4318.000000	64.193558 
4317.000000	64.185643 
4316.000000	64.177703 
4315.000000	64.168477 
4314.000000	64.158987 
4313.000000	64.152336 
4312.000000	64.152932 
4311.000000	64.165377 
4310.000000	64.192914 
4309.000000	64.236664 
4308.000000	64.294576 
4307.000000	64.362573 
4306.000000	64.434719 
4305.000000	64.503812 
4304.000000	64.562082 
4303.000000	64.602661 
4302.000000	64.619970 
4301.000000	64.610433 
4300.000000	64.572691 
4299.000000	64.508008 
4298.000000	64.420270 
4297.000000	64.316320 
4296.000000	64.205098 
4295.000000	64.096546 
4294.000000	64.001035 
4293.000000	63.928079 
4292.000000	63.885354 
4291.000000	63.877105 
4290.000000	63.904404 
4289.000000	63.964653 
4288.000000	64.052343 
4287.000000	64.159655 
4286.000000	64.277601 
4285.000000	64.396715 
4284.000000	64.508366 
4283.000000	64.605164 
4282.000000	64.682197 
4281.000000	64.736962 
4280.000000	64.769792 
4279.000000	64.782834 
4278.000000	64.779663 
4277.000000	64.763665 
4276.000000	64.738178 
4275.000000	64.705324 
4274.000000	64.666509 
4273.000000	64.622211 
4272.000000	64.572930 
4271.000000	64.519524 
4270.000000	64.463758 
4269.000000	64.408683 
4268.000000	64.357995 
4267.000000	64.316034 
4266.000000	64.286398 
4265.000000	64.271950 
4264.000000	64.274024 
4263.000000	64.292359 
4262.000000	64.324331 
4261.000000	64.365863 
4260.000000	64.411950 
4259.000000	64.457321 
4258.000000	64.497065 
4257.000000	64.527511 
4256.000000	64.546394 
4255.000000	64.553976 
4254.000000	64.552760 
4253.000000	64.546966 
4252.000000	64.541411 
4251.000000	64.541006 
4250.000000	64.549016 
4249.000000	64.566445 
4248.000000	64.591217 
4247.000000	64.618682 
4246.000000	64.642548 
4245.000000	64.656472 
4244.000000	64.656066 
4243.000000	64.639520 
4242.000000	64.608979 
4241.000000	64.570474 
4240.000000	64.532732 
4239.000000	64.504885 
4238.000000	64.494824 
4237.000000	64.507126 
4236.000000	64.541888 
4235.000000	64.594841 
4234.000000	64.657998 
4233.000000	64.721679 
4232.000000	64.776778 
4231.000000	64.816737 
4230.000000	64.838528 
4229.000000	64.842963 
4228.000000	64.834117 
4227.000000	64.817786 
4226.000000	64.799904 
4225.000000	64.784908 
4224.000000	64.775061 
4223.000000	64.770436 
4222.000000	64.769816 
4221.000000	64.771866 
4220.000000	64.775967 
4219.000000	64.782953 
4218.000000	64.795017 
4217.000000	64.815020 
4216.000000	64.845561 
4215.000000	64.887261 
4214.000000	64.938330 
4213.000000	64.993882 
4212.000000	65.047144 
4211.000000	65.090036 
4210.000000	65.115523 
4209.000000	65.118575 
4208.000000	65.098118 
4207.000000	65.056562 
4206.000000	64.999818 
4205.000000	64.935755 
4204.000000	64.872765 
4203.000000	64.818429 
4202.000000	64.778161 
4201.000000	64.755487 
4200.000000	64.752149 
4199.000000	64.768338 
4198.000000	64.803123 
4197.000000	64.854884 
4196.000000	64.921355 
4195.000000	64.999008 
4194.000000	65.083074 
4193.000000	65.167331 
4192.000000	65.244936 
4191.000000	65.309357 
4190.000000	65.355420 
4189.000000	65.380811 
4188.000000	65.385770 
4187.000000	65.374279 
4186.000000	65.351438 
4185.000000	65.322923 
4184.000000	65.293073 
4183.000000	65.264463 
4182.000000	65.237402 
4181.000000	65.211200 
4180.000000	65.184593 
4179.000000	65.157270 
4178.000000	65.130257 
4177.000000	65.106058 
4176.000000	65.087556 
4175.000000	65.076971 
4174.000000	65.075182 
4173.000000	65.081214 
4172.000000	65.092277 
4171.000000	65.104556 
4170.000000	65.114212 
4169.000000	65.118598 
4168.000000	65.116810 
4167.000000	65.109944 
4166.000000	65.100908 
4165.000000	65.093588 
4164.000000	65.091347 
4163.000000	65.096592 
4162.000000	65.110349 
4161.000000	65.132236 
4160.000000	65.160775 
4159.000000	65.193653 
4158.000000	65.228581 
4157.000000	65.263104 
4156.000000	65.295314 
4155.000000	65.323114 
4154.000000	65.344500 
4153.000000	65.357160 
4152.000000	65.359520 
4151.000000	65.350127 
4150.000000	65.328264 
4149.000000	65.294384 
4148.000000	65.250444 
4147.000000	65.199661 
4146.000000	65.146088 
4145.000000	65.093851 
4144.000000	65.046715 
4143.000000	65.007185 
4142.000000	64.976191 
4141.000000	64.953231 
4140.000000	64.936995 
4139.000000	64.925932 
4138.000000	64.919257 
4137.000000	64.916634 
4136.000000	64.919352 
4135.000000	64.929413 
4134.000000	64.949536 
4133.000000	64.981460 
4132.000000	65.025806 
4131.000000	65.081143 
4130.000000	65.144324 
4129.000000	65.210390 
4128.000000	65.274071 
4127.000000	65.330815 
4126.000000	65.377402 
4125.000000	65.412449 
4124.000000	65.435957 
4123.000000	65.449094 
4122.000000	65.453338 
4121.000000	65.450191 
4120.000000	65.441250 
4119.000000	65.428447 
4118.000000	65.414333 
4117.000000	65.401864 
4116.000000	65.394091 
4115.000000	65.393376 
4114.000000	65.400767 
4113.000000	65.415382 
4112.000000	65.434479 
4111.000000	65.453958 
4110.000000	65.469169 
4109.000000	65.476036 
4108.000000	65.472030 
4107.000000	65.456652 
4106.000000	65.431666 
4105.000000	65.400409 
4104.000000	65.367221 
4103.000000	65.336155 
4102.000000	65.310144 
4101.000000	65.290403 
4100.000000	65.276813 
4099.000000	65.267801 
4098.000000	65.261268 
4097.000000	65.255141 
4096.000000	65.248060 
4095.000000	65.239357 
4094.000000	65.229082 
4093.000000	65.217876 
4092.000000	65.206432 
4091.000000	65.195298 
4090.000000	65.184354 
4089.000000	65.172624 
4088.000000	65.158677 
4087.000000	65.140938 
4086.000000	65.118479 
4085.000000	65.091538 
4084.000000	65.061736 
4083.000000	65.032172 
4082.000000	65.006923 
4081.000000	64.989662 
4080.000000	64.983367 
4079.000000	64.988923 
4078.000000	65.005278 
4077.000000	65.029168 
4076.000000	65.056180 
4075.000000	65.081548 
4074.000000	65.101671 
4073.000000	65.114641 
4072.000000	65.120911 
4071.000000	65.122628 
4070.000000	65.123033 
4069.000000	65.125203 
4068.000000	65.131306 
4067.000000	65.141773 
4066.000000	65.155553 
4065.000000	65.170574 
4064.000000	65.184593 
4063.000000	65.195965 
4062.000000	65.203928 
4061.000000	65.208792 
4060.000000	65.211725 
4059.000000	65.214323 
4058.000000	65.217852 
4057.000000	65.223217 
4056.000000	65.230965 
4055.000000	65.241456 
4054.000000	65.255117 
4053.000000	65.272569 
4052.000000	65.294718 
4051.000000	65.321803 
4050.000000	65.353059 
4049.000000	65.385913 
4048.000000	65.416193 
4047.000000	65.438556 
4046.000000	65.447711 
4045.000000	65.439343 
4044.000000	65.411448 
4043.000000	65.364575 
4042.000000	65.302348 
4041.000000	65.230226 
4040.000000	65.154933 
4039.000000	65.083384 
4038.000000	65.021657 
4037.000000	64.974355 
4036.000000	64.944100 
4035.000000	64.931750 
4034.000000	64.936470 
4033.000000	64.955949 
4032.000000	64.987111 
4031.000000	65.026211 
4030.000000	65.069603 
4029.000000	65.113520 
4028.000000	65.154695 
4027.000000	65.190434 
4026.000000	65.218758 
4025.000000	65.238523 
4024.000000	65.249037 
4023.000000	65.249967 
4022.000000	65.240955 
4021.000000	65.222096 
4020.000000	65.193748 
4019.000000	65.157055 
4018.000000	65.113854 
4017.000000	65.067267 
4016.000000	65.020728 
4015.000000	64.977622 
4014.000000	64.940738 
4013.000000	64.911842 
4012.000000	64.891433 
4011.000000	64.878988 
4010.000000	64.873313 
4009.000000	64.873099 
4008.000000	64.877152 
4007.000000	64.884877 
4006.000000	64.896154 
4005.000000	64.911317 
4004.000000	64.930486 
4003.000000	64.953565 
4002.000000	64.979696 
4001.000000	65.007519 
4000.000000	65.035319 
3999.000000	65.061354 
3998.000000	65.084147 
3997.000000	65.102934 
3996.000000	65.117454 
3995.000000	65.128254 
3994.000000	65.136408 
3993.000000	65.143322 
3992.000000	65.150737 
3991.000000	65.160274 
3990.000000	65.173292 
3989.000000	65.190148 
3988.000000	65.210056 
3987.000000	65.230917 
3986.000000	65.249776 
3985.000000	65.263032 
3984.000000	65.267372 
3983.000000	65.260553 
3982.000000	65.242195 
3981.000000	65.213823 
3980.000000	65.178728 
3979.000000	65.141344 
3978.000000	65.106391 
3977.000000	65.077948 
3976.000000	65.058660 
3975.000000	65.049338 
3974.000000	65.048980 
3973.000000	65.055561 
3972.000000	65.066671 
3971.000000	65.079975 
3970.000000	65.094017 
3969.000000	65.108203 
3968.000000	65.122699 
3967.000000	65.137743 
3966.000000	65.153479 
3965.000000	65.169525 
3964.000000	65.185070 
3963.000000	65.198731 
3962.000000	65.209221 
3961.000000	65.215563 
3960.000000	65.217399 
3959.000000	65.215301 
3958.000000	65.210413 
3957.000000	65.204191 
3956.000000	65.198016 
3955.000000	65.192675 
3954.000000	65.188384 
3953.000000	65.184736 
3952.000000	65.180897 
3951.000000	65.175771 
3950.000000	65.168642 
3949.000000	65.159344 
3948.000000	65.148305 
3947.000000	65.136528 
3946.000000	65.125322 
3945.000000	65.116214 
3944.000000	65.110588 
3943.000000	65.109348 
3942.000000	65.112829 
3941.000000	65.120768 
3940.000000	65.132260 
3939.000000	65.145993 
3938.000000	65.160369 
3937.000000	65.173792 
3936.000000	65.184712 
3935.000000	65.192008 
3934.000000	65.195083 
3933.000000	65.193819 
3932.000000	65.188598 
3931.000000	65.179920 
3930.000000	65.168237 
3929.000000	65.153789 
3928.000000	65.136528 
3927.000000	65.116286 
3926.000000	65.092849 
3925.000000	65.066313 
3924.000000	65.037226 
3923.000000	65.006542 
3922.000000	64.975452 
3921.000000	64.945459 
3920.000000	64.918231 
3919.000000	64.895486 
3918.000000	64.879131 
3917.000000	64.870452 
3916.000000	64.870190 
3915.000000	64.878416 
3914.000000	64.894366 
3913.000000	64.915990 
3912.000000	64.940690 
3911.000000	64.965605 
3910.000000	64.988088 
3909.000000	65.006041 
3908.000000	65.018415 
3907.000000	65.025091 
3906.000000	65.026950 
3905.000000	65.025520 
3904.000000	65.022754 
3903.000000	65.020656 
3902.000000	65.021109 
3901.000000	65.025782 
3900.000000	65.036106 
3899.000000	65.052962 
3898.000000	65.076971 
3897.000000	65.107822 
3896.000000	65.144085 
3895.000000	65.182733 
3894.000000	65.219831 
3893.000000	65.250420 
3892.000000	65.269613 
3891.000000	65.273094 
3890.000000	65.258669 
3889.000000	65.226411 
3888.000000	65.178751 
3887.000000	65.120291 
3886.000000	65.056943 
3885.000000	64.995145 
3884.000000	64.940905 
3883.000000	64.898705 
3882.000000	64.870977 
3881.000000	64.858126 
3880.000000	64.858698 
3879.000000	64.869880 
3878.000000	64.887905 
3877.000000	64.909052 
3876.000000	64.930224 
3875.000000	64.949011 
3874.000000	64.964056 
3873.000000	64.975166 
3872.000000	64.982938 
3871.000000	64.988780 
3870.000000	64.994359 
3869.000000	65.001344 
3868.000000	65.011072 
3867.000000	65.024495 
3866.000000	65.041661 
3865.000000	65.062260 
3864.000000	65.085101 
3863.000000	65.108799 
3862.000000	65.131187 
3861.000000	65.150070 
3860.000000	65.162801 
3859.000000	65.167236 
3858.000000	65.161538 
3857.000000	65.144801 
3856.000000	65.117073 
3855.000000	65.079879 
3854.000000	65.035796 
3853.000000	64.987969 
3852.000000	64.939975 
3851.000000	64.895462 
3850.000000	64.857625 
3849.000000	64.828944 
3848.000000	64.810943 
3847.000000	64.804220 
3846.000000	64.808511 
3845.000000	64.822888 
3844.000000	64.845538 
3843.000000	64.874219 
3842.000000	64.906096 
3841.000000	64.938187 
3840.000000	64.967393 
3839.000000	64.991068 
3838.000000	65.007138 
3837.000000	65.014553 
3836.000000	65.013384 
3835.000000	65.005040 
3834.000000	64.991712 
3833.000000	64.976310 
3832.000000	64.961862 
3831.000000	64.950966 
3830.000000	64.945602 
3829.000000	64.946675 
3828.000000	64.954113 
3827.000000	64.966821 
3826.000000	64.982914 
3825.000000	65.000057 
3824.000000	65.016031 
3823.000000	65.028810 
3822.000000	65.036797 
3821.000000	65.039396 
3820.000000	65.036892 
3819.000000	65.030360 
3818.000000	65.021562 
3817.000000	65.012836 
3816.000000	65.006661 
3815.000000	65.005469 
3814.000000	65.010976 
3813.000000	65.024018 
3812.000000	65.043997 
3811.000000	65.069055 
3810.000000	65.096044 
3809.000000	65.121078 
3808.000000	65.140414 
3807.000000	65.150976 
3806.000000	65.151476 
3805.000000	65.142393 
3804.000000	65.126323 
3803.000000	65.107226 
3802.000000	65.089774 
3801.000000	65.078306 
3800.000000	65.075898 
3799.000000	65.083718 
3798.000000	65.100932 
3797.000000	65.124893 
3796.000000	65.151977 
3795.000000	65.178442 
3794.000000	65.201091 
3793.000000	65.217733 
3792.000000	65.227222 
3791.000000	65.229320 
3790.000000	65.224361 
3789.000000	65.212988 
3788.000000	65.195918 
3787.000000	65.174031 
3786.000000	65.148591 
3785.000000	65.121221 
3784.000000	65.093970 
3783.000000	65.069222 
3782.000000	65.049386 
3781.000000	65.036392 
3780.000000	65.031433 
3779.000000	65.034604 
3778.000000	65.044903 
3777.000000	65.060353 
3776.000000	65.078353 
3775.000000	65.096211 
3774.000000	65.111446 
3773.000000	65.122318 
3772.000000	65.127801 
3771.000000	65.127897 
3770.000000	65.123391 
3769.000000	65.115857 
3768.000000	65.107274 
3767.000000	65.100049 
3766.000000	65.096426 
3765.000000	65.097951 
3764.000000	65.105152 
3763.000000	65.117383 
3762.000000	65.132761 
3761.000000	65.148591 
3760.000000	65.162110 
3759.000000	65.170645 
3758.000000	65.172624 
3757.000000	65.167570 
3756.000000	65.156555 
3755.000000	65.141963 
3754.000000	65.127062 
3753.000000	65.115356 
3752.000000	65.109920 
3751.000000	65.112876 
3750.000000	65.124654 
3749.000000	65.143990 
3748.000000	65.167903 
3747.000000	65.192437 
3746.000000	65.213370 
3745.000000	65.227174 
3744.000000	65.231966 
3743.000000	65.227699 
3742.000000	65.216708 
3741.000000	65.202832 
3740.000000	65.190863 
3739.000000	65.185117 
3738.000000	65.188217 
3737.000000	65.200209 
3736.000000	65.218830 
3735.000000	65.239787 
3734.000000	65.258240 
3733.000000	65.270018 
3732.000000	65.272998 
3731.000000	65.267324 
3730.000000	65.255522 
3729.000000	65.241312 
3728.000000	65.228533 
3727.000000	65.219998 
3726.000000	65.216732 
3725.000000	65.217590 
3724.000000	65.219998 
3723.000000	65.220713 
3722.000000	65.216970 
3721.000000	65.207338 
3720.000000	65.192246 
3719.000000	65.173673 
3718.000000	65.154647 
3717.000000	65.138268 
3716.000000	65.127015 
3715.000000	65.122365 
3714.000000	65.124869 
3713.000000	65.134048 
3712.000000	65.148711 
3711.000000	65.167474 
3710.000000	65.188884 
3709.000000	65.211343 
3708.000000	65.233445 
3707.000000	65.253782 
3706.000000	65.271282 
3705.000000	65.285086 
3704.000000	65.294885 
3703.000000	65.300822 
3702.000000	65.303468 
3701.000000	65.303850 
3700.000000	65.302944 
3699.000000	65.301704 
3698.000000	65.300703 
3697.000000	65.300130 
3696.000000	65.299916 
3695.000000	65.299940 
3694.000000	65.299868 
3693.000000	65.299844 
3692.000000	65.299725 
3691.000000	65.299320 
3690.000000	65.297865 
3689.000000	65.294170 
3688.000000	65.286755 
3687.000000	65.274190 
3686.000000	65.255665 
3685.000000	65.231275 
3684.000000	65.202164 
3683.000000	65.170526 
3682.000000	65.139293 
3681.000000	65.111732 
3680.000000	65.091085 
3679.000000	65.079975 
3678.000000	65.079736 
3677.000000	65.090227 
3676.000000	65.109920 
3675.000000	65.135979 
3674.000000	65.164685 
3673.000000	65.192198 
3672.000000	65.214967 
3671.000000	65.230584 
3670.000000	65.237879 
3669.000000	65.237092 
3668.000000	65.229606 
3667.000000	65.217494 
3666.000000	65.203189 
3665.000000	65.188789 
3664.000000	65.175890 
3663.000000	65.165448 
3662.000000	65.158033 
3661.000000	65.154051 
3660.000000	65.153932 
3659.000000	65.158247 
3658.000000	65.167331 
3657.000000	65.181016 
3656.000000	65.198302 
3655.000000	65.217208 
3654.000000	65.235185 
3653.000000	65.249466 
3652.000000	65.257906 
3651.000000	65.259647 
3650.000000	65.255427 
3649.000000	65.247154 
3648.000000	65.237569 
3647.000000	65.229511 
3646.000000	65.225172 
3645.000000	65.225744 
3644.000000	65.231037 
3643.000000	65.239763 
3642.000000	65.250062 
3641.000000	65.260171 
3640.000000	65.268564 
3639.000000	65.274524 
3638.000000	65.277791 
3637.000000	65.278363 
3636.000000	65.276193 
3635.000000	65.270972 
3634.000000	65.262293 
3633.000000	65.249967 
3632.000000	65.234231 
3631.000000	65.216207 
3630.000000	65.197706 
3629.000000	65.181016 
3628.000000	65.168666 
3627.000000	65.162825 
3626.000000	65.164828 
3625.000000	65.174984 
3624.000000	65.192341 
3623.000000	65.214776 
3622.000000	65.239357 
3621.000000	65.262603 
3620.000000	65.281128 
3619.000000	65.292119 
3618.000000	65.294003 
3617.000000	65.286684 
3616.000000	65.271544 
3615.000000	65.251278 
3614.000000	65.229344 
3613.000000	65.209078 
3612.000000	65.193319 
3611.000000	65.183305 
3610.000000	65.178513 
3609.000000	65.176796 
3608.000000	65.175056 
3607.000000	65.170097 
3606.000000	65.159845 
3605.000000	65.143847 
3604.000000	65.123701 
3603.000000	65.102648 
3602.000000	65.085005 
3601.000000	65.074920 
3600.000000	65.075302 
3599.000000	65.087175 
3598.000000	65.109419 
3597.000000	65.139031 
3596.000000	65.171813 
3595.000000	65.203356 
3594.000000	65.229749 
3593.000000	65.248322 
3592.000000	65.258049 
3591.000000	65.259218 
3590.000000	65.253281 
3589.000000	65.242218 
3588.000000	65.228271 
3587.000000	65.213775 
3586.000000	65.200495 
3585.000000	65.190219 
3584.000000	65.183734 
3583.000000	65.181136 
3582.000000	65.181612 
3581.000000	65.183854 
3580.000000	65.185904 
3579.000000	65.185809 
3578.000000	65.181994 
3577.000000	65.173840 
3576.000000	65.161871 
3575.000000	65.147614 
3574.000000	65.133380 
3573.000000	65.121507 
3572.000000	65.113878 
3571.000000	65.111374 
3570.000000	65.113425 
3569.000000	65.118241 
3568.000000	65.123176 
3567.000000	65.125751 
3566.000000	65.123963 
3565.000000	65.117263 
3564.000000	65.106654 
3563.000000	65.094757 
3562.000000	65.084719 
3561.000000	65.079855 
3560.000000	65.082716 
3559.000000	65.094614 
3558.000000	65.115213 
3557.000000	65.142488 
3556.000000	65.173220 
3555.000000	65.203738 
3554.000000	65.230679 
3553.000000	65.251731 
3552.000000	65.265798 
3551.000000	65.273213 
3550.000000	65.275239 
3549.000000	65.273427 
3548.000000	65.269017 
3547.000000	65.262746 
3546.000000	65.254664 
3545.000000	65.244126 
3544.000000	65.230059 
3543.000000	65.211868 
3542.000000	65.189480 
3541.000000	65.163421 
3540.000000	65.135025 
3539.000000	65.105843 
3538.000000	65.077590 
3537.000000	65.051722 
3536.000000	65.029644 
3535.000000	65.012145 
3534.000000	64.999938 
3533.000000	64.993834 
3532.000000	64.994525 
3531.000000	65.002274 
3530.000000	65.016555 
3529.000000	65.035748 
3528.000000	65.056920 
3527.000000	65.076231 
3526.000000	65.089869 
3525.000000	65.094780 
3524.000000	65.089917 
3523.000000	65.076661 
3522.000000	65.058469 
3521.000000	65.040373 
3520.000000	65.027832 
3519.000000	65.025401 
3518.000000	65.035510 
3517.000000	65.057826 
3516.000000	65.089464 
3515.000000	65.125346 
3514.000000	65.160131 
3513.000000	65.188860 
3512.000000	65.207910 
3511.000000	65.215706 
3510.000000	65.212917 
3509.000000	65.201735 
3508.000000	65.184998 
3507.000000	65.165543 
3506.000000	65.145564 
3505.000000	65.126228 
3504.000000	65.107917 
3503.000000	65.090322 
3502.000000	65.072917 
3501.000000	65.055704 
3500.000000	65.039563 
3499.000000	65.026688 
3498.000000	65.020275 
3497.000000	65.024447 
3496.000000	65.042996 
3495.000000	65.078878 
3494.000000	65.132761 
3493.000000	65.202546 
3492.000000	65.282630 
3491.000000	65.364599 
3490.000000	65.437602 
3489.000000	65.490651 
3488.000000	65.514206 
3487.000000	65.502262 
3486.000000	65.453529 
3485.000000	65.372228 
3484.000000	65.267086 
3483.000000	65.150237 
3482.000000	65.034770 
3481.000000	64.932417 
3480.000000	64.851689 
3479.000000	64.797329 
3478.000000	64.769911 
3477.000000	64.766311 
3476.000000	64.781427 
3475.000000	64.809703 
3474.000000	64.846229 
3473.000000	64.887213 
3472.000000	64.930415 
3471.000000	64.974522 
3470.000000	65.018463 
3469.000000	65.060997 
3468.000000	65.100383 
3467.000000	65.134406 
3466.000000	65.161156 
3465.000000	65.179276 
3464.000000	65.188741 
3463.000000	65.190768 
3462.000000	65.187907 
3461.000000	65.182900 
3460.000000	65.178728 
3459.000000	65.176916 
3458.000000	65.177750 
3457.000000	65.179538 
3456.000000	65.179562 
3455.000000	65.174221 
3454.000000	65.160465 
3453.000000	65.136075 
3452.000000	65.100312 
3451.000000	65.054464 
3450.000000	65.001869 
3449.000000	64.947319 
3448.000000	64.895963 
3447.000000	64.853143 
3446.000000	64.823174 
3445.000000	64.808678 
3444.000000	64.810276 
3443.000000	64.826321 
3442.000000	64.853453 
3441.000000	64.887261 
3440.000000	64.923381 
3439.000000	64.958000 
3438.000000	64.988446 
3437.000000	65.013742 
3436.000000	65.034270 
3435.000000	65.051221 
3434.000000	65.066027 
3433.000000	65.079689 
3432.000000	65.092611 
3431.000000	65.104341 
3430.000000	65.113735 
3429.000000	65.119886 
3428.000000	65.122079 
3427.000000	65.120506 
3426.000000	65.116047 
3425.000000	65.110278 
3424.000000	65.104794 
3423.000000	65.100836 
3422.000000	65.098977 
3421.000000	65.099263 
3420.000000	65.101218 
3419.000000	65.104150 
3418.000000	65.107583 
3417.000000	65.111398 
3416.000000	65.116024 
3415.000000	65.122175 
3414.000000	65.130424 
3413.000000	65.140914 
3412.000000	65.153145 
3411.000000	65.166187 
3410.000000	65.178942 
3409.000000	65.190649 
3408.000000	65.200948 
3407.000000	65.210175 
3406.000000	65.219068 
3405.000000	65.228509 
3404.000000	65.238952 
3403.000000	65.249848 
3402.000000	65.259838 
3401.000000	65.266489 
3400.000000	65.267276 
3399.000000	65.259432 
3398.000000	65.241312 
3397.000000	65.212273 
3396.000000	65.173411 
3395.000000	65.127182 
3394.000000	65.077137 
3393.000000	65.027451 
3392.000000	64.982223 
3391.000000	64.945054 
3390.000000	64.918565 
3389.000000	64.904117 
3388.000000	64.901709 
3387.000000	64.909934 
3386.000000	64.926242 
3385.000000	64.947152 
3384.000000	64.969158 
3383.000000	64.988946 
3382.000000	65.004277 
3381.000000	65.013957 
3380.000000	65.017986 
3379.000000	65.017080 
3378.000000	65.012407 
3377.000000	65.005040 
3376.000000	64.995741 
3375.000000	64.984965 
3374.000000	64.972782 
3373.000000	64.959335 
3372.000000	64.944934 
3371.000000	64.930295 
3370.000000	64.916467 
3369.000000	64.904761 
3368.000000	64.896321 
3367.000000	64.891791 
3366.000000	64.891433 
3365.000000	64.894962 
3364.000000	64.901709 
3363.000000	64.910984 
3362.000000	64.922332 
3361.000000	64.935612 
3360.000000	64.950776 
3359.000000	64.967870 
3358.000000	64.986681 
3357.000000	65.006637 
3356.000000	65.026926 
3355.000000	65.046596 
3354.000000	65.064787 
3353.000000	65.080881 
3352.000000	65.094304 
3351.000000	65.104675 
3350.000000	65.111470 
3349.000000	65.114426 
3348.000000	65.113210 
3347.000000	65.107870 
3346.000000	65.098977 
3345.000000	65.087652 
3344.000000	65.075707 
3343.000000	65.065431 
3342.000000	65.059351 
3341.000000	65.059566 
3340.000000	65.067338 
3339.000000	65.082573 
3338.000000	65.103697 
3337.000000	65.127778 
3336.000000	65.150761 
3335.000000	65.168404 
3334.000000	65.177249 
3333.000000	65.175104 
3332.000000	65.162086 
3331.000000	65.140295 
3330.000000	65.113806 
3329.000000	65.087985 
3328.000000	65.068268 
3327.000000	65.059208 
3326.000000	65.063452 
3325.000000	65.081286 
3324.000000	65.110278 
3323.000000	65.146040 
3322.000000	65.182805 
3321.000000	65.214896 
3320.000000	65.237736 
3319.000000	65.248584 
3318.000000	65.247178 
3317.000000	65.235424 
3316.000000	65.216803 
3315.000000	65.195703 
3314.000000	65.176105 
3313.000000	65.160989 
3312.000000	65.151572 
3311.000000	65.147686 
3310.000000	65.147614 
3309.000000	65.148830 
3308.000000	65.148854 
3307.000000	65.145897 
3306.000000	65.139293 
3305.000000	65.129661 
3304.000000	65.118408 
3303.000000	65.107321 
3302.000000	65.097975 
3301.000000	65.091276 
3300.000000	65.087175 
3299.000000	65.084838 
3298.000000	65.082812 
3297.000000	65.079975 
3296.000000	65.075659 
3295.000000	65.070152 
3294.000000	65.064287 
3293.000000	65.059494 
3292.000000	65.057086 
3291.000000	65.058231 
3290.000000	65.063452 
3289.000000	65.072560 
3288.000000	65.084791 
3287.000000	65.098905 
3286.000000	65.113759 
3285.000000	65.128374 
3284.000000	65.142130 
3283.000000	65.154695 
3282.000000	65.165948 
3281.000000	65.175747 
3280.000000	65.183901 
3279.000000	65.189790 
3278.000000	65.192699 
3277.000000	65.191864 
3276.000000	65.187001 
3275.000000	65.178322 
3274.000000	65.166997 
3273.000000	65.154862 
3272.000000	65.144467 
3271.000000	65.138316 
3270.000000	65.138602 
3269.000000	65.146446 
3268.000000	65.161848 
3267.000000	65.183448 
3266.000000	65.208745 
3265.000000	65.234494 
3264.000000	65.257263 
3263.000000	65.274119 
3262.000000	65.283012 
3261.000000	65.282964 
3260.000000	65.274310 
3259.000000	65.258479 
3258.000000	65.237832 
3257.000000	65.215039 
3256.000000	65.193009 
3255.000000	65.174508 
3254.000000	65.161848 
3253.000000	65.156602 
3252.000000	65.159773 
3251.000000	65.171718 
3250.000000	65.191841 
3249.000000	65.218591 
3248.000000	65.249657 
3247.000000	65.281939 
3246.000000	65.312004 
3245.000000	65.336513 
3244.000000	65.352821 
3243.000000	65.359282 
3242.000000	65.355896 
3241.000000	65.343785 
3240.000000	65.325093 
3239.000000	65.302252 
3238.000000	65.277838 
3237.000000	65.253734 
3236.000000	65.231108 
3235.000000	65.210342 
3234.000000	65.191340 
3233.000000	65.173816 
3232.000000	65.157961 
3231.000000	65.144085 
3230.000000	65.132808 
3229.000000	65.124607 
3228.000000	65.119528 
3227.000000	65.116906 
3226.000000	65.115427 
3225.000000	65.113425 
3224.000000	65.109276 
3223.000000	65.101981 
3222.000000	65.091586 
3221.000000	65.078949 
3220.000000	65.065836 
3219.000000	65.054130 
3218.000000	65.045785 
3217.000000	65.042328 
3216.000000	65.044546 
3215.000000	65.052509 
3214.000000	65.065526 
3213.000000	65.082573 
3212.000000	65.102267 
3211.000000	65.123081 
3210.000000	65.143299 
3209.000000	65.161085 
3208.000000	65.174698 
3207.000000	65.182709 
3206.000000	65.184187 
3205.000000	65.178751 
3204.000000	65.166974 
3203.000000	65.150499 
3202.000000	65.131473 
3201.000000	65.112257 
3200.000000	65.095090 
3199.000000	65.081596 
3198.000000	65.072703 
3197.000000	65.068578 
3196.000000	65.068721 
3195.000000	65.072321 
3194.000000	65.078639 
3193.000000	65.087008 
3192.000000	65.096807 
3191.000000	65.107846 
3190.000000	65.119814 
3189.000000	65.132570 
3188.000000	65.145564 
3187.000000	65.158295 
3186.000000	65.170264 
3185.000000	65.181183 
3184.000000	65.190887 
3183.000000	65.199518 
3182.000000	65.207552 
3181.000000	65.215539 
3180.000000	65.223860 
3179.000000	65.232515 
3178.000000	65.241193 
3177.000000	65.249061 
3176.000000	65.254998 
3175.000000	65.257740 
3174.000000	65.256357 
3173.000000	65.250444 
3172.000000	65.240478 
3171.000000	65.227532 
3170.000000	65.213561 
3169.000000	65.200901 
3168.000000	65.191745 
3167.000000	65.188002 
3166.000000	65.190529 
3165.000000	65.199089 
3164.000000	65.212082 
3163.000000	65.227007 
3162.000000	65.240621 
3161.000000	65.249681 
3160.000000	65.251612 
3159.000000	65.245175 
3158.000000	65.230846 
3157.000000	65.210461 
3156.000000	65.187144 
3155.000000	65.164518 
3154.000000	65.145802 
3153.000000	65.133261 
3152.000000	65.127563 
3151.000000	65.127897 
3150.000000	65.132355 
3149.000000	65.138530 
3148.000000	65.144300 
3147.000000	65.148448 
3146.000000	65.150928 
3145.000000	65.152764 
3144.000000	65.155434 
3143.000000	65.160226 
3142.000000	65.167593 
3141.000000	65.176916 
3140.000000	65.186786 
3139.000000	65.194916 
3138.000000	65.199255 
3137.000000	65.198326 
3136.000000	65.191459 
3135.000000	65.179133 
3134.000000	65.162634 
3133.000000	65.143704 
3132.000000	65.124177 
3131.000000	65.105557 
3130.000000	65.088796 
3129.000000	65.074396 
3128.000000	65.062594 
3127.000000	65.053534 
3126.000000	65.047454 
3125.000000	65.044808 
3124.000000	65.045976 
3123.000000	65.051364 
3122.000000	65.061020 
3121.000000	65.074825 
3120.000000	65.092182 
3119.000000	65.112209 
3118.000000	65.133786 
3117.000000	65.155649 
3116.000000	65.176367 
3115.000000	65.194582 
3114.000000	65.208959 
3113.000000	65.218400 
3112.000000	65.222144 
3111.000000	65.219950 
3110.000000	65.212130 
3109.000000	65.199661 
3108.000000	65.184020 
3107.000000	65.167164 
3106.000000	65.150809 
3105.000000	65.136742 
3104.000000	65.126299 
3103.000000	65.120291 
3102.000000	65.118885 
3101.000000	65.121769 
3100.000000	65.128278 
3099.000000	65.137577 
3098.000000	65.148615 
3097.000000	65.160250 
3096.000000	65.171337 
3095.000000	65.180802 
3094.000000	65.187811 
3093.000000	65.191864 
3092.000000	65.193080 
3091.000000	65.192055 
3090.000000	65.189933 
3089.000000	65.188026 
3088.000000	65.187525 
3087.000000	65.189123 
3086.000000	65.192818 
3085.000000	65.197682 
3084.000000	65.202164 
3083.000000	65.204286 
3082.000000	65.202379 
3081.000000	65.195250 
3080.000000	65.182781 
3079.000000	65.165901 
3078.000000	65.146183 
3077.000000	65.125656 
3076.000000	65.106248 
3075.000000	65.089511 
3074.000000	65.076375 
3073.000000	65.067219 
3072.000000	65.061950 
3071.000000	65.060377 
3070.000000	65.062212 
3069.000000	65.067243 
3068.000000	65.075087 
3067.000000	65.085530 
3066.000000	65.098047 
3065.000000	65.111708 
3064.000000	65.124940 
3063.000000	65.136146 
3062.000000	65.143752 
3061.000000	65.146613 
3060.000000	65.144348 
3059.000000	65.137553 
3058.000000	65.127873 
3057.000000	65.117597 
3056.000000	65.109348 
3055.000000	65.105533 
3054.000000	65.107631 
3053.000000	65.116310 
3052.000000	65.130758 
3051.000000	65.149116 
3050.000000	65.168833 
3049.000000	65.187382 
3048.000000	65.202522 
3047.000000	65.212726 
3046.000000	65.217542 
3045.000000	65.217471 
3044.000000	65.213298 
3043.000000	65.205907 
3042.000000	65.195798 
3041.000000	65.182948 
3040.000000	65.166974 
3039.000000	65.147447 
3038.000000	65.124464 
3037.000000	65.098810 
3036.000000	65.072298 
3035.000000	65.047383 
3034.000000	65.026950 
3033.000000	65.013551 
3032.000000	65.008831 
3031.000000	65.013194 
3030.000000	65.025329 
3029.000000	65.042734 
3028.000000	65.062046 
3027.000000	65.080189 
3026.000000	65.094614 
3025.000000	65.104198 
3024.000000	65.109372 
3023.000000	65.111804 
3022.000000	65.113949 
3021.000000	65.118074 
3020.000000	65.125799 
3019.000000	65.137147 
3018.000000	65.150690 
3017.000000	65.163564 
3016.000000	65.172648 
3015.000000	65.175008 
3014.000000	65.169095 
3013.000000	65.155172 
3012.000000	65.135502 
3011.000000	65.113902 
3010.000000	65.094995 
3009.000000	65.083050 
3008.000000	65.080952 
3007.000000	65.089607 
3006.000000	65.107941 
3005.000000	65.133094 
3004.000000	65.161037 
3003.000000	65.187740 
3002.000000	65.209937 
3001.000000	65.225577 
3000.000000	65.234017 
2999.000000	65.235805 
2998.000000	65.231990 
2997.000000	65.223932 
2996.000000	65.212440 
2995.000000	65.197920 
2994.000000	65.180039 
2993.000000	65.158534 
2992.000000	65.133237 
2991.000000	65.104699 
2990.000000	65.074086 
2989.000000	65.043210 
2988.000000	65.014314 
2987.000000	64.989328 
2986.000000	64.969944 
2985.000000	64.957141 
2984.000000	64.951181 
2983.000000	64.951610 
2982.000000	64.957594 
2981.000000	64.968013 
2980.000000	64.981746 
2979.000000	64.997577 
2978.000000	65.014147 
2977.000000	65.029859 
2976.000000	65.043020 
2975.000000	65.051937 
2974.000000	65.054774 
2973.000000	65.050363 
2972.000000	65.038228 
2971.000000	65.018939 
2970.000000	64.994120 
2969.000000	64.966320 
2968.000000	64.938688 
2967.000000	64.914393 
2966.000000	64.895987 
2965.000000	64.884805 
2964.000000	64.880967 
2963.000000	64.883112 
2962.000000	64.888834 
2961.000000	64.895033 
2960.000000	64.898705 
2959.000000	64.897823 
2958.000000	64.891648 
2957.000000	64.880824 
2956.000000	64.867258 
2955.000000	64.853572 
2954.000000	64.842510 
2953.000000	64.836096 
2952.000000	64.835381 
2951.000000	64.840388 
2950.000000	64.850306 
2949.000000	64.863705 
2948.000000	64.879345 
2947.000000	64.896368 
2946.000000	64.914727 
2945.000000	64.934706 
2944.000000	64.956712 
2943.000000	64.981102 
2942.000000	65.007257 
2941.000000	65.034031 
2940.000000	65.059137 
2939.000000	65.079712 
2938.000000	65.092682 
2937.000000	65.095949 
2936.000000	65.087985 
2935.000000	65.068387 
2934.000000	65.037941 
2933.000000	64.998769 
2932.000000	64.953446 
2931.000000	64.904785 
2930.000000	64.855551 
2929.000000	64.808273 
2928.000000	64.765071 
2927.000000	64.727449 
2926.000000	64.696574 
2925.000000	64.673066 
2924.000000	64.656949 
2923.000000	64.647579 
2922.000000	64.643669 
2921.000000	64.643669 
2920.000000	64.645552 
2919.000000	64.647579 
2918.000000	64.647936 
2917.000000	64.645838 
2916.000000	64.641213 
2915.000000	64.635086 
2914.000000	64.628839 
2913.000000	64.624691 
2912.000000	64.624929 
2911.000000	64.631795 
2910.000000	64.646530 
2909.000000	64.669513 
2908.000000	64.699864 
2907.000000	64.735484 
2906.000000	64.773249 
2905.000000	64.809536 
2904.000000	64.840722 
2903.000000	64.864063 
2902.000000	64.878273 
2901.000000	64.883875 
2900.000000	64.882993 
2899.000000	64.879417 
2898.000000	64.877438 
2897.000000	64.880728 
2896.000000	64.891386 
2895.000000	64.909696 
2894.000000	64.933657 
2893.000000	64.959740 
2892.000000	64.983344 
2891.000000	65.000343 
2890.000000	65.007567 
2889.000000	65.003705 
2888.000000	64.989376 
2887.000000	64.966773 
2886.000000	64.939141 
2885.000000	64.909934 
2884.000000	64.882230 
2883.000000	64.858174 
2882.000000	64.839100 
2881.000000	64.825677 
2880.000000	64.818048 
2879.000000	64.816141 
2878.000000	64.819860 
2877.000000	64.829254 
2876.000000	64.844012 
2875.000000	64.863586 
2874.000000	64.887094 
2873.000000	64.913487 
2872.000000	64.941310 
2871.000000	64.968872 
2870.000000	64.994263 
2869.000000	65.015339 
2868.000000	65.030312 
2867.000000	65.037798 
2866.000000	65.037274 
2865.000000	65.029311 
2864.000000	65.015721 
2863.000000	64.999270 
2862.000000	64.983224 
2861.000000	64.970326 
2860.000000	64.962697 
2859.000000	64.960646 
2858.000000	64.963006 
2857.000000	64.966964 
2856.000000	64.969110 
2855.000000	64.966154 
2854.000000	64.955830 
2853.000000	64.937567 
2852.000000	64.912843 
2851.000000	64.884591 
2850.000000	64.856410 
2849.000000	64.831805 
2848.000000	64.813399 
2847.000000	64.802742 
2846.000000	64.800262 
2845.000000	64.805531 
2844.000000	64.817619 
2843.000000	64.835524 
2842.000000	64.858603 
2841.000000	64.886069 
2840.000000	64.917159 
2839.000000	64.950823 
2838.000000	64.985847 
2837.000000	65.020346 
2836.000000	65.052700 
2835.000000	65.081286 
2834.000000	65.105271 
2833.000000	65.124535 
2832.000000	65.139865 
2831.000000	65.152788 
2830.000000	65.164923 
2829.000000	65.177965 
2828.000000	65.192914 
2827.000000	65.210032 
2826.000000	65.228486 
2825.000000	65.246915 
2824.000000	65.263271 
2823.000000	65.275382 
2822.000000	65.281248 
2821.000000	65.279531 
2820.000000	65.269851 
2819.000000	65.252804 
2818.000000	65.230202 
2817.000000	65.204858 
2816.000000	65.180063 
2815.000000	65.159177 
2814.000000	65.145158 
2813.000000	65.140056 
2812.000000	65.144753 
2811.000000	65.158700 
2810.000000	65.180087 
2809.000000	65.205931 
2808.000000	65.232801 
2807.000000	65.257167 
2806.000000	65.275979 
2805.000000	65.287232 
2804.000000	65.290021 
2803.000000	65.284729 
2802.000000	65.272808 
2801.000000	65.256237 
2800.000000	65.237092 
2799.000000	65.217280 
2798.000000	65.198111 
2797.000000	65.180182 
2796.000000	65.163612 
2795.000000	65.148234 
2794.000000	65.133833 
2793.000000	65.120339 
2792.000000	65.108084 
2791.000000	65.097546 
2790.000000	65.089392 
2789.000000	65.084242 
2788.000000	65.082693 
2787.000000	65.084958 
2786.000000	65.091085 
2785.000000	65.100884 
2784.000000	65.114140 
2783.000000	65.130591 
2782.000000	65.149927 
2781.000000	65.171742 
2780.000000	65.195345 
2779.000000	65.219688 
2778.000000	65.243315 
2777.000000	65.264558 
2776.000000	65.281701 
2775.000000	65.293264 
2774.000000	65.298271 
2773.000000	65.296673 
2772.000000	65.289235 
2771.000000	65.277528 
2770.000000	65.263414 
2769.000000	65.248727 
2768.000000	65.235042 
2767.000000	65.223407 
2766.000000	65.214323 
2765.000000	65.207576 
2764.000000	65.202832 
2763.000000	65.199661 
2762.000000	65.197777 
2761.000000	65.197110 
2760.000000	65.197753 
2759.000000	65.199875 
2758.000000	65.203356 
2757.000000	65.207743 
2756.000000	65.212345 
2755.000000	65.216279 
2754.000000	65.218734 
2753.000000	65.218973 
2752.000000	65.216660 
2751.000000	65.211749 
2750.000000	65.204548 
2749.000000	65.195655 
2748.000000	65.185642 
2747.000000	65.175294 
2746.000000	65.165543 
2745.000000	65.157485 
2744.000000	65.152168 
2743.000000	65.150642 
2742.000000	65.153527 
2741.000000	65.160894 
2740.000000	65.172028 
2739.000000	65.185713 
2738.000000	65.200304 
2737.000000	65.214228 
2736.000000	65.226340 
2735.000000	65.236234 
2734.000000	65.244340 
2733.000000	65.251922 
2732.000000	65.260457 
2731.000000	65.271258 
2730.000000	65.284681 
2729.000000	65.300226 
2728.000000	65.315818 
2727.000000	65.328931 
2726.000000	65.336585 
2725.000000	65.336704 
2724.000000	65.328335 
2723.000000	65.312385 
2722.000000	65.291404 
2721.000000	65.269255 
2720.000000	65.250062 
2719.000000	65.237259 
2718.000000	65.232944 
2717.000000	65.237236 
2716.000000	65.248322 
2715.000000	65.263032 
2714.000000	65.277647 
2713.000000	65.288758 
2712.000000	65.294146 
2711.000000	65.293216 
2710.000000	65.286779 
2709.000000	65.276718 
2708.000000	65.265417 
2707.000000	65.255141 
2706.000000	65.247249 
2705.000000	65.241980 
2704.000000	65.238785 
2703.000000	65.236401 
2702.000000	65.233540 
2701.000000	65.229272 
2700.000000	65.223240 
2699.000000	65.215945 
2698.000000	65.208458 
2697.000000	65.202236 
2696.000000	65.198564 
2695.000000	65.198278 
2694.000000	65.201544 
2693.000000	65.207958 
2692.000000	65.216398 
2691.000000	65.225291 
2690.000000	65.232968 
2689.000000	65.237736 
2688.000000	65.238118 
2687.000000	65.233135 
2686.000000	65.222215 
2685.000000	65.205407 
2684.000000	65.183472 
2683.000000	65.157628 
2682.000000	65.129709 
2681.000000	65.101766 
2680.000000	65.076041 
2679.000000	65.054464 
2678.000000	65.038800 
2677.000000	65.030121 
2676.000000	65.028977 
2675.000000	65.035176 
2674.000000	65.048313 
2673.000000	65.067625 
2672.000000	65.092277 
2671.000000	65.121173 
2670.000000	65.153217 
2669.000000	65.187120 
2668.000000	65.221381 
2667.000000	65.254187 
2666.000000	65.283489 
2665.000000	65.307331 
2664.000000	65.324068 
2663.000000	65.332698 
2662.000000	65.332984 
2661.000000	65.325665 
2660.000000	65.312147 
2659.000000	65.294623 
2658.000000	65.275430 
2657.000000	65.256834 
2656.000000	65.240716 
2655.000000	65.228438 
2654.000000	65.220665 
2653.000000	65.217351 
2652.000000	65.218067 
2651.000000	65.222024 
2650.000000	65.228390 
2649.000000	65.236115 
2648.000000	65.244412 
2647.000000	65.252280 
2646.000000	65.258884 
2645.000000	65.263247 
2644.000000	65.264487 
2643.000000	65.261936 
2642.000000	65.255188 
2641.000000	65.244340 
2640.000000	65.229892 
2639.000000	65.213036 
2638.000000	65.195512 
2637.000000	65.179395 
2636.000000	65.166687 
2635.000000	65.159130 
2634.000000	65.157842 
2633.000000	65.163183 
2632.000000	65.174555 
2631.000000	65.190625 
2630.000000	65.209460 
2629.000000	65.228843 
2628.000000	65.246605 
2627.000000	65.260815 
2626.000000	65.269947 
2625.000000	65.273189 
2624.000000	65.270400 
2623.000000	65.262031 
2622.000000	65.249085 
2621.000000	65.233016 
2620.000000	65.215516 
2619.000000	65.198254 
2618.000000	65.182781 
2617.000000	65.170311 
2616.000000	65.161561 
2615.000000	65.156769 
2614.000000	65.155577 
2613.000000	65.157365 
2612.000000	65.161299 
2611.000000	65.166449 
2610.000000	65.172100 
2609.000000	65.177607 
2608.000000	65.182375 
2607.000000	65.186095 
2606.000000	65.188598 
2605.000000	65.189909 
2604.000000	65.190362 
2603.000000	65.190410 
2602.000000	65.190887 
2601.000000	65.192604 
2600.000000	65.196275 
2599.000000	65.201926 
2598.000000	65.209031 
2597.000000	65.216255 
2596.000000	65.221714 
2595.000000	65.223288 
2594.000000	65.219330 
2593.000000	65.209031 
2592.000000	65.193080 
2591.000000	65.173387 
2590.000000	65.153121 
2589.000000	65.135765 
2588.000000	65.124464 
2587.000000	65.121054 
2586.000000	65.125727 
2585.000000	65.137100 
2584.000000	65.152382 
2583.000000	65.168166 
2582.000000	65.181326 
2581.000000	65.189766 
2580.000000	65.192651 
2579.000000	65.190553 
2578.000000	65.185046 
2577.000000	65.178275 
2576.000000	65.172314 
2575.000000	65.168690 
2574.000000	65.168309 
2573.000000	65.171480 
2572.000000	65.178108 
2571.000000	65.187954 
2570.000000	65.200710 
2569.000000	65.216088 
2568.000000	65.233969 
2567.000000	65.253734 
2566.000000	65.274667 
2565.000000	65.295624 
2564.000000	65.315556 
2563.000000	65.333414 
2562.000000	65.348267 
2561.000000	65.359663 
2560.000000	65.367460 
2559.000000	65.371799 
2558.000000	65.372872 
2557.000000	65.370678 
2556.000000	65.365099 
2555.000000	65.355896 
2554.000000	65.342903 
2553.000000	65.326261 
2552.000000	65.306544 
2551.000000	65.284895 
2550.000000	65.262889 
2549.000000	65.242362 
2548.000000	65.224885 
2547.000000	65.211558 
2546.000000	65.202832 
2545.000000	65.198373 
2544.000000	65.197157 
2543.000000	65.197896 
2542.000000	65.199017 
2541.000000	65.199351 
2540.000000	65.198016 
2539.000000	65.194773 
2538.000000	65.189909 
2537.000000	65.184140 
2536.000000	65.178418 
2535.000000	65.173554 
2534.000000	65.170097 
2533.000000	65.168023 
2532.000000	65.167093 
2531.000000	65.166664 
2530.000000	65.165758 
2529.000000	65.163636 
2528.000000	65.160012 
2527.000000	65.155100 
2526.000000	65.149497 
2525.000000	65.144300 
2524.000000	65.140533 
2523.000000	65.138888 
2522.000000	65.139222 
2521.000000	65.140771 
2520.000000	65.142083 
2519.000000	65.141582 
2518.000000	65.138077 
2517.000000	65.131187 
2516.000000	65.121674 
2515.000000	65.111064 
2514.000000	65.101766 
2513.000000	65.096020 
2512.000000	65.095853 
2511.000000	65.102410 
2510.000000	65.116095 
2509.000000	65.136146 
2508.000000	65.161132 
2507.000000	65.189242 
2506.000000	65.218424 
2505.000000	65.246820 
2504.000000	65.272712 
2503.000000	65.294623 
2502.000000	65.311431 
2501.000000	65.322470 
2500.000000	65.327620 
2499.000000	65.327286 
2498.000000	65.322637 
2497.000000	65.315270 
2496.000000	65.306782 
2495.000000	65.298485 
2494.000000	65.291118 
2493.000000	65.284681 
2492.000000	65.278673 
2491.000000	65.272116 
2490.000000	65.264272 
2489.000000	65.254545 
2488.000000	65.242934 
2487.000000	65.229773 
2486.000000	65.215587 
2485.000000	65.201044 
2484.000000	65.186476 
2483.000000	65.172195 
2482.000000	65.158152 
2481.000000	65.144348 
2480.000000	65.130901 
2479.000000	65.118408 
2478.000000	65.107703 
2477.000000	65.100026 
2476.000000	65.096449 
2475.000000	65.097880 
2474.000000	65.104413 
2473.000000	65.115618 
2472.000000	65.130400 
2471.000000	65.147280 
2470.000000	65.164637 
2469.000000	65.180945 
2468.000000	65.194964 
2467.000000	65.205883 
2466.000000	65.213322 
2465.000000	65.217351 
2464.000000	65.218210 
2463.000000	65.216469 
2462.000000	65.212559 
2461.000000	65.206980 
2460.000000	65.199947 
2459.000000	65.191531 
2458.000000	65.181708 
2457.000000	65.170526 
2456.000000	65.158128 
2455.000000	65.144991 
2454.000000	65.131878 
2453.000000	65.119671 
2452.000000	65.109467 
2451.000000	65.102148 
2450.000000	65.098524 
2449.000000	65.099024 
2448.000000	65.103697 
2447.000000	65.112257 
2446.000000	65.124130 
2445.000000	65.138626 
2444.000000	65.155005 
2443.000000	65.172457 
2442.000000	65.190458 
2441.000000	65.208482 
2440.000000	65.226054 
2439.000000	65.242671 
2438.000000	65.257716 
2437.000000	65.270376 
2436.000000	65.279722 
2435.000000	65.284776 
2434.000000	65.284943 
2433.000000	65.279960 
2432.000000	65.270090 
2431.000000	65.256381 
2430.000000	65.240311 
2429.000000	65.223789 
2428.000000	65.208840 
2427.000000	65.197300 
2426.000000	65.190434 
2425.000000	65.188813 
2424.000000	65.192151 
2423.000000	65.199589 
2422.000000	65.209627 
2421.000000	65.220618 
2420.000000	65.231013 
2419.000000	65.239596 
2418.000000	65.245628 
2417.000000	65.249013 
2416.000000	65.249967 
2415.000000	65.249109 
2414.000000	65.247035 
2413.000000	65.244197 
2412.000000	65.240859 
2411.000000	65.237021 
2410.000000	65.232634 
2409.000000	65.227508 
2408.000000	65.221643 
2407.000000	65.215325 
2406.000000	65.209054 
2405.000000	65.203428 
2404.000000	65.199065 
2403.000000	65.196537 
2402.000000	65.196061 
2401.000000	65.197491 
2400.000000	65.200471 
2399.000000	65.204262 
2398.000000	65.208172 
2397.000000	65.211725 
2396.000000	65.214610 
2395.000000	65.216827 
2394.000000	65.218544 
2393.000000	65.220165 
2392.000000	65.221953 
2391.000000	65.224123 
2390.000000	65.226650 
2389.000000	65.229344 
2388.000000	65.231895 
2387.000000	65.233969 
2386.000000	65.235257 
2385.000000	65.235590 
2384.000000	65.234899 
2383.000000	65.233087 
2382.000000	65.230154 
2381.000000	65.225934 
2380.000000	65.220546 
2379.000000	65.214014 
2378.000000	65.206623 
2377.000000	65.198969 
2376.000000	65.191721 
2375.000000	65.185856 
2374.000000	65.182113 
2373.000000	65.181279 
2372.000000	65.183877 
2371.000000	65.189933 
2370.000000	65.199160 
2369.000000	65.210843 
2368.000000	65.224075 
2367.000000	65.237712 
2366.000000	65.250611 
2365.000000	65.261840 
2364.000000	65.270805 
2363.000000	65.277171 
2362.000000	65.281009 
2361.000000	65.282583 
2360.000000	65.282344 
2359.000000	65.280842 
2358.000000	65.278434 
2357.000000	65.275526 
2356.000000	65.272426 
2355.000000	65.269255 
2354.000000	65.266323 
2353.000000	65.263819 
2352.000000	65.262055 
2351.000000	65.261316 
2350.000000	65.261745 
2349.000000	65.263271 
2348.000000	65.265607 
2347.000000	65.268301 
2346.000000	65.270853 
2345.000000	65.272665 
2344.000000	65.273284 
2343.000000	65.272498 
2342.000000	65.270161 
2341.000000	65.266203 
2340.000000	65.260386 
2339.000000	65.252375 
2338.000000	65.241694 
2337.000000	65.227913 
2336.000000	65.210747 
2335.000000	65.190386 
2334.000000	65.167737 
2333.000000	65.144467 
2332.000000	65.122818 
2331.000000	65.105199 
2330.000000	65.093851 
2329.000000	65.090298 
2328.000000	65.094995 
2327.000000	65.107154 
2326.000000	65.124893 
2325.000000	65.145754 
2324.000000	65.166831 
2323.000000	65.185689 
2322.000000	65.200495 
2321.000000	65.210556 
2320.000000	65.216016 
2319.000000	65.217947 
2318.000000	65.217852 
2317.000000	65.217423 
2316.000000	65.217995 
2315.000000	65.220379 
2314.000000	65.224814 
2313.000000	65.230894 
2312.000000	65.237975 
2311.000000	65.245151 
2310.000000	65.251731 
2309.000000	65.257430 
2308.000000	65.262269 
2307.000000	65.266537 
2306.000000	65.270543 
2305.000000	65.274572 
2304.000000	65.278625 
2303.000000	65.282225 
2302.000000	65.284633 
2301.000000	65.285086 
2300.000000	65.282845 
2299.000000	65.277600 
2298.000000	65.269494 
2297.000000	65.259313 
2296.000000	65.248250 
2295.000000	65.237832 
2294.000000	65.229368 
2293.000000	65.223765 
2292.000000	65.221428 
2291.000000	65.222263 
2290.000000	65.225625 
2289.000000	65.230536 
2288.000000	65.235638 
2287.000000	65.239715 
2286.000000	65.241551 
2285.000000	65.240216 
2284.000000	65.235328 
2283.000000	65.226960 
2282.000000	65.215897 
2281.000000	65.203404 
2280.000000	65.191197 
2279.000000	65.181303 
2278.000000	65.175485 
2277.000000	65.175294 
2276.000000	65.181398 
2275.000000	65.193581 
2274.000000	65.210843 
2273.000000	65.231370 
2272.000000	65.252804 
2271.000000	65.272879 
2270.000000	65.289545 
2269.000000	65.301513 
2268.000000	65.308189 
2267.000000	65.309858 
2266.000000	65.307354 
2265.000000	65.301895 
2264.000000	65.294718 
2263.000000	65.286946 
2262.000000	65.279364 
2261.000000	65.272283 
2260.000000	65.265727 
2259.000000	65.259432 
2258.000000	65.253233 
2257.000000	65.246987 
2256.000000	65.240788 
2255.000000	65.234994 
2254.000000	65.230178 
2253.000000	65.226721 
2252.000000	65.224957 
2251.000000	65.225028 
2250.000000	65.226888 
2249.000000	65.230274 
2248.000000	65.234827 
2247.000000	65.240240 
2246.000000	65.246176 
2245.000000	65.252137 
2244.000000	65.257596 
2243.000000	65.261745 
2242.000000	65.263891 
2241.000000	65.263414 
2240.000000	65.260052 
2239.000000	65.253806 
2238.000000	65.245270 
2237.000000	65.235543 
2236.000000	65.226030 
2235.000000	65.218067 
2234.000000	65.212798 
2233.000000	65.210771 
2232.000000	65.212011 
2231.000000	65.215992 
2230.000000	65.221834 
2229.000000	65.228581 
2228.000000	65.235471 
2227.000000	65.242123 
2226.000000	65.248513 
2225.000000	65.254926 
2224.000000	65.261721 
2223.000000	65.269160 
2222.000000	65.277361 
2221.000000	65.286040 
2220.000000	65.294742 
2219.000000	65.302777 
2218.000000	65.309262 
2217.000000	65.313267 
2216.000000	65.314197 
2215.000000	65.311479 
2214.000000	65.305113 
2213.000000	65.295267 
2212.000000	65.282678 
2211.000000	65.268158 
2210.000000	65.252733 
2209.000000	65.237331 
2208.000000	65.222930 
2207.000000	65.210056 
2206.000000	65.198969 
2205.000000	65.189695 
2204.000000	65.182209 
2203.000000	65.176463 
2202.000000	65.172386 
2201.000000	65.170049 
2200.000000	65.169525 
2199.000000	65.170860 
2198.000000	65.173983 
2197.000000	65.178537 
2196.000000	65.183997 
2195.000000	65.189838 
2194.000000	65.195727 
2193.000000	65.201568 
2192.000000	65.207290 
2191.000000	65.212965 
2190.000000	65.218544 
2189.000000	65.223598 
2188.000000	65.227651 
2187.000000	65.229964 
2186.000000	65.230035 
2185.000000	65.227603 
2184.000000	65.223073 
2183.000000	65.217304 
2182.000000	65.211772 
2181.000000	65.208053 
2180.000000	65.207815 
2179.000000	65.212297 
2178.000000	65.222048 
2177.000000	65.236759 
2176.000000	65.255141 
2175.000000	65.275096 
2174.000000	65.294075 
2173.000000	65.309381 
2172.000000	65.318727 
2171.000000	65.320634 
2170.000000	65.314674 
2169.000000	65.301680 
2168.000000	65.283274 
2167.000000	65.261793 
2166.000000	65.239834 
2165.000000	65.219879 
2164.000000	65.203928 
2163.000000	65.193319 
2162.000000	65.188622 
2161.000000	65.189504 
2160.000000	65.195131 
2159.000000	65.204191 
2158.000000	65.214967 
2157.000000	65.225982 
2156.000000	65.235924 
2155.000000	65.244126 
2154.000000	65.250110 
2153.000000	65.253949 
2152.000000	65.255904 
2151.000000	65.256333 
2150.000000	65.255689 
2149.000000	65.254378 
2148.000000	65.252947 
2147.000000	65.251970 
2146.000000	65.252184 
2145.000000	65.254235 
2144.000000	65.258693 
2143.000000	65.265774 
2142.000000	65.275096 
2141.000000	65.285825 
2140.000000	65.296673 
2139.000000	65.306162 
2138.000000	65.312838 
2137.000000	65.315794 
2136.000000	65.314722 
2135.000000	65.310215 
2134.000000	65.303492 
2133.000000	65.296006 
2132.000000	65.288972 
2131.000000	65.283274 
2130.000000	65.279150 
2129.000000	65.276527 
2128.000000	65.274882 
2127.000000	65.273785 
2126.000000	65.272760 
2125.000000	65.271472 
2124.000000	65.269804 
2123.000000	65.267682 
2122.000000	65.265011 
2121.000000	65.261673 
2120.000000	65.257549 
2119.000000	65.252470 
2118.000000	65.246438 
2117.000000	65.239596 
2116.000000	65.232229 
2115.000000	65.224838 
2114.000000	65.218138 
2113.000000	65.212988 
2112.000000	65.210056 
2111.000000	65.209770 
2110.000000	65.212440 
2109.000000	65.217709 
2108.000000	65.224862 
2107.000000	65.232658 
2106.000000	65.239524 
2105.000000	65.243935 
2104.000000	65.244412 
2103.000000	65.240335 
2102.000000	65.231990 
2101.000000	65.220975 
2100.000000	65.209746 
2099.000000	65.201354 
2098.000000	65.198731 
2097.000000	65.204095 
2096.000000	65.218305 
2095.000000	65.240693 
2094.000000	65.269231 
2093.000000	65.300846 
2092.000000	65.331959 
2091.000000	65.359139 
2090.000000	65.379691 
2089.000000	65.392065 
2088.000000	65.395903 
2087.000000	65.391755 
2086.000000	65.381073 
2085.000000	65.365767 
2084.000000	65.347719 
2083.000000	65.328621 
2082.000000	65.309667 
2081.000000	65.291810 
2080.000000	65.275406 
2079.000000	65.260577 
2078.000000	65.247082 
2077.000000	65.234637 
2076.000000	65.222978 
2075.000000	65.212011 
2074.000000	65.201878 
2073.000000	65.192890 
2072.000000	65.185523 
2071.000000	65.180182 
2070.000000	65.177249 
2069.000000	65.176749 
2068.000000	65.178561 
2067.000000	65.182352 
2066.000000	65.187716 
2065.000000	65.194082 
2064.000000	65.201115 
2063.000000	65.208578 
2062.000000	65.216207 
2061.000000	65.223574 
2060.000000	65.230298 
2059.000000	65.236091 
2058.000000	65.240526 
2057.000000	65.243124 
2056.000000	65.243649 
2055.000000	65.242290 
2054.000000	65.239477 
2053.000000	65.236210 
2052.000000	65.233802 
2051.000000	65.233564 
2050.000000	65.236735 
2049.000000	65.243935 
2048.000000	65.254950 
2047.000000	65.268826 
2046.000000	65.283823 
2045.000000	65.297746 
2044.000000	65.308332 
2043.000000	65.313816 
2042.000000	65.313148 
2041.000000	65.306186 
2040.000000	65.293550 
2039.000000	65.276479 
2038.000000	65.256643 
2037.000000	65.235638 
2036.000000	65.215015 
2035.000000	65.196061 
2034.000000	65.179872 
2033.000000	65.167546 
2032.000000	65.160059 
2031.000000	65.158104 
2030.000000	65.161871 
2029.000000	65.170836 
2028.000000	65.183591 
2027.000000	65.197682 
2026.000000	65.210270 
2025.000000	65.218257 
2024.000000	65.219593 
2023.000000	65.213346 
2022.000000	65.200352 
2021.000000	65.182924 
2020.000000	65.164709 
2019.000000	65.149664 
2018.000000	65.141320 
2017.000000	65.141987 
2016.000000	65.152168 
2015.000000	65.170645 
2014.000000	65.194892 
2013.000000	65.221810 
2012.000000	65.248250 
2011.000000	65.271902 
2010.000000	65.291380 
2009.000000	65.306282 
2008.000000	65.316891 
2007.000000	65.323734 
2006.000000	65.327143 
2005.000000	65.326857 
2004.000000	65.322518 
2003.000000	65.313482 
2002.000000	65.299248 
2001.000000	65.279769 
2000.000000	65.255975 
1999.000000	65.229701 
1998.000000	65.203499 
1997.000000	65.180397 
1996.000000	65.163278 
1995.000000	65.154385 
1994.000000	65.154886 
1993.000000	65.164899 
1992.000000	65.182971 
1991.000000	65.206789 
1990.000000	65.233445 
1989.000000	65.259814 
1988.000000	65.283274 
1987.000000	65.301632 
1986.000000	65.313744 
1985.000000	65.319275 
1984.000000	65.318655 
1983.000000	65.313053 
1982.000000	65.304064 
1981.000000	65.293455 
1980.000000	65.283083 
1979.000000	65.274906 
1978.000000	65.270614 
1977.000000	65.271544 
1976.000000	65.278363 
1975.000000	65.290856 
1974.000000	65.307807 
1973.000000	65.327191 
1972.000000	65.346336 
1971.000000	65.362501 
1970.000000	65.373182 
1969.000000	65.376830 
1968.000000	65.372824 
1967.000000	65.361809 
1966.000000	65.345501 
1965.000000	65.326285 
1964.000000	65.306782 
1963.000000	65.289306 
1962.000000	65.275669 
1961.000000	65.266919 
1960.000000	65.263199 
1959.000000	65.264081 
1958.000000	65.268421 
1957.000000	65.274882 
1956.000000	65.282106 
1955.000000	65.289139 
1954.000000	65.295243 
1953.000000	65.300154 
1952.000000	65.304183 
1951.000000	65.308022 
1950.000000	65.312480 
1949.000000	65.318202 
1948.000000	65.325403 
1947.000000	65.333604 
1946.000000	65.341734 
1945.000000	65.348148 
1944.000000	65.351176 
1943.000000	65.349531 
1942.000000	65.342736 
1941.000000	65.331363 
1940.000000	65.317130 
1939.000000	65.302538 
1938.000000	65.290403 
1937.000000	65.283226 
1936.000000	65.282559 
1935.000000	65.288686 
1934.000000	65.300464 
1933.000000	65.315485 
1932.000000	65.330505 
1931.000000	65.342187 
1930.000000	65.347814 
1929.000000	65.345644 
1928.000000	65.335297 
1927.000000	65.317535 
1926.000000	65.294313 
1925.000000	65.268158 
1924.000000	65.241813 
1923.000000	65.217685 
1922.000000	65.197467 
1921.000000	65.182256 
1920.000000	65.172433 
1919.000000	65.167689 
1918.000000	65.167427 
1917.000000	65.170884 
1916.000000	65.177369 
1915.000000	65.186142 
1914.000000	65.196514 
1913.000000	65.207886 
1912.000000	65.219831 
1911.000000	65.231609 
1910.000000	65.242624 
1909.000000	65.252304 
1908.000000	65.260338 
1907.000000	65.266633 
1906.000000	65.271425 
1905.000000	65.275239 
1904.000000	65.278673 
1903.000000	65.282416 
1902.000000	65.286707 
1901.000000	65.291333 
1900.000000	65.295696 
1899.000000	65.298676 
1898.000000	65.299224 
1897.000000	65.296363 
1896.000000	65.289688 
1895.000000	65.279531 
1894.000000	65.266728 
1893.000000	65.252447 
1892.000000	65.238022 
1891.000000	65.224552 
1890.000000	65.212392 
1889.000000	65.201234 
1888.000000	65.190339 
1887.000000	65.178823 
1886.000000	65.165877 
1885.000000	65.151357 
1884.000000	65.135812 
1883.000000	65.120506 
1882.000000	65.107202 
1881.000000	65.097737 
1880.000000	65.093445 
1879.000000	65.095162 
1878.000000	65.102720 
1877.000000	65.115261 
1876.000000	65.131282 
1875.000000	65.149116 
1874.000000	65.167307 
1873.000000	65.184664 
1872.000000	65.200638 
1871.000000	65.215039 
1870.000000	65.228176 
1869.000000	65.240502 
1868.000000	65.252327 
1867.000000	65.263891 
1866.000000	65.275096 
1865.000000	65.285778 
1864.000000	65.295267 
1863.000000	65.303134 
1862.000000	65.308499 
1861.000000	65.310907 
1860.000000	65.309834 
1859.000000	65.305042 
1858.000000	65.296649 
1857.000000	65.285253 
1856.000000	65.272140 
1855.000000	65.259051 
1854.000000	65.248131 
1853.000000	65.241599 
1852.000000	65.241312 
1851.000000	65.248322 
1850.000000	65.262508 
1849.000000	65.282654 
1848.000000	65.306305 
1847.000000	65.330290 
1846.000000	65.351319 
1845.000000	65.366458 
1844.000000	65.374135 
1843.000000	65.373826 
1842.000000	65.366458 
1841.000000	65.353941 
1840.000000	65.338492 
1839.000000	65.322232 
1838.000000	65.306615 
1837.000000	65.292263 
1836.000000	65.279269 
1835.000000	65.267062 
1834.000000	65.255284 
1833.000000	65.243649 
1832.000000	65.232443 
1831.000000	65.222239 
1830.000000	65.213775 
1829.000000	65.207743 
1828.000000	65.204381 
1827.000000	65.203475 
1826.000000	65.204501 
1825.000000	65.206599 
1824.000000	65.208959 
1823.000000	65.210866 
1822.000000	65.211963 
1821.000000	65.212082 
1820.000000	65.211296 
1819.000000	65.209674 
1818.000000	65.207171 
1817.000000	65.203762 
1816.000000	65.199398 
1815.000000	65.194129 
1814.000000	65.188336 
1813.000000	65.182590 
1812.000000	65.177702 
1811.000000	65.174436 
1810.000000	65.173554 
1809.000000	65.175414 
1808.000000	65.180230 
1807.000000	65.187692 
1806.000000	65.197587 
1805.000000	65.209436 
1804.000000	65.222907 
1803.000000	65.237641 
1802.000000	65.253186 
1801.000000	65.268945 
1800.000000	65.283942 
1799.000000	65.296840 
1798.000000	65.306115 
1797.000000	65.310287 
1796.000000	65.308213 
1795.000000	65.299487 
1794.000000	65.284657 
1793.000000	65.265202 
1792.000000	65.243387 
1791.000000	65.221905 
1790.000000	65.203452 
1789.000000	65.190124 
1788.000000	65.183138 
1787.000000	65.182685 
1786.000000	65.188002 
1785.000000	65.197682 
1784.000000	65.209770 
1783.000000	65.222525 
1782.000000	65.234255 
1781.000000	65.243840 
1780.000000	65.250563 
1779.000000	65.254116 
1778.000000	65.254688 
1777.000000	65.252614 
1776.000000	65.248394 
1775.000000	65.242409 
1774.000000	65.234899 
1773.000000	65.225958 
1772.000000	65.215563 
1771.000000	65.203785 
1770.000000	65.190887 
1769.000000	65.177464 
1768.000000	65.164136 
1767.000000	65.151667 
1766.000000	65.140748 
1765.000000	65.131759 
1764.000000	65.124702 
1763.000000	65.119266 
1762.000000	65.115022 
1761.000000	65.111470 
1760.000000	65.108370 
1759.000000	65.105628 
1758.000000	65.103411 
1757.000000	65.101957 
1756.000000	65.101599 
1755.000000	65.102410 
1754.000000	65.104198 
1753.000000	65.106320 
1752.000000	65.108060 
1751.000000	65.108895 
1750.000000	65.108537 
1749.000000	65.106987 
1748.000000	65.104675 
1747.000000	65.102195 
1746.000000	65.100121 
1745.000000	65.098929 
1744.000000	65.098571 
1743.000000	65.098500 
1742.000000	65.097832 
1741.000000	65.095591 
1740.000000	65.090799 
1739.000000	65.082740 
1738.000000	65.071105 
1737.000000	65.056347 
1736.000000	65.039420 
1735.000000	65.021562 
1734.000000	65.004467 
1733.000000	64.989805 
1732.000000	64.978909 
1731.000000	64.972519 
1730.000000	64.970779 
1729.000000	64.972758 
1728.000000	64.976859 
1727.000000	64.980792 
1726.000000	64.981985 
1725.000000	64.978432 
1724.000000	64.968848 
1723.000000	64.953684 
1722.000000	64.934659 
1721.000000	64.914965 
1720.000000	64.898633 
1719.000000	64.889812 
1718.000000	64.891767 
1717.000000	64.906191 
1716.000000	64.932847 
1715.000000	64.969444 
1714.000000	65.012216 
1713.000000	65.056467 
1712.000000	65.097570 
1711.000000	65.131902 
1710.000000	65.157365 
1709.000000	65.173530 
1708.000000	65.181374 
1707.000000	65.183019 
1706.000000	65.180778 
1705.000000	65.176582 
1704.000000	65.171122 
1703.000000	65.164804 
1702.000000	65.156483 
1701.000000	65.145206 
1700.000000	65.129518 
1699.000000	65.108942 
1698.000000	65.083599 
1697.000000	65.054559 
1696.000000	65.023589 
1695.000000	64.992642 
1694.000000	64.963769 
1693.000000	64.938735 
1692.000000	64.918899 
1691.000000	64.904952 
1690.000000	64.897346 
1689.000000	64.896273 
1688.000000	64.901757 
1687.000000	64.913702 
1686.000000	64.931774 
1685.000000	64.955353 
1684.000000	64.983320 
1683.000000	65.014100 
1682.000000	65.046024 
1681.000000	65.077519 
1680.000000	65.107178 
1679.000000	65.133905 
1678.000000	65.157318 
1677.000000	65.177440 
1676.000000	65.194654 
1675.000000	65.209341 
1674.000000	65.221810 
1673.000000	65.232181 
1672.000000	65.240430 
1671.000000	65.246295 
1670.000000	65.249514 
1669.000000	65.249800 
1668.000000	65.247344 
1667.000000	65.242338 
1666.000000	65.235257 
1665.000000	65.226602 
1664.000000	65.217161 
1663.000000	65.207457 
1662.000000	65.197873 
1661.000000	65.188646 
1660.000000	65.180015 
1659.000000	65.172100 
1658.000000	65.164828 
1657.000000	65.158104 
1656.000000	65.151882 
1655.000000	65.146136 
1654.000000	65.140795 
1653.000000	65.135693 
1652.000000	65.130543 
1651.000000	65.125036 
1650.000000	65.119004 
1649.000000	65.111947 
1648.000000	65.103602 
1647.000000	65.094065 
1646.000000	65.083670 
1645.000000	65.073084 
1644.000000	65.063118 
1643.000000	65.054750 
1642.000000	65.048861 
1641.000000	65.045928 
1640.000000	65.046095 
1639.000000	65.049076 
1638.000000	65.054297 
1637.000000	65.060925 
1636.000000	65.068197 
1635.000000	65.075564 
1634.000000	65.082907 
1633.000000	65.090608 
1632.000000	65.099334 
1631.000000	65.109944 
1630.000000	65.123128 
1629.000000	65.139126 
1628.000000	65.157365 
1627.000000	65.176153 
1626.000000	65.193128 
1625.000000	65.205550 
1624.000000	65.210533 
1623.000000	65.206027 
1622.000000	65.191292 
1621.000000	65.167093 
1620.000000	65.136075 
1619.000000	65.101814 
1618.000000	65.068721 
1617.000000	65.040612 
1616.000000	65.020108 
1615.000000	65.008044 
1614.000000	65.003442 
1613.000000	65.003943 
1612.000000	65.006566 
1611.000000	65.008711 
1610.000000	65.008759 
1609.000000	65.006422 
1608.000000	65.002441 
1607.000000	64.998269 
1606.000000	64.995360 
1605.000000	64.994668 
1604.000000	64.996385 
1603.000000	64.999794 
1602.000000	65.003609 
1601.000000	65.006661 
1600.000000	65.008187 
1599.000000	65.008115 
1598.000000	65.006899 
1597.000000	65.005397 
1596.000000	65.004301 
1595.000000	65.003967 
1594.000000	65.003943 
1593.000000	65.003252 
1592.000000	65.000629 
1591.000000	64.995026 
1590.000000	64.986228 
1589.000000	64.974761 
1588.000000	64.962244 
1587.000000	64.951086 
1586.000000	64.943766 
1585.000000	64.942312 
1584.000000	64.947772 
1583.000000	64.959883 
1582.000000	64.977073 
1581.000000	64.996814 
1580.000000	65.016055 
1579.000000	65.031790 
1578.000000	65.041351 
1577.000000	65.043044 
1576.000000	65.036273 
1575.000000	65.021634 
1574.000000	65.000915 
1573.000000	64.976906 
1572.000000	64.953064 
1571.000000	64.932823 
1570.000000	64.919137 
1569.000000	64.913868 
1568.000000	64.917492 
1567.000000	64.929294 
1566.000000	64.947628 
1565.000000	64.970445 
1564.000000	64.995646 
1563.000000	65.021204 
1562.000000	65.045571 
1561.000000	65.067338 
1560.000000	65.085268 
1559.000000	65.098261 
1558.000000	65.105223 
1557.000000	65.105533 
1556.000000	65.099072 
1555.000000	65.086483 
1554.000000	65.069270 
1553.000000	65.049815 
1552.000000	65.030860 
1551.000000	65.015268 
1550.000000	65.005302 
1549.000000	65.002131 
1548.000000	65.005660 
1547.000000	65.014481 
1546.000000	65.026307 
1545.000000	65.038299 
1544.000000	65.047860 
1543.000000	65.052986 
1542.000000	65.052676 
1541.000000	65.047240 
1540.000000	65.037870 
1539.000000	65.026283 
1538.000000	65.014338 
1537.000000	65.003824 
1536.000000	64.996004 
1535.000000	64.991521 
1534.000000	64.990448 
1533.000000	64.992403 
1532.000000	64.996695 
1531.000000	65.002560 
1530.000000	65.009069 
1529.000000	65.015339 
1528.000000	65.020632 
1527.000000	65.024304 
1526.000000	65.025973 
1525.000000	65.025496 
1524.000000	65.022945 
1523.000000	65.018630 
1522.000000	65.013098 
1521.000000	65.007114 
1520.000000	65.001416 
1519.000000	64.997029 
1518.000000	64.994859 
1517.000000	64.995622 
1516.000000	64.999842 
1515.000000	65.007758 
1514.000000	65.019202 
1513.000000	65.033745 
1512.000000	65.050864 
1511.000000	65.069770 
1510.000000	65.089607 
1509.000000	65.109467 
1508.000000	65.128278 
1507.000000	65.145039 
1506.000000	65.158867 
1505.000000	65.169048 
1504.000000	65.175223 
1503.000000	65.177512 
1502.000000	65.176534 
1501.000000	65.173268 
1500.000000	65.169119 
1499.000000	65.165328 
1498.000000	65.162730 
1497.000000	65.161538 
1496.000000	65.161228 
1495.000000	65.160679 
1494.000000	65.158486 
1493.000000	65.153694 
1492.000000	65.145969 
1491.000000	65.135955 
1490.000000	65.124678 
1489.000000	65.113496 
1488.000000	65.103411 
1487.000000	65.094661 
1486.000000	65.087032 
1485.000000	65.079855 
1484.000000	65.072655 
1483.000000	65.065455 
1482.000000	65.058827 
1481.000000	65.053987 
1480.000000	65.051984 
1479.000000	65.053462 
1478.000000	65.057849 
1477.000000	65.063571 
1476.000000	65.067934 
1475.000000	65.067887 
1474.000000	65.060758 
1473.000000	65.045118 
1472.000000	65.021252 
1471.000000	64.991283 
1470.000000	64.958620 
1469.000000	64.927196 
1468.000000	64.900565 
1467.000000	64.881229 
1466.000000	64.870047 
1465.000000	64.866566 
1464.000000	64.869213 
1463.000000	64.876174 
1462.000000	64.885640 
1461.000000	64.896655 
1460.000000	64.908742 
1459.000000	64.921855 
1458.000000	64.935898 
1457.000000	64.950466 
1456.000000	64.964437 
1455.000000	64.976453 
1454.000000	64.984726 
1453.000000	64.987897 
1452.000000	64.985513 
1451.000000	64.978075 
1450.000000	64.967107 
1449.000000	64.954900 
1448.000000	64.943814 
1447.000000	64.936065 
1446.000000	64.933013 
1445.000000	64.935040 
1444.000000	64.941549 
1443.000000	64.951229 
1442.000000	64.962267 
1441.000000	64.972925 
1440.000000	64.981722 
1439.000000	64.987659 
1438.000000	64.990329 
1437.000000	64.989757 
1436.000000	64.986419 
1435.000000	64.980792 
1434.000000	64.973449 
1433.000000	64.964938 
1432.000000	64.955997 
1431.000000	64.947319 
1430.000000	64.939856 
1429.000000	64.934563 
1428.000000	64.932298 
1427.000000	64.933609 
1426.000000	64.938592 
1425.000000	64.946699 
1424.000000	64.956831 
1423.000000	64.967489 
1422.000000	64.976954 
1421.000000	64.983725 
1420.000000	64.986634 
1419.000000	64.985203 
1418.000000	64.979577 
1417.000000	64.970588 
1416.000000	64.959454 
1415.000000	64.947676 
1414.000000	64.936685 
1413.000000	64.927649 
1412.000000	64.921426 
1411.000000	64.918303 
1410.000000	64.918160 
1409.000000	64.920401 
1408.000000	64.924144 
1407.000000	64.928340 
1406.000000	64.931988 
1405.000000	64.934325 
1404.000000	64.935088 
1403.000000	64.934444 
1402.000000	64.933085 
1401.000000	64.931893 
1400.000000	64.931631 
1399.000000	64.932727 
1398.000000	64.935255 
1397.000000	64.939069 
1396.000000	64.943671 
1395.000000	64.948749 
1394.000000	64.954137 
1393.000000	64.959907 
1392.000000	64.966106 
1391.000000	64.972615 
1390.000000	64.979171 
1389.000000	64.985322 
1388.000000	64.990472 
1387.000000	64.994001 
1386.000000	64.995574 
1385.000000	64.995241 
1384.000000	64.993190 
1383.000000	64.989972 
1382.000000	64.985990 
1381.000000	64.981579 
1380.000000	64.976572 
1379.000000	64.970612 
1378.000000	64.963316 
1377.000000	64.954543 
1376.000000	64.944648 
1375.000000	64.934587 
1374.000000	64.925813 
1373.000000	64.919900 
1372.000000	64.918208 
1371.000000	64.921236 
1370.000000	64.928603 
1369.000000	64.939045 
1368.000000	64.950680 
1367.000000	64.961481 
1366.000000	64.969635 
1365.000000	64.974164 
1364.000000	64.974880 
1363.000000	64.972567 
1362.000000	64.968562 
1361.000000	64.964461 
1360.000000	64.961624 
1359.000000	64.960813 
1358.000000	64.962029 
1357.000000	64.964556 
1356.000000	64.967274 
1355.000000	64.968776 
1354.000000	64.968085 
1353.000000	64.964675 
1352.000000	64.958548 
1351.000000	64.950227 
1350.000000	64.940476 
1349.000000	64.930129 
1348.000000	64.919662 
1347.000000	64.909577 
1346.000000	64.900183 
1345.000000	64.892101 
1344.000000	64.886021 
1343.000000	64.883041 
1342.000000	64.884281 
1341.000000	64.890646 
1340.000000	64.902496 
1339.000000	64.919137 
1338.000000	64.938712 
1337.000000	64.958477 
1336.000000	64.975214 
1335.000000	64.986038 
1334.000000	64.988994 
1333.000000	64.983534 
1332.000000	64.970779 
1331.000000	64.953136 
1330.000000	64.933729 
1329.000000	64.915728 
1328.000000	64.901494 
1327.000000	64.892172 
1326.000000	64.887452 
1325.000000	64.885902 
1324.000000	64.885449 
1323.000000	64.884114 
1322.000000	64.880108 
1321.000000	64.872670 
1320.000000	64.861774 
1319.000000	64.848303 
1318.000000	64.833807 
1317.000000	64.819717 
1316.000000	64.807820 
1315.000000	64.799761 
1314.000000	64.797210 
1313.000000	64.801454 
1312.000000	64.813160 
1311.000000	64.832234 
1310.000000	64.857435 
1309.000000	64.886450 
1308.000000	64.916157 
1307.000000	64.943099 
1306.000000	64.964103 
1305.000000	64.976954 
1304.000000	64.980959 
1303.000000	64.977121 
1302.000000	64.967799 
1301.000000	64.956331 
1300.000000	64.946079 
1299.000000	64.939665 
1298.000000	64.938616 
1297.000000	64.942598 
1296.000000	64.949727 
1295.000000	64.956998 
1294.000000	64.961266 
1293.000000	64.959716 
1292.000000	64.950704 
1291.000000	64.934110 
1290.000000	64.911389 
1289.000000	64.885067 
1288.000000	64.858222 
1287.000000	64.833950 
1286.000000	64.814472 
1285.000000	64.800953 
1284.000000	64.793372 
1283.000000	64.790654 
1282.000000	64.791154 
1281.000000	64.793181 
1280.000000	64.795589 
1279.000000	64.797782 
1278.000000	64.800000 
1277.000000	64.803147 
1276.000000	64.808559 
1275.000000	64.817285 
1274.000000	64.829921 
1273.000000	64.846277 
1272.000000	64.865374 
1271.000000	64.885640 
1270.000000	64.905142 
1269.000000	64.922142 
1268.000000	64.935278 
1267.000000	64.944195 
1266.000000	64.949202 
1265.000000	64.951252 
1264.000000	64.951491 
1263.000000	64.951157 
1262.000000	64.950847 
1261.000000	64.950585 
1260.000000	64.949607 
1259.000000	64.946866 
1258.000000	64.941072 
1257.000000	64.931178 
1256.000000	64.916849 
1255.000000	64.898610 
1254.000000	64.877700 
1253.000000	64.856028 
1252.000000	64.835548 
1251.000000	64.818239 
1250.000000	64.805412 
1249.000000	64.797616 
1248.000000	64.794468 
1247.000000	64.795088 
1246.000000	64.797973 
1245.000000	64.801788 
1244.000000	64.805150 
1243.000000	64.807510 
1242.000000	64.808797 
1241.000000	64.809799 
1240.000000	64.811348 
1239.000000	64.814686 
1238.000000	64.820814 
1237.000000	64.830350 
1236.000000	64.843177 
1235.000000	64.858651 
1234.000000	64.875745 
1233.000000	64.893293 
1232.000000	64.910149 
1231.000000	64.925217 
1230.000000	64.937758 
1229.000000	64.947462 
1228.000000	64.954113 
1227.000000	64.957928 
1226.000000	64.959168 
1225.000000	64.958214 
1224.000000	64.955472 
1223.000000	64.951419 
1222.000000	64.946389 
1221.000000	64.940738 
1220.000000	64.934611 
1219.000000	64.927983 
1218.000000	64.920544 
1217.000000	64.911961 
1216.000000	64.901828 
1215.000000	64.889836 
1214.000000	64.875960 
1213.000000	64.860296 
1212.000000	64.843249 
1211.000000	64.825487 
1210.000000	64.807868 
1209.000000	64.791131 
1208.000000	64.776325 
1207.000000	64.764451 
1206.000000	64.756584 
1205.000000	64.753341 
1204.000000	64.754986 
1203.000000	64.761185 
1202.000000	64.770793 
1201.000000	64.782023 
1200.000000	64.792561 
1199.000000	64.800167 
1198.000000	64.802908 
1197.000000	64.799785 
1196.000000	64.791107 
1195.000000	64.778423 
1194.000000	64.764356 
1193.000000	64.751791 
1192.000000	64.743542 
1191.000000	64.741373 
1190.000000	64.745950 
1189.000000	64.756560 
1188.000000	64.771294 
1187.000000	64.787554 
1186.000000	64.802742 
1185.000000	64.814376 
1184.000000	64.820551 
1183.000000	64.820098 
1182.000000	64.812636 
1181.000000	64.798688 
1180.000000	64.779543 
1179.000000	64.757156 
1178.000000	64.734125 
1177.000000	64.713215 
1176.000000	64.697003 
1175.000000	64.687490 
1174.000000	64.685773 
1173.000000	64.691472 
1172.000000	64.702868 
1171.000000	64.717102 
1170.000000	64.730834 
1169.000000	64.740896 
1168.000000	64.745283 
1167.000000	64.743399 
1166.000000	64.736342 
1165.000000	64.726471 
1164.000000	64.716935 
1163.000000	64.710807 
1162.000000	64.710474 
1161.000000	64.717173 
1160.000000	64.730572 
1159.000000	64.749288 
1158.000000	64.770627 
1157.000000	64.791083 
1156.000000	64.807224 
1155.000000	64.816021 
1154.000000	64.815878 
1153.000000	64.806842 
1152.000000	64.790892 
1151.000000	64.771437 
1150.000000	64.752745 
1149.000000	64.738821 
1148.000000	64.732623 
1147.000000	64.735245 
1146.000000	64.745616 
1145.000000	64.760899 
1144.000000	64.777088 
1143.000000	64.790105 
1142.000000	64.796996 
1141.000000	64.796495 
1140.000000	64.789390 
1139.000000	64.778113 
1138.000000	64.765810 
1137.000000	64.755988 
1136.000000	64.750862 
1135.000000	64.751648 
1134.000000	64.758205 
1133.000000	64.769482 
1132.000000	64.784288 
1131.000000	64.801430 
1130.000000	64.819908 
1129.000000	64.839053 
1128.000000	64.858317 
1127.000000	64.877009 
1126.000000	64.894270 
1125.000000	64.908814 
1124.000000	64.919281 
1123.000000	64.924216 
1122.000000	64.922499 
1121.000000	64.913463 
1120.000000	64.897298 
1119.000000	64.874935 
1118.000000	64.848017 
1117.000000	64.818453 
1116.000000	64.788293 
1115.000000	64.759206 
1114.000000	64.732336 
1113.000000	64.708232 
1112.000000	64.687180 
1111.000000	64.669513 
1110.000000	64.656066 
1109.000000	64.647769 
1108.000000	64.645886 
1107.000000	64.651393 
1106.000000	64.664745 
1105.000000	64.685297 
1104.000000	64.711427 
1103.000000	64.740467 
1102.000000	64.769339 
1101.000000	64.794945 
1100.000000	64.814758 
1099.000000	64.827513 
1098.000000	64.833045 
1097.000000	64.832305 
1096.000000	64.826631 
1095.000000	64.817357 
1094.000000	64.805269 
1093.000000	64.790678 
1092.000000	64.773297 
1091.000000	64.752650 
1090.000000	64.728713 
1089.000000	64.702033 
1088.000000	64.673638 
1087.000000	64.645171 
1086.000000	64.618611 
1085.000000	64.595890 
1084.000000	64.578938 
1083.000000	64.569139 
1082.000000	64.567255 
1081.000000	64.573192 
1080.000000	64.585733 
1079.000000	64.602708 
1078.000000	64.620876 
1077.000000	64.637112 
1076.000000	64.648652 
1075.000000	64.654088 
1074.000000	64.653396 
1073.000000	64.648127 
1072.000000	64.640998 
1071.000000	64.635157 
1070.000000	64.633464 
1069.000000	64.637589 
1068.000000	64.647841 
1067.000000	64.663076 
1066.000000	64.681005 
1065.000000	64.698910 
1064.000000	64.714312 
1063.000000	64.725494 
1062.000000	64.731812 
1061.000000	64.733505 
1060.000000	64.731478 
1059.000000	64.726805 
1058.000000	64.720320 
1057.000000	64.712691 
1056.000000	64.703941 
1055.000000	64.694285 
1054.000000	64.683485 
1053.000000	64.671039 
1052.000000	64.656448 
1051.000000	64.639234 
1050.000000	64.619445 
1049.000000	64.597463 
1048.000000	64.574575 
1047.000000	64.552736 
1046.000000	64.534616 
1045.000000	64.523124 
1044.000000	64.520859 
1043.000000	64.529323 
1042.000000	64.548802 
1041.000000	64.577984 
1040.000000	64.613842 
1039.000000	64.652085 
1038.000000	64.687728 
1037.000000	64.716029 
1036.000000	64.733123 
1035.000000	64.736795 
1034.000000	64.726877 
1033.000000	64.705443 
1032.000000	64.676094 
1031.000000	64.643764 
1030.000000	64.613866 
1029.000000	64.591288 
1028.000000	64.580011 
1027.000000	64.582180 
1026.000000	64.598274 
1025.000000	64.626884 
1024.000000	64.665079 
1023.000000	64.708948 
1022.000000	64.754486 
1021.000000	64.797711 
1020.000000	64.835238 
1019.000000	64.864492 
1018.000000	64.883661 
1017.000000	64.891934 
1016.000000	64.889407 
1015.000000	64.876818 
1014.000000	64.855504 
1013.000000	64.827537 
1012.000000	64.795613 
1011.000000	64.762377 
1010.000000	64.730238 
1009.000000	64.701032 
1008.000000	64.675951 
1007.000000	64.655709 
1006.000000	64.640569 
1005.000000	64.630341 
1004.000000	64.624476 
1003.000000	64.622378 
1002.000000	64.622974 
1001.000000	64.624762 
1000.000000	64.625740 
999.000000	 64.623737 
998.000000	 64.616465 
997.000000	 64.601564 
996.000000	 64.577817 
995.000000	 64.545321 
994.000000	 64.506053 
993.000000	 64.463305 
992.000000	 64.422369 
991.000000	 64.389252 
990.000000	 64.370226 
989.000000	 64.370298 
988.000000	 64.392709 
987.000000	 64.438009 
986.000000	 64.503669 
985.000000	 64.584398 
984.000000	 64.672517 
983.000000	 64.759278 
982.000000	 64.836144 
981.000000	 64.896106 
980.000000	 64.934778 
979.000000	 64.950680 
978.000000	 64.945912 
977.000000	 64.924550 
976.000000	 64.891862 
975.000000	 64.852070 
974.000000	 64.808511 
973.000000	 64.762115 
972.000000	 64.712166 
971.000000	 64.656805 
970.000000	 64.594864 
969.000000	 64.526534 
968.000000	 64.454102 
967.000000	 64.382290 
966.000000	 64.317226 
965.000000	 64.265799 
964.000000	 64.233922 
963.000000	 64.225172 
962.000000	 64.239573 
961.000000	 64.273238 
960.000000	 64.319133 
959.000000	 64.368605 
958.000000	 64.413070 
957.000000	 64.446258 
956.000000	 64.465451 
955.000000	 64.471554 
954.000000	 64.468479 
953.000000	 64.461517 
952.000000	 64.455604 
951.000000	 64.453601 
950.000000	 64.455771 
949.000000	 64.460372 
948.000000	 64.464759 
947.000000	 64.467191 
946.000000	 64.467763 
945.000000	 64.469027 
944.000000	 64.475035 
943.000000	 64.490461 
942.000000	 64.517927 
941.000000	 64.556407 
940.000000	 64.600825 
939.000000	 64.642620 
938.000000	 64.672088 
937.000000	 64.681124 
936.000000	 64.665746 
935.000000	 64.627623 
934.000000	 64.573526 
933.000000	 64.513778 
932.000000	 64.459109 
931.000000	 64.418005 
930.000000	 64.395165 
929.000000	 64.390850 
928.000000	 64.401102 
927.000000	 64.419484 
926.000000	 64.439344 
925.000000	 64.455795 
924.000000	 64.466309 
923.000000	 64.471721 
922.000000	 64.475226 
921.000000	 64.481306 
920.000000	 64.493823 
919.000000	 64.514374 
918.000000	 64.541840 
917.000000	 64.572024 
916.000000	 64.599275 
915.000000	 64.617300 
914.000000	 64.621090 
913.000000	 64.607882 
912.000000	 64.578747 
911.000000	 64.536952 
910.000000	 64.487624 
909.000000	 64.435672 
908.000000	 64.385056 
907.000000	 64.336585 
906.000000	 64.288139 
905.000000	 64.235305 
904.000000	 64.173269 
903.000000	 64.099240 
902.000000	 64.014196 
901.000000	 63.923430 
900.000000	 63.836002 
899.000000	 63.762092 
898.000000	 63.711071 
897.000000	 63.688135 
896.000000	 63.693809 
895.000000	 63.723611 
894.000000	 63.769984 
893.000000	 63.823604 
892.000000	 63.876390 
891.000000	 63.922667 
890.000000	 63.961029 
889.000000	 63.992810 
888.000000	 64.022898 
887.000000	 64.056634 
886.000000	 64.099621 
885.000000	 64.155483 
884.000000	 64.225411 
883.000000	 64.307856 
882.000000	 64.398431 
881.000000	 64.491319 
880.000000	 64.579010 
879.000000	 64.653658 
878.000000	 64.708137 
877.000000	 64.737224 
876.000000	 64.738321 
875.000000	 64.711880 
874.000000	 64.662289 
873.000000	 64.596581 
872.000000	 64.522981 
871.000000	 64.449477 
870.000000	 64.382672 
869.000000	 64.327120 
868.000000	 64.284944 
867.000000	 64.256310 
866.000000	 64.240288 
865.000000	 64.235568 
864.000000	 64.240503 
863.000000	 64.254140 
862.000000	 64.274907 
861.000000	 64.301609 
860.000000	 64.332842 
859.000000	 64.367103 
858.000000	 64.402127 
857.000000	 64.435744 
856.000000	 64.465761 
855.000000	 64.490079 
854.000000	 64.506864 
853.000000	 64.514851 
852.000000	 64.513659 
851.000000	 64.503741 
850.000000	 64.486217 
849.000000	 64.463973 
848.000000	 64.441108 
847.000000	 64.422297 
846.000000	 64.411473 
845.000000	 64.411306 
844.000000	 64.422059 
843.000000	 64.441132 
842.000000	 64.463663 
841.000000	 64.483284 
840.000000	 64.493989 
839.000000	 64.491868 
838.000000	 64.476084 
837.000000	 64.449048 
836.000000	 64.416122 
835.000000	 64.384293 
834.000000	 64.360451 
833.000000	 64.349794 
832.000000	 64.354348 
831.000000	 64.372873 
830.000000	 64.400839 
829.000000	 64.431810 
828.000000	 64.458298 
827.000000	 64.473628 
826.000000	 64.472627 
825.000000	 64.452743 
824.000000	 64.413595 
823.000000	 64.356946 
822.000000	 64.286470 
821.000000	 64.207196 
820.000000	 64.124798 
819.000000	 64.045262 
818.000000	 63.974213 
817.000000	 63.916468 
816.000000	 63.875460 
815.000000	 63.853025 
814.000000	 63.848638 
813.000000	 63.859939 
812.000000	 63.882613 
811.000000	 63.911962 
810.000000	 63.942933 
809.000000	 63.971662 
808.000000	 63.995432 
807.000000	 64.013242 
806.000000	 64.025330 
805.000000	 64.032721 
804.000000	 64.036536 
803.000000	 64.037489 
802.000000	 64.035749 
801.000000	 64.030885 
800.000000	 64.022254 
799.000000	 64.008998 
798.000000	 63.990759 
797.000000	 63.967394 
796.000000	 63.939571 
795.000000	 63.908505 
794.000000	 63.876104 
793.000000	 63.844680 
792.000000	 63.816881 
791.000000	 63.794827 
790.000000	 63.780140 
789.000000	 63.773918 
788.000000	 63.776636 
787.000000	 63.787913 
786.000000	 63.806676 
785.000000	 63.831567 
784.000000	 63.860559 
783.000000	 63.891172 
782.000000	 63.920545 
781.000000	 63.945579 
780.000000	 63.963222 
779.000000	 63.971233 
778.000000	 63.967847 
777.000000	 63.952469 
776.000000	 63.925433 
775.000000	 63.888239 
774.000000	 63.843131 
773.000000	 63.792920 
772.000000	 63.740849 
771.000000	 63.690519 
770.000000	 63.645458 
769.000000	 63.608932 
768.000000	 63.583683 
767.000000	 63.571500 
766.000000	 63.573074 
765.000000	 63.587617 
764.000000	 63.613033 
763.000000	 63.645935 
762.000000	 63.682174 
761.000000	 63.717365 
760.000000	 63.747215 
759.000000	 63.768315 
758.000000	 63.778567 
757.000000	 63.777351 
756.000000	 63.765263 
755.000000	 63.743948 
754.000000	 63.715958 
753.000000	 63.683938 
752.000000	 63.650631 
751.000000	 63.617825 
750.000000	 63.587021 
749.000000	 63.558411 
748.000000	 63.531565 
747.000000	 63.505315 
746.000000	 63.478469 
745.000000	 63.450455 
744.000000	 63.421607 
743.000000	 63.393616 
742.000000	 63.369011 
741.000000	 63.350844 
740.000000	 63.341832 
739.000000	 63.343763 
738.000000	 63.356709 
737.000000	 63.379073 
736.000000	 63.407707 
735.000000	 63.438582 
734.000000	 63.467574 
733.000000	 63.491749 
732.000000	 63.509678 
731.000000	 63.521194 
730.000000	 63.527464 
729.000000	 63.530325 
728.000000	 63.532042 
727.000000	 63.534021 
726.000000	 63.537216 
725.000000	 63.542413 
724.000000	 63.549947 
723.000000	 63.560461 
722.000000	 63.573646 
721.000000	 63.588619 
720.000000	 63.603353 
719.000000	 63.615131 
718.000000	 63.620662 
717.000000	 63.616824 
716.000000	 63.601636 
715.000000	 63.574862 
714.000000	 63.538098 
713.000000	 63.494706 
712.000000	 63.449072 
711.000000	 63.405203 
710.000000	 63.365817 
709.000000	 63.331317 
708.000000	 63.300013 
707.000000	 63.268637 
706.000000	 63.233327 
705.000000	 63.190865 
704.000000	 63.139939 
703.000000	 63.081455 
702.000000	 63.018321 
701.000000	 62.955451 
700.000000	 62.897706 
699.000000	 62.850379 
698.000000	 62.817668 
697.000000	 62.802720 
696.000000	 62.806844 
695.000000	 62.828993 
694.000000	 62.865757 
693.000000	 62.911391 
692.000000	 62.958407 
691.000000	 62.998962 
690.000000	 63.026118 
689.000000	 63.035106 
688.000000	 63.024306 
687.000000	 62.995815 
686.000000	 62.954878 
685.000000	 62.908792 
684.000000	 62.865424 
683.000000	 62.831568 
682.000000	 62.811613 
681.000000	 62.806868 
680.000000	 62.815594 
679.000000	 62.833881 
678.000000	 62.856602 
677.000000	 62.878870 
676.000000	 62.896990 
675.000000	 62.908744 
674.000000	 62.913870 
673.000000	 62.913131 
672.000000	 62.908530 
671.000000	 62.902474 
670.000000	 62.897467 
669.000000	 62.895917 
668.000000	 62.898969 
667.000000	 62.906241 
666.000000	 62.915825 
665.000000	 62.924933 
664.000000	 62.930202 
663.000000	 62.928676 
662.000000	 62.918210 
661.000000	 62.898182 
660.000000	 62.869429 
659.000000	 62.834119 
658.000000	 62.794923 
657.000000	 62.754464 
656.000000	 62.715411 
655.000000	 62.679576 
654.000000	 62.648224 
653.000000	 62.621569 
652.000000	 62.599110 
651.000000	 62.579393 
650.000000	 62.560558 
649.000000	 62.540698 
648.000000	 62.517905 
647.000000	 62.491393 
646.000000	 62.460923 
645.000000	 62.428307 
644.000000	 62.396740 
643.000000	 62.370848 
642.000000	 62.355399 
641.000000	 62.354326 
640.000000	 62.369513 
639.000000	 62.400054 
638.000000	 62.442064 
637.000000	 62.489247 
636.000000	 62.533903 
635.000000	 62.568640 
634.000000	 62.587952 
633.000000	 62.588858 
632.000000	 62.571406 
631.000000	 62.538433 
630.000000	 62.494587 
629.000000	 62.445330 
628.000000	 62.395620 
627.000000	 62.349510 
626.000000	 62.309455 
625.000000	 62.276840 
624.000000	 62.251710 
623.000000	 62.233877 
622.000000	 62.222456 
621.000000	 62.215828 
620.000000	 62.212133 
619.000000	 62.208771 
618.000000	 62.203907 
617.000000	 62.195944 
616.000000	 62.185001 
615.000000	 62.172317 
614.000000	 62.160921 
613.000000	 62.154388 
612.000000	 62.156367 
611.000000	 62.169194 
610.000000	 62.193918 
609.000000	 62.229895 
608.000000	 62.274837 
607.000000	 62.325143 
606.000000	 62.376356 
605.000000	 62.423849 
604.000000	 62.462997 
603.000000	 62.489914 
602.000000	 62.501716 
601.000000	 62.496876 
600.000000	 62.475395 
599.000000	 62.439084 
598.000000	 62.391209 
597.000000	 62.336635 
596.000000	 62.281394 
595.000000	 62.231755 
594.000000	 62.193822 
593.000000	 62.171721 
592.000000	 62.167501 
591.000000	 62.179565 
590.000000	 62.203407 
589.000000	 62.231683 
588.000000	 62.255477 
587.000000	 62.266445 
586.000000	 62.258577 
585.000000	 62.229657 
584.000000	 62.181401 
583.000000	 62.119555 
582.000000	 62.052559 
581.000000	 61.989641 
580.000000	 61.938738 
579.000000	 61.905241 
578.000000	 61.891150 
577.000000	 61.895012 
576.000000	 61.912512 
575.000000	 61.938238 
574.000000	 61.966705 
573.000000	 61.993241 
572.000000	 62.014460 
571.000000	 62.028121 
570.000000	 62.032914 
569.000000	 62.028002 
568.000000	 62.012767 
567.000000	 61.986827 
566.000000	 61.950278 
565.000000	 61.904501 
564.000000	 61.851644 
563.000000	 61.794972 
562.000000	 61.738061 
561.000000	 61.684536 
560.000000	 61.637163 
559.000000	 61.597585 
558.000000	 61.565852 
557.000000	 61.540985 
556.000000	 61.521196 
555.000000	 61.504578 
554.000000	 61.489367 
553.000000	 61.474156 
552.000000	 61.458110 
551.000000	 61.441254 
550.000000	 61.423635 
549.000000	 61.405611 
548.000000	 61.388540 
547.000000	 61.375021 
546.000000	 61.367988 
545.000000	 61.370515 
544.000000	 61.385655 
543.000000	 61.414670 
542.000000	 61.456418 
541.000000	 61.506724 
540.000000	 61.559224 
539.000000	 61.606049 
538.000000	 61.638879 
537.000000	 61.651325 
536.000000	 61.639952 
535.000000	 61.605739 
534.000000	 61.554050 
533.000000	 61.493492 
532.000000	 61.433792 
531.000000	 61.383819 
530.000000	 61.350393 
529.000000	 61.334919 
528.000000	 61.333417 
527.000000	 61.336874 
526.000000	 61.333513 
525.000000	 61.310648 
524.000000	 61.257958 
523.000000	 61.169457 
522.000000	 61.045336 
521.000000	 60.891675 
520.000000	 60.719442 
519.000000	 60.542321 
518.000000	 60.374236 
517.000000	 60.226917 
516.000000	 60.107636 
515.000000	 60.018873 
514.000000	 59.958171 
513.000000	 59.918236 
512.000000	 59.891176 
511.000000	 59.867525 
510.000000	 59.843039 
509.000000	 59.818172 
508.000000	 59.799885 
507.000000	 59.798049 
506.000000	 59.823441 
505.000000	 59.882760 
504.000000	 59.976291 
503.000000	 60.095977 
502.000000	 60.227465 
501.000000	 60.352754 
500.000000	 60.454440 
499.000000	 60.519814 
498.000000	 60.541892 
497.000000	 60.521030 
496.000000	 60.463523 
495.000000	 60.380315 
494.000000	 60.285592 
493.000000	 60.194063 
492.000000	 60.120224 
491.000000	 60.074710 
490.000000	 60.063147 
489.000000	 60.083818 
488.000000	 60.130023 
487.000000	 60.189533 
486.000000	 60.247039 
485.000000	 60.287404 
484.000000	 60.298800 
483.000000	 60.275363 
482.000000	 60.217308 
481.000000	 60.132026 
480.000000	 60.031318 
479.000000	 59.930229 
478.000000	 59.844136 
477.000000	 59.784936 
476.000000	 59.759473 
475.000000	 59.766292 
474.000000	 59.796738 
473.000000	 59.835767 
472.000000	 59.865808 
471.000000	 59.871935 
470.000000	 59.845685 
469.000000	 59.785699 
468.000000	 59.698462 
467.000000	 59.596776 
466.000000	 59.497165 
465.000000	 59.413743 
464.000000	 59.357094 
463.000000	 59.334278 
462.000000	 59.346795 
461.000000	 59.392666 
460.000000	 59.464740 
459.000000	 59.552741 
458.000000	 59.643435 
457.000000	 59.722161 
456.000000	 59.775900 
455.000000	 59.793376 
454.000000	 59.769964 
453.000000	 59.708738 
452.000000	 59.620118 
451.000000	 59.519147 
450.000000	 59.423375 
449.000000	 59.350275 
448.000000	 59.309530 
447.000000	 59.300589 
446.000000	 59.312844 
445.000000	 59.328079 
444.000000	 59.323835 
443.000000	 59.278559 
442.000000	 59.176182 
441.000000	 59.009313 
440.000000	 58.780145 
439.000000	 58.499932 
438.000000	 58.184957 
437.000000	 57.855272 
436.000000	 57.530164 
435.000000	 57.228875 
434.000000	 56.966900 
433.000000	 56.759381 
432.000000	 56.618881 
431.000000	 56.557607 
430.000000	 56.581258 
429.000000	 56.693673 
428.000000	 56.888508 
427.000000	 57.157850 
426.000000	 57.488679 
425.000000	 57.868003 
424.000000	 58.278822 
423.000000	 58.706617 
422.000000	 59.139370 
421.000000	 59.562802 
420.000000	 59.959006 
419.000000	 60.304069 
418.000000	 60.570025 
417.000000	 60.728049 
416.000000	 60.755419 
415.000000	 60.643458 
414.000000	 60.402226 
413.000000	 60.066103 
412.000000	 59.684801 
411.000000	 59.321880 
410.000000	 59.032964 
409.000000	 58.847379 
408.000000	 58.762836 
407.000000	 58.751511 
406.000000	 58.771061 
405.000000	 58.761858 
404.000000	 58.689928 
403.000000	 58.558869 
402.000000	 58.420515 
401.000000	 58.352446 
400.000000	 58.451747 
399.000000	 58.804559 
398.000000	 59.457683 
397.000000	 60.398793 
396.000000	 61.547827 
395.000000	 62.768197 
394.000000	 63.897061 
393.000000	 64.785027 
392.000000	 65.313220 
391.000000	 65.418815 
390.000000	 65.111589 
389.000000	 64.471769 
388.000000	 63.621020 
387.000000	 62.704896 
386.000000	 61.862444 
385.000000	 61.222028 
384.000000	 60.869622 
383.000000	 60.872912 
382.000000	 61.305880 
381.000000	 62.242293 
380.000000	 63.706493 
379.000000	 65.695405 
378.000000	 68.171167 
377.000000	 71.048951 
376.000000	 74.181365 
375.000000	 77.373981 
374.000000	 80.416536 
373.000000	 83.086824 
372.000000	 85.184359 
371.000000	 86.553955 
370.000000	 87.139797 

