PE IR       SPECTRUM    SPECTRUM    ASCII       PEDS        1.60        
  -1
C-9A6F~1.ASC
17/05/02
12:50:44.00
17/05/02
12:50:44.00
tln
$C-4040-8_t0024$<tbV0>[-12.5,2.0,8.0,0.0,22,1,0]
370.000000
64









2002,4.07    
MIRTGS : RIGHTBACK : INTERNAL 2
MIR : ON : INTERNAL 2
OPTKBR

0.200000
8
8.000000
FILLER
RATIO
SPECTRUM
UNLOCKED 256

DOUBLE
64
COMBINED
1
0
0


1.000000
RATIO


1
0
TRUE
51149
0
LEFT NOT FITTED RIGHT NOT FITTED 0
NONE
NONE
15600
12.000000
4.427000
51148
TRUE
1 0 8 72 0 0 0 0 

15798.010000






#HDR
-1
-1
#GR
CM-1
%T
0.00002384185791015625
0.0
7800.000000
-1.000000
7431
8
85.814619
43.503069
#DATA
7800.000000	61.517667 
7799.000000	61.397457 
7798.000000	61.335635 
7797.000000	61.311793 
7796.000000	61.320734 
7795.000000	61.361408 
7794.000000	61.426901 
7793.000000	61.496424 
7792.000000	61.564111 
7791.000000	61.643552 
7790.000000	61.784720 
7789.000000	62.060809 
7788.000000	62.554740 
7787.000000	63.320636 
7786.000000	64.366960 
7785.000000	65.623092 
7784.000000	66.939854 
7783.000000	68.105459 
7782.000000	68.894314 
7781.000000	69.114899 
7780.000000	68.660664 
7779.000000	67.541241 
7778.000000	65.895628 
7777.000000	63.958430 
7776.000000	62.007570 
7775.000000	60.309839 
7774.000000	59.069442 
7773.000000	58.390045 
7772.000000	58.265995 
7771.000000	58.601140 
7770.000000	59.251832 
7769.000000	60.054135 
7768.000000	60.862588 
7767.000000	61.578440 
7766.000000	62.158441 
7765.000000	62.632989 
7764.000000	63.081741 
7763.000000	63.616561 
7762.000000	64.333462 
7761.000000	65.278482 
7760.000000	66.414713 
7759.000000	67.629647 
7758.000000	68.744254 
7757.000000	69.566249 
7756.000000	69.922924 
7755.000000	69.719219 
7754.000000	68.949580 
7753.000000	67.697906 
7752.000000	66.127848 
7751.000000	64.438629 
7750.000000	62.846159 
7749.000000	61.544871 
7748.000000	60.681605 
7747.000000	60.345745 
7746.000000	60.547757 
7745.000000	61.227130 
7744.000000	62.262368 
7743.000000	63.497233 
7742.000000	64.760255 
7741.000000	65.888023 
7740.000000	66.760015 
7739.000000	67.310810 
7738.000000	67.552542 
7737.000000	67.561721 
7736.000000	67.460179 
7735.000000	67.377972 
7734.000000	67.423582 
7733.000000	67.655062 
7732.000000	68.063092 
7731.000000	68.582558 
7730.000000	69.132614 
7729.000000	69.634819 
7728.000000	70.045518 
7727.000000	70.356512 
7726.000000	70.596289 
7725.000000	70.808887 
7724.000000	71.020627 
7723.000000	71.242809 
7722.000000	71.460747 
7721.000000	71.650099 
7720.000000	71.793627 
7719.000000	71.887922 
7718.000000	71.952700 
7717.000000	72.025275 
7716.000000	72.156143 
7715.000000	72.381234 
7714.000000	72.707653 
7713.000000	73.109412 
7712.000000	73.530364 
7711.000000	73.897910 
7710.000000	74.137759 
7709.000000	74.197769 
7708.000000	74.051809 
7707.000000	73.699402 
7706.000000	73.155331 
7705.000000	72.438859 
7704.000000	71.566963 
7703.000000	70.553135 
7702.000000	69.414019 
7701.000000	68.181109 
7700.000000	66.905283 
7699.000000	65.663957 
7698.000000	64.547085 
7697.000000	63.637304 
7696.000000	62.999320 
7695.000000	62.659788 
7694.000000	62.608122 
7693.000000	62.783527 
7692.000000	63.110637 
7691.000000	63.503026 
7690.000000	63.906764 
7689.000000	64.298462 
7688.000000	64.711284 
7687.000000	65.214061 
7686.000000	65.894150 
7685.000000	66.820669 
7684.000000	68.021488 
7683.000000	69.463300 
7682.000000	71.051287 
7681.000000	72.642874 
7680.000000	74.088644 
7679.000000	75.255680 
7678.000000	76.063513 
7677.000000	76.483798 
7676.000000	76.544237 
7675.000000	76.303505 
7674.000000	75.835990 
7673.000000	75.209259 
7672.000000	74.475002 
7671.000000	73.669815 
7670.000000	72.841429 
7669.000000	72.039484 
7668.000000	71.322131 
7667.000000	70.754241 
7666.000000	70.406079 
7665.000000	70.330500 
7664.000000	70.546221 
7663.000000	71.028637 
7662.000000	71.706199 
7661.000000	72.470712 
7660.000000	73.195123 
7659.000000	73.755455 
7658.000000	74.051952 
7657.000000	74.032425 
7656.000000	73.697376 
7655.000000	73.087906 
7654.000000	72.269678 
7653.000000	71.320843 
7652.000000	70.312976 
7651.000000	69.292163 
7650.000000	68.285751 
7649.000000	67.311143 
7648.000000	66.397857 
7647.000000	65.582752 
7646.000000	64.936709 
7645.000000	64.553213 
7644.000000	64.538717 
7643.000000	64.976620 
7642.000000	65.904235 
7641.000000	67.277908 
7640.000000	68.978428 
7639.000000	70.818042 
7638.000000	72.579169 
7637.000000	74.051189 
7636.000000	75.078988 
7635.000000	75.595569 
7634.000000	75.618195 
7633.000000	75.235986 
7632.000000	74.574947 
7631.000000	73.762965 
7630.000000	72.896122 
7629.000000	72.022390 
7628.000000	71.142792 
7627.000000	70.227479 
7626.000000	69.247841 
7625.000000	68.198251 
7624.000000	67.111563 
7623.000000	66.060352 
7622.000000	65.132999 
7621.000000	64.422893 
7620.000000	63.987040 
7619.000000	63.851094 
7618.000000	63.989019 
7617.000000	64.349317 
7616.000000	64.859914 
7615.000000	65.456581 
7614.000000	66.086101 
7613.000000	66.722798 
7612.000000	67.352986 
7611.000000	67.982196 
7610.000000	68.620371 
7609.000000	69.268035 
7608.000000	69.906926 
7607.000000	70.494246 
7606.000000	70.971298 
7605.000000	71.265053 
7604.000000	71.307826 
7603.000000	71.054816 
7602.000000	70.499062 
7601.000000	69.681859 
7600.000000	68.686628 
7599.000000	67.616844 
7598.000000	66.577434 
7597.000000	65.659356 
7596.000000	64.924120 
7595.000000	64.396309 
7594.000000	64.066982 
7593.000000	63.907194 
7592.000000	63.877105 
7591.000000	63.932371 
7590.000000	64.036989 
7589.000000	64.163303 
7588.000000	64.293622 
7587.000000	64.408540 
7586.000000	64.490318 
7585.000000	64.515471 
7584.000000	64.461565 
7583.000000	64.309382 
7582.000000	64.051294 
7581.000000	63.693022 
7580.000000	63.265442 
7579.000000	62.822818 
7578.000000	62.434864 
7577.000000	62.172126 
7576.000000	62.098479 
7575.000000	62.254595 
7574.000000	62.644267 
7573.000000	63.228917 
7572.000000	63.929915 
7571.000000	64.643239 
7570.000000	65.258169 
7569.000000	65.684366 
7568.000000	65.861582 
7567.000000	65.783572 
7566.000000	65.498399 
7565.000000	65.101575 
7564.000000	64.709210 
7563.000000	64.434432 
7562.000000	64.368605 
7561.000000	64.552593 
7560.000000	64.972496 
7559.000000	65.560102 
7558.000000	66.217947 
7557.000000	66.835165 
7556.000000	67.319583 
7555.000000	67.606544 
7554.000000	67.672777 
7553.000000	67.523765 
7552.000000	67.185759 
7551.000000	66.690206 
7550.000000	66.065597 
7549.000000	65.341758 
7548.000000	64.553737 
7547.000000	63.752388 
7546.000000	63.005995 
7545.000000	62.395644 
7544.000000	62.003803 
7543.000000	61.894559 
7542.000000	62.100672 
7541.000000	62.605977 
7540.000000	63.352584 
7539.000000	64.239454 
7538.000000	65.154647 
7537.000000	65.994548 
7536.000000	66.689133 
7535.000000	67.208266 
7534.000000	67.564249 
7533.000000	67.799425 
7532.000000	67.966437 
7531.000000	68.110036 
7530.000000	68.249464 
7529.000000	68.379616 
7528.000000	68.467020 
7527.000000	68.470954 
7526.000000	68.348908 
7525.000000	68.078899 
7524.000000	67.659473 
7523.000000	67.116570 
7522.000000	66.500568 
7521.000000	65.879344 
7520.000000	65.327692 
7519.000000	64.915275 
7518.000000	64.694333 
7517.000000	64.691400 
7516.000000	64.907240 
7515.000000	65.314722 
7514.000000	65.860915 
7513.000000	66.476130 
7512.000000	67.083191 
7511.000000	67.610406 
7510.000000	67.999076 
7509.000000	68.213200 
7508.000000	68.242740 
7507.000000	68.100166 
7506.000000	67.818927 
7505.000000	67.438530 
7504.000000	66.999840 
7503.000000	66.532921 
7502.000000	66.061043 
7501.000000	65.593004 
7500.000000	65.131616 
7499.000000	64.675569 
7498.000000	64.228129 
7497.000000	63.799214 
7496.000000	63.407230 
7495.000000	63.080906 
7494.000000	62.854385 
7493.000000	62.758183 
7492.000000	62.812113 
7491.000000	63.016438 
7490.000000	63.351464 
7489.000000	63.777565 
7488.000000	64.245796 
7487.000000	64.702153 
7486.000000	65.104722 
7485.000000	65.427827 
7484.000000	65.670490 
7483.000000	65.853166 
7482.000000	66.009593 
7481.000000	66.175055 
7480.000000	66.373395 
7479.000000	66.613698 
7478.000000	66.880106 
7477.000000	67.141532 
7476.000000	67.352128 
7475.000000	67.469048 
7474.000000	67.457628 
7473.000000	67.306494 
7472.000000	67.021775 
7471.000000	66.627287 
7470.000000	66.157317 
7469.000000	65.650725 
7468.000000	65.144562 
7467.000000	64.670848 
7466.000000	64.258980 
7465.000000	63.935136 
7464.000000	63.721013 
7463.000000	63.632130 
7462.000000	63.676309 
7461.000000	63.849258 
7460.000000	64.131164 
7459.000000	64.486360 
7458.000000	64.862656 
7457.000000	65.201783 
7456.000000	65.444827 
7455.000000	65.550065 
7454.000000	65.494346 
7453.000000	65.288901 
7452.000000	64.979100 
7451.000000	64.633440 
7450.000000	64.332985 
7449.000000	64.142251 
7448.000000	64.094924 
7447.000000	64.181518 
7446.000000	64.353704 
7445.000000	64.538621 
7444.000000	64.661216 
7443.000000	64.667725 
7442.000000	64.542603 
7441.000000	64.312219 
7440.000000	64.037990 
7439.000000	63.798403 
7438.000000	63.667750 
7437.000000	63.695359 
7436.000000	63.892889 
7435.000000	64.236307 
7434.000000	64.670419 
7433.000000	65.126776 
7432.000000	65.536856 
7431.000000	65.848731 
7430.000000	66.034913 
7429.000000	66.091203 
7428.000000	66.038465 
7427.000000	65.904831 
7426.000000	65.730452 
7425.000000	65.559029 
7424.000000	65.432596 
7423.000000	65.389299 
7422.000000	65.452456 
7421.000000	65.630626 
7420.000000	65.910506 
7419.000000	66.261887 
7418.000000	66.638898 
7417.000000	66.988801 
7416.000000	67.265248 
7415.000000	67.437601 
7414.000000	67.497730 
7413.000000	67.459630 
7412.000000	67.355728 
7411.000000	67.225980 
7410.000000	67.107462 
7409.000000	67.023015 
7408.000000	66.977906 
7407.000000	66.957449 
7406.000000	66.939091 
7405.000000	66.894125 
7404.000000	66.803193 
7403.000000	66.653966 
7402.000000	66.443324 
7401.000000	66.177582 
7400.000000	65.862011 
7399.000000	65.512061 
7398.000000	65.149641 
7397.000000	64.807152 
7396.000000	64.522767 
7395.000000	64.335823 
7394.000000	64.277386 
7393.000000	64.364743 
7392.000000	64.593720 
7391.000000	64.941954 
7390.000000	65.370988 
7389.000000	65.835118 
7388.000000	66.288256 
7387.000000	66.692423 
7386.000000	67.021083 
7385.000000	67.258358 
7384.000000	67.397260 
7383.000000	67.436146 
7382.000000	67.377376 
7381.000000	67.227864 
7380.000000	66.999650 
7379.000000	66.715240 
7378.000000	66.403174 
7377.000000	66.103363 
7376.000000	65.852165 
7375.000000	65.676808 
7374.000000	65.587186 
7373.000000	65.571737 
7372.000000	65.605354 
7371.000000	65.654206 
7370.000000	65.691161 
7369.000000	65.702867 
7368.000000	65.694880 
7367.000000	65.688347 
7366.000000	65.710854 
7365.000000	65.784692 
7364.000000	65.916562 
7363.000000	66.091346 
7362.000000	66.276621 
7361.000000	66.430568 
7360.000000	66.516971 
7359.000000	66.516041 
7358.000000	66.433572 
7357.000000	66.299319 
7356.000000	66.156291 
7355.000000	66.048216 
7354.000000	66.006207 
7353.000000	66.040706 
7352.000000	66.137337 
7351.000000	66.264176 
7350.000000	66.385912 
7349.000000	66.472625 
7348.000000	66.512346 
7347.000000	66.509103 
7346.000000	66.481065 
7345.000000	66.449999 
7344.000000	66.431593 
7343.000000	66.429376 
7342.000000	66.429042 
7341.000000	66.408824 
7340.000000	66.348338 
7339.000000	66.237497 
7338.000000	66.083693 
7337.000000	65.910220 
7336.000000	65.751886 
7335.000000	65.645527 
7334.000000	65.620875 
7333.000000	65.697407 
7332.000000	65.882205 
7331.000000	66.174721 
7330.000000	66.569590 
7329.000000	67.062973 
7328.000000	67.649698 
7327.000000	68.323063 
7326.000000	69.064307 
7325.000000	69.838666 
7324.000000	70.589423 
7323.000000	71.246886 
7322.000000	71.732521 
7321.000000	71.980929 
7320.000000	71.945381 
7319.000000	71.618366 
7318.000000	71.025156 
7317.000000	70.228528 
7316.000000	69.311022 
7315.000000	68.361806 
7314.000000	67.465662 
7313.000000	66.694879 
7312.000000	66.101622 
7311.000000	65.716505 
7310.000000	65.548920 
7309.000000	65.590858 
7308.000000	65.816116 
7307.000000	66.184186 
7306.000000	66.645002 
7305.000000	67.145133 
7304.000000	67.632818 
7303.000000	68.065810 
7302.000000	68.417096 
7301.000000	68.676996 
7300.000000	68.855953 
7299.000000	68.973588 
7298.000000	69.055056 
7297.000000	69.113826 
7296.000000	69.151711 
7295.000000	69.148612 
7294.000000	69.077587 
7293.000000	68.902301 
7292.000000	68.596005 
7291.000000	68.143415 
7290.000000	67.554640 
7289.000000	66.859674 
7288.000000	66.106438 
7287.000000	65.351438 
7286.000000	64.648532 
7285.000000	64.042282 
7284.000000	63.561987 
7283.000000	63.217759 
7282.000000	63.000178 
7281.000000	62.891936 
7280.000000	62.874674 
7279.000000	62.935447 
7278.000000	63.070130 
7277.000000	63.283610 
7276.000000	63.585114 
7275.000000	63.982558 
7274.000000	64.473676 
7273.000000	65.038967 
7272.000000	65.638041 
7271.000000	66.217255 
7270.000000	66.712856 
7269.000000	67.064142 
7268.000000	67.222666 
7267.000000	67.166757 
7266.000000	66.902470 
7265.000000	66.465973 
7264.000000	65.914487 
7263.000000	65.317678 
7262.000000	64.744710 
7261.000000	64.254665 
7260.000000	63.889288 
7259.000000	63.670349 
7258.000000	63.602280 
7257.000000	63.676786 
7256.000000	63.877153 
7255.000000	64.181303 
7254.000000	64.566826 
7253.000000	65.010738 
7252.000000	65.488219 
7251.000000	65.970826 
7250.000000	66.428279 
7249.000000	66.828560 
7248.000000	67.142963 
7247.000000	67.346596 
7246.000000	67.425036 
7245.000000	67.371654 
7244.000000	67.192506 
7243.000000	66.900038 
7242.000000	66.515874 
7241.000000	66.063332 
7240.000000	65.570616 
7239.000000	65.063476 
7238.000000	64.567160 
7237.000000	64.102435 
7236.000000	63.689017 
7235.000000	63.340616 
7234.000000	63.065242 
7233.000000	62.863540 
7232.000000	62.725639 
7231.000000	62.638878 
7230.000000	62.587523 
7229.000000	62.561130 
7228.000000	62.553739 
7227.000000	62.567591 
7226.000000	62.609314 
7225.000000	62.684106 
7224.000000	62.791228 
7223.000000	62.919282 
7222.000000	63.048291 
7221.000000	63.156414 
7220.000000	63.226509 
7219.000000	63.252925 
7218.000000	63.242435 
7217.000000	63.215517 
7216.000000	63.196182 
7215.000000	63.204765 
7214.000000	63.249015 
7213.000000	63.318705 
7212.000000	63.390517 
7211.000000	63.435125 
7210.000000	63.429093 
7209.000000	63.361454 
7208.000000	63.242816 
7207.000000	63.108325 
7206.000000	63.002920 
7205.000000	62.967705 
7204.000000	63.027906 
7203.000000	63.183617 
7202.000000	63.410162 
7201.000000	63.663983 
7200.000000	63.896942 
7199.000000	64.069795 
7198.000000	64.163541 
7197.000000	64.183926 
7196.000000	64.155936 
7195.000000	64.114665 
7194.000000	64.093947 
7193.000000	64.115071 
7192.000000	64.178895 
7191.000000	64.267182 
7190.000000	64.349865 
7189.000000	64.397025 
7188.000000	64.389157 
7187.000000	64.328002 
7186.000000	64.236211 
7185.000000	64.156460 
7184.000000	64.137840 
7183.000000	64.225554 
7182.000000	64.447236 
7181.000000	64.803504 
7180.000000	65.267539 
7179.000000	65.785408 
7178.000000	66.290068 
7177.000000	66.710638 
7176.000000	66.989374 
7175.000000	67.089915 
7174.000000	67.004251 
7173.000000	66.752576 
7172.000000	66.377592 
7171.000000	65.932488 
7170.000000	65.469264 
7169.000000	65.028500 
7168.000000	64.633560 
7167.000000	64.292836 
7166.000000	64.003753 
7165.000000	63.757491 
7164.000000	63.548421 
7163.000000	63.376832 
7162.000000	63.254070 
7161.000000	63.194751 
7160.000000	63.216662 
7159.000000	63.331961 
7158.000000	63.541626 
7157.000000	63.829135 
7156.000000	64.161634 
7155.000000	64.491701 
7154.000000	64.769291 
7153.000000	64.949131 
7152.000000	65.006470 
7151.000000	64.941382 
7150.000000	64.782857 
7149.000000	64.582300 
7148.000000	64.400005 
7147.000000	64.290380 
7146.000000	64.285159 
7145.000000	64.385628 
7144.000000	64.558529 
7143.000000	64.745593 
7142.000000	64.879631 
7141.000000	64.903712 
7140.000000	64.785718 
7139.000000	64.527988 
7138.000000	64.167952 
7137.000000	63.767123 
7136.000000	63.391733 
7135.000000	63.097357 
7134.000000	62.912464 
7133.000000	62.837457 
7132.000000	62.847805 
7131.000000	62.906956 
7130.000000	62.980842 
7129.000000	63.048458 
7128.000000	63.107228 
7127.000000	63.171505 
7126.000000	63.259792 
7125.000000	63.391113 
7124.000000	63.572192 
7123.000000	63.796710 
7122.000000	64.041137 
7121.000000	64.279365 
7120.000000	64.489865 
7119.000000	64.665412 
7118.000000	64.815521 
7117.000000	64.961838 
7116.000000	65.129041 
7115.000000	65.334725 
7114.000000	65.579366 
7113.000000	65.841722 
7112.000000	66.080474 
7111.000000	66.246318 
7110.000000	66.293287 
7109.000000	66.192579 
7108.000000	65.941810 
7107.000000	65.569758 
7106.000000	65.129756 
7105.000000	64.690256 
7104.000000	64.315962 
7103.000000	64.058017 
7102.000000	63.935446 
7101.000000	63.934350 
7100.000000	64.008545 
7099.000000	64.093708 
7098.000000	64.124703 
7097.000000	64.052486 
7096.000000	63.859462 
7095.000000	63.561868 
7094.000000	63.208079 
7093.000000	62.862730 
7092.000000	62.593221 
7091.000000	62.450885 
7090.000000	62.459683 
7089.000000	62.610769 
7088.000000	62.865734 
7087.000000	63.167953 
7086.000000	63.460969 
7085.000000	63.702273 
7084.000000	63.869714 
7083.000000	63.964772 
7082.000000	64.006900 
7081.000000	64.024734 
7080.000000	64.041733 
7079.000000	64.070177 
7078.000000	64.109873 
7077.000000	64.146971 
7076.000000	64.163517 
7075.000000	64.141225 
7074.000000	64.068198 
7073.000000	63.947319 
7072.000000	63.794946 
7071.000000	63.645339 
7070.000000	63.540387 
7069.000000	63.527417 
7068.000000	63.646721 
7067.000000	63.922572 
7066.000000	64.355349 
7065.000000	64.915943 
7064.000000	65.549063 
7063.000000	66.175651 
7062.000000	66.706705 
7061.000000	67.061448 
7060.000000	67.183446 
7059.000000	67.049193 
7058.000000	66.672897 
7057.000000	66.109728 
7056.000000	65.439558 
7055.000000	64.749503 
7054.000000	64.114618 
7053.000000	63.588070 
7052.000000	63.192129 
7051.000000	62.924075 
7050.000000	62.761259 
7049.000000	62.673878 
7048.000000	62.634873 
7047.000000	62.628245 
7046.000000	62.649750 
7045.000000	62.696146 
7044.000000	62.769174 
7043.000000	62.864804 
7042.000000	62.975311 
7041.000000	63.082432 
7040.000000	63.172268 
7039.000000	63.238286 
7038.000000	63.288187 
7037.000000	63.343429 
7036.000000	63.438153 
7035.000000	63.612604 
7034.000000	63.901853 
7033.000000	64.328622 
7032.000000	64.902257 
7031.000000	65.613675 
7030.000000	66.438651 
7029.000000	67.334580 
7028.000000	68.249464 
7027.000000	69.119095 
7026.000000	69.880437 
7025.000000	70.469141 
7024.000000	70.832753 
7023.000000	70.930671 
7022.000000	70.753073 
7021.000000	70.310044 
7020.000000	69.640278 
7019.000000	68.797516 
7018.000000	67.853426 
7017.000000	66.879034 
7016.000000	65.943050 
7015.000000	65.098953 
7014.000000	64.385056 
7013.000000	63.820457 
7012.000000	63.408637 
7011.000000	63.140845 
7010.000000	63.000798 
7009.000000	62.966942 
7008.000000	63.015961 
7007.000000	63.120365 
7006.000000	63.252735 
7005.000000	63.388657 
7004.000000	63.510775 
7003.000000	63.606953 
7002.000000	63.672804 
7001.000000	63.711333 
7000.000000	63.729715 
6999.000000	63.737130 
6998.000000	63.738107 
6997.000000	63.735342 
6996.000000	63.721323 
6995.000000	63.682723 
6994.000000	63.599944 
6993.000000	63.452911 
6992.000000	63.229298 
6991.000000	62.927007 
6990.000000	62.565636 
6989.000000	62.182068 
6988.000000	61.833357 
6987.000000	61.584520 
6986.000000	61.496448 
6985.000000	61.609911 
6984.000000	61.934804 
6983.000000	62.444972 
6982.000000	63.074827 
6981.000000	63.731884 
6980.000000	64.315176 
6979.000000	64.739274 
6978.000000	64.952135 
6977.000000	64.948844 
6976.000000	64.772653 
6975.000000	64.503645 
6974.000000	64.237499 
6973.000000	64.060997 
6972.000000	64.033198 
6971.000000	64.170622 
6970.000000	64.450931 
6969.000000	64.818239 
6968.000000	65.207481 
6967.000000	65.554809 
6966.000000	65.819048 
6965.000000	65.980839 
6964.000000	66.043877 
6963.000000	66.024088 
6962.000000	65.938878 
6961.000000	65.799570 
6960.000000	65.607070 
6959.000000	65.356373 
6958.000000	65.042924 
6957.000000	64.674592 
6956.000000	64.278411 
6955.000000	63.896274 
6954.000000	63.579416 
6953.000000	63.374662 
6952.000000	63.314223 
6951.000000	63.405776 
6950.000000	63.632154 
6949.000000	63.951802 
6948.000000	64.311933 
6947.000000	64.664077 
6946.000000	64.972805 
6945.000000	65.221643 
6944.000000	65.409111 
6943.000000	65.544009 
6942.000000	65.633487 
6941.000000	65.675497 
6940.000000	65.656661 
6939.000000	65.556573 
6938.000000	65.356111 
6937.000000	65.048122 
6936.000000	64.647412 
6935.000000	64.194989 
6934.000000	63.753390 
6933.000000	63.394570 
6932.000000	63.186383 
6931.000000	63.175821 
6930.000000	63.378381 
6929.000000	63.772797 
6928.000000	64.303112 
6927.000000	64.889955 
6926.000000	65.447330 
6925.000000	65.900778 
6924.000000	66.200733 
6923.000000	66.330790 
6922.000000	66.307711 
6921.000000	66.172003 
6920.000000	65.976643 
6919.000000	65.768361 
6918.000000	65.581154 
6917.000000	65.422582 
6916.000000	65.282773 
6915.000000	65.133023 
6914.000000	64.942669 
6913.000000	64.687013 
6912.000000	64.358615 
6911.000000	63.972711 
6910.000000	63.561987 
6909.000000	63.175392 
6908.000000	62.863302 
6907.000000	62.670683 
6906.000000	62.624287 
6905.000000	62.728595 
6904.000000	62.963509 
6903.000000	63.290429 
6902.000000	63.659882 
6901.000000	64.022040 
6900.000000	64.335274 
6899.000000	64.571881 
6898.000000	64.719605 
6897.000000	64.777231 
6896.000000	64.751124 
6895.000000	64.649820 
6894.000000	64.482235 
6893.000000	64.261198 
6892.000000	64.001154 
6891.000000	63.723397 
6890.000000	63.450384 
6889.000000	63.205885 
6888.000000	63.009119 
6887.000000	62.871742 
6886.000000	62.797117 
6885.000000	62.778425 
6884.000000	62.804126 
6883.000000	62.859153 
6882.000000	62.931418 
6881.000000	63.012957 
6880.000000	63.100767 
6879.000000	63.194799 
6878.000000	63.293266 
6877.000000	63.388681 
6876.000000	63.470411 
6875.000000	63.526034 
6874.000000	63.546657 
6873.000000	63.530373 
6872.000000	63.486981 
6871.000000	63.436174 
6870.000000	63.402891 
6869.000000	63.410282 
6868.000000	63.472032 
6867.000000	63.588166 
6866.000000	63.745284 
6865.000000	63.918375 
6864.000000	64.081287 
6863.000000	64.207744 
6862.000000	64.278936 
6861.000000	64.282488 
6860.000000	64.215874 
6859.000000	64.082503 
6858.000000	63.888335 
6857.000000	63.643670 
6856.000000	63.360428 
6855.000000	63.057446 
6854.000000	62.759804 
6853.000000	62.499213 
6852.000000	62.309765 
6851.000000	62.223434 
6850.000000	62.263822 
6849.000000	62.436723 
6848.000000	62.726736 
6847.000000	63.098907 
6846.000000	63.505268 
6845.000000	63.895058 
6844.000000	64.226627 
6843.000000	64.476394 
6842.000000	64.643573 
6841.000000	64.748787 
6840.000000	64.825892 
6839.000000	64.911413 
6838.000000	65.031838 
6837.000000	65.197777 
6836.000000	65.398645 
6835.000000	65.610623 
6834.000000	65.799164 
6833.000000	65.935921 
6832.000000	65.998363 
6831.000000	65.981364 
6830.000000	65.889167 
6829.000000	65.736460 
6828.000000	65.537476 
6827.000000	65.302419 
6826.000000	65.035390 
6825.000000	64.736056 
6824.000000	64.406156 
6823.000000	64.055180 
6822.000000	63.705062 
6821.000000	63.389873 
6820.000000	63.153052 
6819.000000	63.038468 
6818.000000	63.076400 
6817.000000	63.274168 
6816.000000	63.612699 
6815.000000	64.047694 
6814.000000	64.514541 
6813.000000	64.942312 
6812.000000	65.270304 
6811.000000	65.459322 
6810.000000	65.496778 
6809.000000	65.398025 
6808.000000	65.198731 
6807.000000	64.945888 
6806.000000	64.686989 
6805.000000	64.459657 
6804.000000	64.286923 
6803.000000	64.174461 
6802.000000	64.120507 
6801.000000	64.111423 
6800.000000	64.130973 
6799.000000	64.159154 
6798.000000	64.178752 
6797.000000	64.170455 
6796.000000	64.114689 
6795.000000	63.992595 
6794.000000	63.788890 
6793.000000	63.496303 
6792.000000	63.118743 
6791.000000	62.674450 
6790.000000	62.194347 
6789.000000	61.716866 
6788.000000	61.282229 
6787.000000	60.923433 
6786.000000	60.662961 
6785.000000	60.507583 
6784.000000	60.453557 
6783.000000	60.482358 
6782.000000	60.576105 
6781.000000	60.719156 
6780.000000	60.908794 
6779.000000	61.144614 
6778.000000	61.437654 
6777.000000	61.799693 
6776.000000	62.240743 
6775.000000	62.759900 
6774.000000	63.340377 
6773.000000	63.948059 
6772.000000	64.533662 
6771.000000	65.043592 
6770.000000	65.424013 
6769.000000	65.633177 
6768.000000	65.649390 
6767.000000	65.477871 
6766.000000	65.148687 
6765.000000	64.711880 
6764.000000	64.231729 
6763.000000	63.773727 
6762.000000	63.394951 
6761.000000	63.131117 
6760.000000	62.996363 
6759.000000	62.976956 
6758.000000	63.035440 
6757.000000	63.118433 
6756.000000	63.168883 
6755.000000	63.140106 
6754.000000	63.001775 
6753.000000	62.751984 
6752.000000	62.412285 
6751.000000	62.027597 
6750.000000	61.651396 
6749.000000	61.337661 
6748.000000	61.124444 
6747.000000	61.032032 
6746.000000	61.060881 
6745.000000	61.193346 
6744.000000	61.398649 
6743.000000	61.643457 
6742.000000	61.899828 
6741.000000	62.146854 
6740.000000	62.370705 
6739.000000	62.565946 
6738.000000	62.731409 
6737.000000	62.865853 
6736.000000	62.965893 
6735.000000	63.025665 
6734.000000	63.039135 
6733.000000	63.006401 
6732.000000	62.935304 
6731.000000	62.840414 
6730.000000	62.742590 
6729.000000	62.669467 
6728.000000	62.646770 
6727.000000	62.692475 
6726.000000	62.810635 
6725.000000	62.991952 
6724.000000	63.211131 
6723.000000	63.433623 
6722.000000	63.619518 
6721.000000	63.733410 
6720.000000	63.749504 
6719.000000	63.657212 
6718.000000	63.462948 
6717.000000	63.189005 
6716.000000	62.867283 
6715.000000	62.532830 
6714.000000	62.217831 
6713.000000	61.946940 
6712.000000	61.735701 
6711.000000	61.591649 
6710.000000	61.515092 
6709.000000	61.504030 
6708.000000	61.557102 
6707.000000	61.676621 
6706.000000	61.865067 
6705.000000	62.124490 
6704.000000	62.451362 
6703.000000	62.834310 
6702.000000	63.251852 
6701.000000	63.672971 
6700.000000	64.060950 
6699.000000	64.378046 
6698.000000	64.594292 
6697.000000	64.690804 
6696.000000	64.665317 
6695.000000	64.531159 
6694.000000	64.316749 
6693.000000	64.058566 
6692.000000	63.796520 
6691.000000	63.565087 
6690.000000	63.390207 
6689.000000	63.283729 
6688.000000	63.245105 
6687.000000	63.262557 
6686.000000	63.318562 
6685.000000	63.393878 
6684.000000	63.473129 
6683.000000	63.546514 
6682.000000	63.612270 
6681.000000	63.674187 
6680.000000	63.740801 
6679.000000	63.820886 
6678.000000	63.921260 
6677.000000	64.045548 
6676.000000	64.191675 
6675.000000	64.352703 
6674.000000	64.515948 
6673.000000	64.668941 
6672.000000	64.797163 
6671.000000	64.887022 
6670.000000	64.927530 
6669.000000	64.913272 
6668.000000	64.845585 
6667.000000	64.731860 
6666.000000	64.587306 
6665.000000	64.434003 
6664.000000	64.296531 
6663.000000	64.199662 
6662.000000	64.158773 
6661.000000	64.176440 
6660.000000	64.241409 
6659.000000	64.331865 
6658.000000	64.418172 
6657.000000	64.470171 
6656.000000	64.467048 
6655.000000	64.402222 
6654.000000	64.283585 
6653.000000	64.130616 
6652.000000	63.969373 
6651.000000	63.823866 
6650.000000	63.709735 
6649.000000	63.629293 
6648.000000	63.572072 
6647.000000	63.518428 
6646.000000	63.447904 
6645.000000	63.345408 
6644.000000	63.205218 
6643.000000	63.035655 
6642.000000	62.854838 
6641.000000	62.690162 
6640.000000	62.566494 
6639.000000	62.507200 
6638.000000	62.525701 
6637.000000	62.628316 
6636.000000	62.811446 
6635.000000	63.066673 
6634.000000	63.381314 
6633.000000	63.741636 
6632.000000	64.133071 
6631.000000	64.543366 
6630.000000	64.961481 
6629.000000	65.378069 
6628.000000	65.783309 
6627.000000	66.167283 
6626.000000	66.517019 
6625.000000	66.820788 
6624.000000	67.064189 
6623.000000	67.234730 
6622.000000	67.319512 
6621.000000	67.312216 
6620.000000	67.211508 
6619.000000	67.024302 
6618.000000	66.766285 
6617.000000	66.463160 
6616.000000	66.147947 
6615.000000	65.858912 
6614.000000	65.632200 
6613.000000	65.498399 
6612.000000	65.473031 
6611.000000	65.555644 
6610.000000	65.724968 
6609.000000	65.943408 
6608.000000	66.162562 
6607.000000	66.333246 
6606.000000	66.415429 
6605.000000	66.386175 
6604.000000	66.247200 
6603.000000	66.024160 
6602.000000	65.761637 
6601.000000	65.512228 
6600.000000	65.326929 
6599.000000	65.241980 
6598.000000	65.271520 
6597.000000	65.403127 
6596.000000	65.604352 
6595.000000	65.829014 
6594.000000	66.027450 
6593.000000	66.159009 
6592.000000	66.200804 
6591.000000	66.152048 
6590.000000	66.030311 
6589.000000	65.865993 
6588.000000	65.692472 
6587.000000	65.537095 
6586.000000	65.415668 
6585.000000	65.328788 
6584.000000	65.264987 
6583.000000	65.206265 
6582.000000	65.137052 
6581.000000	65.048551 
6580.000000	64.942526 
6579.000000	64.832472 
6578.000000	64.739298 
6577.000000	64.689779 
6576.000000	64.708566 
6575.000000	64.811587 
6574.000000	64.999914 
6573.000000	65.258741 
6572.000000	65.557813 
6571.000000	65.857100 
6570.000000	66.114044 
6569.000000	66.291379 
6568.000000	66.365122 
6567.000000	66.331362 
6566.000000	66.204524 
6565.000000	66.012954 
6564.000000	65.791296 
6563.000000	65.573811 
6562.000000	65.386056 
6561.000000	65.242791 
6560.000000	65.145802 
6559.000000	65.087699 
6558.000000	65.056729 
6557.000000	65.043640 
6556.000000	65.043377 
6555.000000	65.057420 
6554.000000	65.088009 
6553.000000	65.134358 
6552.000000	65.189075 
6551.000000	65.237092 
6550.000000	65.258812 
6549.000000	65.235066 
6548.000000	65.154004 
6547.000000	65.016293 
6546.000000	64.836382 
6545.000000	64.642262 
6544.000000	64.469146 
6543.000000	64.353966 
6542.000000	64.327669 
6541.000000	64.408135 
6540.000000	64.597845 
6539.000000	64.879775 
6538.000000	65.221977 
6537.000000	65.580034 
6536.000000	65.906023 
6535.000000	66.155290 
6534.000000	66.292738 
6533.000000	66.301441 
6532.000000	66.184520 
6531.000000	65.965652 
6530.000000	65.683031 
6529.000000	65.383815 
6528.000000	65.116143 
6527.000000	64.918565 
6526.000000	64.815068 
6525.000000	64.809083 
6524.000000	64.885830 
6523.000000	65.016984 
6522.000000	65.169715 
6521.000000	65.312933 
6520.000000	65.425515 
6519.000000	65.500044 
6518.000000	65.543699 
6517.000000	65.572500 
6516.000000	65.606927 
6515.000000	65.663647 
6514.000000	65.752387 
6513.000000	65.873026 
6512.000000	66.017723 
6511.000000	66.174530 
6510.000000	66.331362 
6509.000000	66.482257 
6508.000000	66.625833 
6507.000000	66.766762 
6506.000000	66.909456 
6505.000000	67.055654 
6504.000000	67.199468 
6503.000000	67.329120 
6502.000000	67.424941 
6501.000000	67.465806 
6500.000000	67.431378 
6499.000000	67.309713 
6498.000000	67.099428 
6497.000000	66.812658 
6496.000000	66.472291 
6495.000000	66.108989 
6494.000000	65.756082 
6493.000000	65.444493 
6492.000000	65.199017 
6491.000000	65.035510 
6490.000000	64.958596 
6489.000000	64.963245 
6488.000000	65.036034 
6487.000000	65.159797 
6486.000000	65.313100 
6485.000000	65.477538 
6484.000000	65.637230 
6483.000000	65.782833 
6482.000000	65.909171 
6481.000000	66.014695 
6480.000000	66.098666 
6479.000000	66.159439 
6478.000000	66.193795 
6477.000000	66.196894 
6476.000000	66.165542 
6475.000000	66.098046 
6474.000000	65.997791 
6473.000000	65.870881 
6472.000000	65.727066 
6471.000000	65.576219 
6470.000000	65.427517 
6469.000000	65.286755 
6468.000000	65.156483 
6467.000000	65.036416 
6466.000000	64.925479 
6465.000000	64.823865 
6464.000000	64.734959 
6463.000000	64.664721 
6462.000000	64.621782 
6461.000000	64.613795 
6460.000000	64.646863 
6459.000000	64.719843 
6458.000000	64.827489 
6457.000000	64.961004 
6456.000000	65.110182 
6455.000000	65.265202 
6454.000000	65.417337 
6453.000000	65.558862 
6452.000000	65.683698 
6451.000000	65.787124 
6450.000000	65.865659 
6449.000000	65.916228 
6448.000000	65.938377 
6447.000000	65.935897 
6446.000000	65.913796 
6445.000000	65.877962 
6444.000000	65.834140 
6443.000000	65.787696 
6442.000000	65.741682 
6441.000000	65.696096 
6440.000000	65.648651 
6439.000000	65.593671 
6438.000000	65.521812 
6437.000000	65.420246 
6436.000000	65.275621 
6435.000000	65.076303 
6434.000000	64.813685 
6433.000000	64.488339 
6432.000000	64.108538 
6431.000000	63.697481 
6430.000000	63.288712 
6429.000000	62.927556 
6428.000000	62.658524 
6427.000000	62.524390 
6426.000000	62.555027 
6425.000000	62.764215 
6424.000000	63.140535 
6423.000000	63.654541 
6422.000000	64.261770 
6421.000000	64.909291 
6420.000000	65.541815 
6419.000000	66.109180 
6418.000000	66.571211 
6417.000000	66.900944 
6416.000000	67.085862 
6415.000000	67.129015 
6414.000000	67.046570 
6413.000000	66.867661 
6412.000000	66.628575 
6411.000000	66.369509 
6410.000000	66.125965 
6409.000000	65.928459 
6408.000000	65.793156 
6407.000000	65.721845 
6406.000000	65.700030 
6405.000000	65.704011 
6404.000000	65.704870 
6403.000000	65.676069 
6402.000000	65.598607 
6401.000000	65.466070 
6400.000000	65.282702 
6399.000000	65.057611 
6398.000000	64.805054 
6397.000000	64.538145 
6396.000000	64.270877 
6395.000000	64.015364 
6394.000000	63.784813 
6393.000000	63.593816 
6392.000000	63.455724 
6391.000000	63.381218 
6390.000000	63.372230 
6389.000000	63.419747 
6388.000000	63.506340 
6387.000000	63.609409 
6386.000000	63.703799 
6385.000000	63.767790 
6384.000000	63.790011 
6383.000000	63.771963 
6382.000000	63.726735 
6381.000000	63.675165 
6380.000000	63.637638 
6379.000000	63.629817 
6378.000000	63.658142 
6377.000000	63.720107 
6376.000000	63.805890 
6375.000000	63.903331 
6374.000000	64.003443 
6373.000000	64.102864 
6372.000000	64.203667 
6371.000000	64.312767 
6370.000000	64.436674 
6369.000000	64.580345 
6368.000000	64.743065 
6367.000000	64.919376 
6366.000000	65.100574 
6365.000000	65.273880 
6364.000000	65.425014 
6363.000000	65.540361 
6362.000000	65.610289 
6361.000000	65.627861 
6360.000000	65.590763 
6359.000000	65.502452 
6358.000000	65.372657 
6357.000000	65.217256 
6356.000000	65.056085 
6355.000000	64.912199 
6354.000000	64.805912 
6353.000000	64.752674 
6352.000000	64.757370 
6351.000000	64.813041 
6350.000000	64.901328 
6349.000000	64.996218 
6348.000000	65.070295 
6347.000000	65.099596 
6346.000000	65.071439 
6345.000000	64.986062 
6344.000000	64.858055 
6343.000000	64.710307 
6342.000000	64.571189 
6341.000000	64.466953 
6340.000000	64.416337 
6339.000000	64.425611 
6338.000000	64.489841 
6337.000000	64.595293 
6336.000000	64.723229 
6335.000000	64.855027 
6334.000000	64.976406 
6333.000000	65.079903 
6332.000000	65.164160 
6331.000000	65.232157 
6330.000000	65.288639 
6329.000000	65.337157 
6328.000000	65.378642 
6327.000000	65.410089 
6326.000000	65.427088 
6325.000000	65.423798 
6324.000000	65.397787 
6323.000000	65.348887 
6322.000000	65.280222 
6321.000000	65.196633 
6320.000000	65.105724 
6319.000000	65.014219 
6318.000000	64.926815 
6317.000000	64.845323 
6316.000000	64.769935 
6315.000000	64.698576 
6314.000000	64.627981 
6313.000000	64.555430 
6312.000000	64.479422 
6311.000000	64.401936 
6310.000000	64.328122 
6309.000000	64.265823 
6308.000000	64.223194 
6307.000000	64.208126 
6306.000000	64.225530 
6305.000000	64.274406 
6304.000000	64.346933 
6303.000000	64.429211 
6302.000000	64.503860 
6301.000000	64.552259 
6300.000000	64.560461 
6299.000000	64.522004 
6298.000000	64.442348 
6297.000000	64.337182 
6296.000000	64.231991 
6295.000000	64.154505 
6294.000000	64.131689 
6293.000000	64.182829 
6292.000000	64.316368 
6291.000000	64.527940 
6290.000000	64.800119 
6289.000000	65.108084 
6288.000000	65.419673 
6287.000000	65.702462 
6286.000000	65.925097 
6285.000000	66.062831 
6284.000000	66.098189 
6283.000000	66.023826 
6282.000000	65.842890 
6281.000000	65.569329 
6280.000000	65.227627 
6279.000000	64.850354 
6278.000000	64.474868 
6277.000000	64.138460 
6276.000000	63.872790 
6275.000000	63.699817 
6274.000000	63.628077 
6273.000000	63.654017 
6272.000000	63.762259 
6271.000000	63.932561 
6270.000000	64.141154 
6269.000000	64.368629 
6268.000000	64.600825 
6267.000000	64.830517 
6266.000000	65.053415 
6265.000000	65.266442 
6264.000000	65.464067 
6263.000000	65.636181 
6262.000000	65.769600 
6261.000000	65.848302 
6260.000000	65.860033 
6259.000000	65.796899 
6258.000000	65.661454 
6257.000000	65.463685 
6256.000000	65.222048 
6255.000000	64.957547 
6254.000000	64.691066 
6253.000000	64.441323 
6252.000000	64.223861 
6251.000000	64.049911 
6250.000000	63.927102 
6249.000000	63.860201 
6248.000000	63.851332 
6247.000000	63.899850 
6246.000000	64.001679 
6245.000000	64.146161 
6244.000000	64.317536 
6243.000000	64.495325 
6242.000000	64.657664 
6241.000000	64.782571 
6240.000000	64.853811 
6239.000000	64.862942 
6238.000000	64.811825 
6237.000000	64.712357 
6236.000000	64.583706 
6235.000000	64.448404 
6234.000000	64.327526 
6233.000000	64.238047 
6232.000000	64.187955 
6231.000000	64.177203 
6230.000000	64.195036 
6229.000000	64.223790 
6228.000000	64.241695 
6227.000000	64.229059 
6226.000000	64.171028 
6225.000000	64.061784 
6224.000000	63.905715 
6223.000000	63.717341 
6222.000000	63.517141 
6221.000000	63.329052 
6220.000000	63.175415 
6219.000000	63.074874 
6218.000000	63.039803 
6217.000000	63.075828 
6216.000000	63.181400 
6215.000000	63.348197 
6214.000000	63.561868 
6213.000000	63.803935 
6212.000000	64.051818 
6211.000000	64.283776 
6210.000000	64.479231 
6209.000000	64.624953 
6208.000000	64.714074 
6207.000000	64.751219 
6206.000000	64.751100 
6205.000000	64.735746 
6204.000000	64.730405 
6203.000000	64.755940 
6202.000000	64.824914 
6201.000000	64.936947 
6200.000000	65.079879 
6199.000000	65.231108 
6198.000000	65.363621 
6197.000000	65.452337 
6196.000000	65.480279 
6195.000000	65.440535 
6194.000000	65.338039 
6193.000000	65.186882 
6192.000000	65.008497 
6191.000000	64.826321 
6190.000000	64.663314 
6189.000000	64.539122 
6188.000000	64.467668 
6187.000000	64.457631 
6186.000000	64.509344 
6185.000000	64.617538 
6184.000000	64.768052 
6183.000000	64.940524 
6182.000000	65.109252 
6181.000000	65.245771 
6180.000000	65.324974 
6179.000000	65.328836 
6178.000000	65.251708 
6177.000000	65.100979 
6176.000000	64.897584 
6175.000000	64.671897 
6174.000000	64.457774 
6173.000000	64.285540 
6172.000000	64.177441 
6171.000000	64.143967 
6170.000000	64.182806 
6169.000000	64.280366 
6168.000000	64.415431 
6167.000000	64.563894 
6166.000000	64.702391 
6165.000000	64.813065 
6164.000000	64.884352 
6163.000000	64.913511 
6162.000000	64.903450 
6161.000000	64.863634 
6160.000000	64.804744 
6159.000000	64.740228 
6158.000000	64.684343 
6157.000000	64.651298 
6156.000000	64.654326 
6155.000000	64.703059 
6154.000000	64.803290 
6153.000000	64.952731 
6152.000000	65.142679 
6151.000000	65.354585 
6150.000000	65.562486 
6149.000000	65.737652 
6148.000000	65.854668 
6147.000000	65.895819 
6146.000000	65.855002 
6145.000000	65.740394 
6144.000000	65.572953 
6143.000000	65.382385 
6142.000000	65.200853 
6141.000000	65.055823 
6140.000000	64.965057 
6139.000000	64.933872 
6138.000000	64.956498 
6137.000000	65.020132 
6136.000000	65.110373 
6135.000000	65.214800 
6134.000000	65.326786 
6133.000000	65.446233 
6132.000000	65.575957 
6131.000000	65.718674 
6130.000000	65.870308 
6129.000000	66.018819 
6128.000000	66.141986 
6127.000000	66.213822 
6126.000000	66.206955 
6125.000000	66.101503 
6124.000000	65.889501 
6123.000000	65.580725 
6122.000000	65.199542 
6121.000000	64.781856 
6120.000000	64.368367 
6119.000000	63.997244 
6118.000000	63.698172 
6117.000000	63.487839 
6116.000000	63.368248 
6115.000000	63.328194 
6114.000000	63.346314 
6113.000000	63.397002 
6112.000000	63.453698 
6111.000000	63.496685 
6110.000000	63.513040 
6109.000000	63.501858 
6108.000000	63.469743 
6107.000000	63.431644 
6106.000000	63.404703 
6105.000000	63.405203 
6104.000000	63.443422 
6103.000000	63.522434 
6102.000000	63.637423 
6101.000000	63.777852 
6100.000000	63.929557 
6099.000000	64.079999 
6098.000000	64.220595 
6097.000000	64.349412 
6096.000000	64.470481 
6095.000000	64.590549 
6094.000000	64.715194 
6093.000000	64.845848 
6092.000000	64.978098 
6091.000000	65.101599 
6090.000000	65.202045 
6089.000000	65.267252 
6088.000000	65.290355 
6087.000000	65.271091 
6086.000000	65.216207 
6085.000000	65.139698 
6084.000000	65.058302 
6083.000000	64.987111 
6082.000000	64.935541 
6081.000000	64.906311 
6080.000000	64.894604 
6079.000000	64.891600 
6078.000000	64.887261 
6077.000000	64.873480 
6076.000000	64.847803 
6075.000000	64.813804 
6074.000000	64.781451 
6073.000000	64.762473 
6072.000000	64.769196 
6071.000000	64.810991 
6070.000000	64.890933 
6069.000000	65.004348 
6068.000000	65.138864 
6067.000000	65.277218 
6066.000000	65.399479 
6065.000000	65.487289 
6064.000000	65.528392 
6063.000000	65.519452 
6062.000000	65.466785 
6061.000000	65.385055 
6060.000000	65.295004 
6059.000000	65.218353 
6058.000000	65.173316 
6057.000000	65.169596 
6056.000000	65.207338 
6055.000000	65.276312 
6054.000000	65.359807 
6053.000000	65.437674 
6052.000000	65.492486 
6051.000000	65.512108 
6050.000000	65.492701 
6049.000000	65.437769 
6048.000000	65.355515 
6047.000000	65.256643 
6046.000000	65.150117 
6045.000000	65.043282 
6044.000000	64.940690 
6043.000000	64.846062 
6042.000000	64.763832 
6041.000000	64.699578 
6040.000000	64.659953 
6039.000000	64.651107 
6038.000000	64.677190 
6037.000000	64.736294 
6036.000000	64.819860 
6035.000000	64.913439 
6034.000000	64.999699 
6033.000000	65.063357 
6032.000000	65.094685 
6031.000000	65.092778 
6030.000000	65.064597 
6029.000000	65.022730 
6028.000000	64.980626 
6027.000000	64.948272 
6026.000000	64.929509 
6025.000000	64.921927 
6024.000000	64.917802 
6023.000000	64.908123 
6022.000000	64.885234 
6021.000000	64.846396 
6020.000000	64.794564 
6019.000000	64.736580 
6018.000000	64.683628 
6017.000000	64.646959 
6016.000000	64.637732 
6015.000000	64.662790 
6014.000000	64.726972 
6013.000000	64.831447 
6012.000000	64.975380 
6011.000000	65.155577 
6010.000000	65.366148 
6009.000000	65.598201 
6008.000000	65.839099 
6007.000000	66.072916 
6006.000000	66.282844 
6005.000000	66.452312 
6004.000000	66.568946 
6003.000000	66.624832 
6002.000000	66.618180 
6001.000000	66.552114 
6000.000000	66.435718 
5999.000000	66.281008 
5998.000000	66.103219 
5997.000000	65.916848 
5996.000000	65.737318 
5995.000000	65.575909 
5994.000000	65.440082 
5993.000000	65.331792 
5992.000000	65.248584 
5991.000000	65.184974 
5990.000000	65.134692 
5989.000000	65.092039 
5988.000000	65.052556 
5987.000000	65.014505 
5986.000000	64.978075 
5985.000000	64.944195 
5984.000000	64.912867 
5983.000000	64.882898 
5982.000000	64.851999 
5981.000000	64.817380 
5980.000000	64.777421 
5979.000000	64.733982 
5978.000000	64.692902 
5977.000000	64.663147 
5976.000000	64.654874 
5975.000000	64.676284 
5974.000000	64.731407 
5973.000000	64.816761 
5972.000000	64.923071 
5971.000000	65.037512 
5970.000000	65.146183 
5969.000000	65.238285 
5968.000000	65.306162 
5967.000000	65.346908 
5966.000000	65.360093 
5965.000000	65.348124 
5964.000000	65.312480 
5963.000000	65.252947 
5962.000000	65.168619 
5961.000000	65.059757 
5960.000000	64.928889 
5959.000000	64.782428 
5958.000000	64.631605 
5957.000000	64.491701 
5956.000000	64.379358 
5955.000000	64.309334 
5954.000000	64.291644 
5953.000000	64.329195 
5952.000000	64.417529 
5951.000000	64.545512 
5950.000000	64.697527 
5949.000000	64.855742 
5948.000000	65.002727 
5947.000000	65.123653 
5946.000000	65.206742 
5945.000000	65.245366 
5944.000000	65.238094 
5943.000000	65.189313 
5942.000000	65.107893 
5941.000000	65.006613 
5940.000000	64.900803 
5939.000000	64.805197 
5938.000000	64.733147 
5937.000000	64.693236 
5936.000000	64.689159 
5935.000000	64.718437 
5934.000000	64.773559 
5933.000000	64.843988 
5932.000000	64.918613 
5931.000000	64.988136 
5930.000000	65.046477 
5929.000000	65.091586 
5928.000000	65.124487 
5927.000000	65.148448 
5926.000000	65.166735 
5925.000000	65.181374 
5924.000000	65.191483 
5923.000000	65.194630 
5922.000000	65.186142 
5921.000000	65.160512 
5920.000000	65.112876 
5919.000000	65.041089 
5918.000000	64.947128 
5917.000000	64.837312 
5916.000000	64.722228 
5915.000000	64.614629 
5914.000000	64.527583 
5913.000000	64.472222 
5912.000000	64.454627 
5911.000000	64.474630 
5910.000000	64.525294 
5909.000000	64.594316 
5908.000000	64.666128 
5907.000000	64.725184 
5906.000000	64.758729 
5905.000000	64.758992 
5904.000000	64.724779 
5903.000000	64.661026 
5902.000000	64.576721 
5901.000000	64.482879 
5900.000000	64.389920 
5899.000000	64.306330 
5898.000000	64.239144 
5897.000000	64.194035 
5896.000000	64.175438 
5895.000000	64.187097 
5894.000000	64.232110 
5893.000000	64.312362 
5892.000000	64.426565 
5891.000000	64.569568 
5890.000000	64.731812 
5889.000000	64.899158 
5888.000000	65.054893 
5887.000000	65.181350 
5886.000000	65.262842 
5885.000000	65.288662 
5884.000000	65.255331 
5883.000000	65.168237 
5882.000000	65.040516 
5881.000000	64.892649 
5880.000000	64.749073 
5879.000000	64.634323 
5878.000000	64.568638 
5877.000000	64.564085 
5876.000000	64.622735 
5875.000000	64.734172 
5874.000000	64.877939 
5873.000000	65.025973 
5872.000000	65.148878 
5871.000000	65.221261 
5870.000000	65.227937 
5869.000000	65.166425 
5868.000000	65.047597 
5867.000000	64.892864 
5866.000000	64.728975 
5865.000000	64.582037 
5864.000000	64.471340 
5863.000000	64.406824 
5862.000000	64.386630 
5861.000000	64.400029 
5860.000000	64.430379 
5859.000000	64.460611 
5858.000000	64.477872 
5857.000000	64.475417 
5856.000000	64.455628 
5855.000000	64.427304 
5854.000000	64.403867 
5853.000000	64.397621 
5852.000000	64.417886 
5851.000000	64.467406 
5850.000000	64.542460 
5849.000000	64.633631 
5848.000000	64.727544 
5847.000000	64.809727 
5846.000000	64.868021 
5845.000000	64.894652 
5844.000000	64.886856 
5843.000000	64.846777 
5842.000000	64.780187 
5841.000000	64.694809 
5840.000000	64.598751 
5839.000000	64.499211 
5838.000000	64.402365 
5837.000000	64.313459 
5836.000000	64.237022 
5835.000000	64.177489 
5834.000000	64.139842 
5833.000000	64.128327 
5832.000000	64.145135 
5831.000000	64.189648 
5830.000000	64.257049 
5829.000000	64.339256 
5828.000000	64.425253 
5827.000000	64.503693 
5826.000000	64.564108 
5825.000000	64.600110 
5824.000000	64.610123 
5823.000000	64.598083 
5822.000000	64.572000 
5821.000000	64.541244 
5820.000000	64.513993 
5819.000000	64.495706 
5818.000000	64.488244 
5817.000000	64.490175 
5816.000000	64.498019 
5815.000000	64.508557 
5814.000000	64.520287 
5813.000000	64.534497 
5812.000000	64.554786 
5811.000000	64.585614 
5810.000000	64.630007 
5809.000000	64.688158 
5808.000000	64.755630 
5807.000000	64.824295 
5806.000000	64.883017 
5805.000000	64.920258 
5804.000000	64.926457 
5803.000000	64.897060 
5802.000000	64.833474 
5801.000000	64.743375 
5800.000000	64.639735 
5799.000000	64.537835 
5798.000000	64.454078 
5797.000000	64.402890 
5796.000000	64.394640 
5795.000000	64.433455 
5794.000000	64.517927 
5793.000000	64.641427 
5792.000000	64.792609 
5791.000000	64.956974 
5790.000000	65.118479 
5789.000000	65.261673 
5788.000000	65.373611 
5787.000000	65.445232 
5786.000000	65.471816 
5785.000000	65.453243 
5784.000000	65.394973 
5783.000000	65.305757 
5782.000000	65.196466 
5781.000000	65.077710 
5780.000000	64.960384 
5779.000000	64.852714 
5778.000000	64.761281 
5777.000000	64.689373 
5776.000000	64.638423 
5775.000000	64.606499 
5774.000000	64.589929 
5773.000000	64.582109 
5772.000000	64.574623 
5771.000000	64.558434 
5770.000000	64.525294 
5769.000000	64.469528 
5768.000000	64.388990 
5767.000000	64.286708 
5766.000000	64.170765 
5765.000000	64.053678 
5764.000000	63.950777 
5763.000000	63.877463 
5762.000000	63.847160 
5761.000000	63.868236 
5760.000000	63.943457 
5759.000000	64.069867 
5758.000000	64.239454 
5757.000000	64.439654 
5756.000000	64.655566 
5755.000000	64.871644 
5754.000000	65.073442 
5753.000000	65.248417 
5752.000000	65.387010 
5751.000000	65.483307 
5750.000000	65.534353 
5749.000000	65.542340 
5748.000000	65.510988 
5747.000000	65.446281 
5746.000000	65.354275 
5745.000000	65.242743 
5744.000000	65.118598 
5743.000000	64.988660 
5742.000000	64.860010 
5741.000000	64.740538 
5740.000000	64.638590 
5739.000000	64.562535 
5738.000000	64.519762 
5737.000000	64.515328 
5736.000000	64.550232 
5735.000000	64.620614 
5734.000000	64.717125 
5733.000000	64.826583 
5732.000000	64.933609 
5731.000000	65.023970 
5730.000000	65.086841 
5729.000000	65.117001 
5728.000000	65.115261 
5727.000000	65.088129 
5726.000000	65.044856 
5725.000000	64.996290 
5724.000000	64.953494 
5723.000000	64.924788 
5722.000000	64.914345 
5721.000000	64.922237 
5720.000000	64.946103 
5719.000000	64.981460 
5718.000000	65.023255 
5717.000000	65.067672 
5716.000000	65.112853 
5715.000000	65.158915 
5714.000000	65.207099 
5713.000000	65.257668 
5712.000000	65.308809 
5711.000000	65.356564 
5710.000000	65.395426 
5709.000000	65.419363 
5708.000000	65.423679 
5707.000000	65.407752 
5706.000000	65.375208 
5705.000000	65.333485 
5704.000000	65.291690 
5703.000000	65.258979 
5702.000000	65.240573 
5701.000000	65.237259 
5700.000000	65.243482 
5699.000000	65.249061 
5698.000000	65.241408 
5697.000000	65.209698 
5696.000000	65.147471 
5695.000000	65.054440 
5694.000000	64.937400 
5693.000000	64.808535 
5692.000000	64.683318 
5691.000000	64.576292 
5690.000000	64.499258 
5689.000000	64.458775 
5688.000000	64.455485 
5687.000000	64.484477 
5686.000000	64.537549 
5685.000000	64.605474 
5684.000000	64.679384 
5683.000000	64.752626 
5682.000000	64.821481 
5681.000000	64.885401 
5680.000000	64.946079 
5679.000000	65.006113 
5678.000000	65.067887 
5677.000000	65.131807 
5676.000000	65.197038 
5675.000000	65.259766 
5674.000000	65.314102 
5673.000000	65.352392 
5672.000000	65.368032 
5671.000000	65.355730 
5670.000000	65.313625 
5669.000000	65.243625 
5668.000000	65.152287 
5667.000000	65.048837 
5666.000000	64.944195 
5665.000000	64.847898 
5664.000000	64.767122 
5663.000000	64.704346 
5662.000000	64.657473 
5661.000000	64.621329 
5660.000000	64.589762 
5659.000000	64.556789 
5658.000000	64.518666 
5657.000000	64.475870 
5656.000000	64.433670 
5655.000000	64.400720 
5654.000000	64.387464 
5653.000000	64.402675 
5652.000000	64.451599 
5651.000000	64.534950 
5650.000000	64.648175 
5649.000000	64.781498 
5648.000000	64.921832 
5647.000000	65.056204 
5646.000000	65.172815 
5645.000000	65.263462 
5644.000000	65.323495 
5643.000000	65.352535 
5642.000000	65.352916 
5641.000000	65.328621 
5640.000000	65.284490 
5639.000000	65.225315 
5638.000000	65.157246 
5637.000000	65.087890 
5636.000000	65.027976 
5635.000000	64.990639 
5634.000000	64.990353 
5633.000000	65.040159 
5632.000000	65.147519 
5631.000000	65.311264 
5630.000000	65.519404 
5629.000000	65.749692 
5628.000000	65.972280 
5627.000000	66.155147 
5626.000000	66.270947 
5625.000000	66.302299 
5624.000000	66.245698 
5623.000000	66.111588 
5622.000000	65.923118 
5621.000000	65.709686 
5620.000000	65.500831 
5619.000000	65.319943 
5618.000000	65.181326 
5617.000000	65.088868 
5616.000000	65.039443 
5615.000000	65.024280 
5614.000000	65.033578 
5613.000000	65.058660 
5612.000000	65.094399 
5611.000000	65.137481 
5610.000000	65.183877 
5609.000000	65.229082 
5608.000000	65.266394 
5607.000000	65.288567 
5606.000000	65.288400 
5605.000000	65.261888 
5604.000000	65.209650 
5603.000000	65.138316 
5602.000000	65.059876 
5601.000000	64.989209 
5600.000000	64.941787 
5599.000000	64.929723 
5598.000000	64.960241 
5597.000000	65.034723 
5596.000000	65.148639 
5595.000000	65.293264 
5594.000000	65.456080 
5593.000000	65.624117 
5592.000000	65.782999 
5591.000000	65.919685 
5590.000000	66.021180 
5589.000000	66.075778 
5588.000000	66.073918 
5587.000000	66.010761 
5586.000000	65.887141 
5585.000000	65.711021 
5584.000000	65.497064 
5583.000000	65.266251 
5582.000000	65.041995 
5581.000000	64.847302 
5580.000000	64.700508 
5579.000000	64.612531 
5578.000000	64.585757 
5577.000000	64.614629 
5576.000000	64.687633 
5575.000000	64.790487 
5574.000000	64.909291 
5573.000000	65.033268 
5572.000000	65.154767 
5571.000000	65.270185 
5570.000000	65.377521 
5569.000000	65.476012 
5568.000000	65.564274 
5567.000000	65.639805 
5566.000000	65.700197 
5565.000000	65.741848 
5564.000000	65.763211 
5563.000000	65.762209 
5562.000000	65.738606 
5561.000000	65.691828 
5560.000000	65.622496 
5559.000000	65.532183 
5558.000000	65.424013 
5557.000000	65.304112 
5556.000000	65.182137 
5555.000000	65.070128 
5554.000000	64.980626 
5553.000000	64.924860 
5552.000000	64.910364 
5551.000000	64.938735 
5550.000000	65.005183 
5549.000000	65.098595 
5548.000000	65.204000 
5547.000000	65.306544 
5546.000000	65.394234 
5545.000000	65.459609 
5544.000000	65.500330 
5543.000000	65.519666 
5542.000000	65.523838 
5541.000000	65.518450 
5540.000000	65.507531 
5539.000000	65.492343 
5538.000000	65.472722 
5537.000000	65.448045 
5536.000000	65.420198 
5535.000000	65.393996 
5534.000000	65.378785 
5533.000000	65.386533 
5532.000000	65.429639 
5531.000000	65.517282 
5530.000000	65.651774 
5529.000000	65.826869 
5528.000000	66.026282 
5527.000000	66.226434 
5526.000000	66.399192 
5525.000000	66.517663 
5524.000000	66.559958 
5523.000000	66.513705 
5522.000000	66.377806 
5521.000000	66.162776 
5520.000000	65.887737 
5519.000000	65.577340 
5518.000000	65.257954 
5517.000000	64.954328 
5516.000000	64.686942 
5515.000000	64.471197 
5514.000000	64.316534 
5513.000000	64.228034 
5512.000000	64.206337 
5511.000000	64.249420 
5510.000000	64.350438 
5509.000000	64.499950 
5508.000000	64.683961 
5507.000000	64.886140 
5506.000000	65.086555 
5505.000000	65.265417 
5504.000000	65.404462 
5503.000000	65.489816 
5502.000000	65.513873 
5501.000000	65.475940 
5500.000000	65.382719 
5499.000000	65.246272 
5498.000000	65.082597 
5497.000000	64.909291 
5496.000000	64.743566 
5495.000000	64.600229 
5494.000000	64.490509 
5493.000000	64.421629 
5492.000000	64.396953 
5491.000000	64.415884 
5490.000000	64.474844 
5489.000000	64.567184 
5488.000000	64.684510 
5487.000000	64.816927 
5486.000000	64.954209 
5485.000000	65.084218 
5484.000000	65.196061 
5483.000000	65.280508 
5482.000000	65.332007 
5481.000000	65.349197 
5480.000000	65.335083 
5479.000000	65.297436 
5478.000000	65.245628 
5477.000000	65.190052 
5476.000000	65.138149 
5475.000000	65.093898 
5474.000000	65.057206 
5473.000000	65.025639 
5472.000000	64.995074 
5471.000000	64.962077 
5470.000000	64.925837 
5469.000000	64.888906 
5468.000000	64.856600 
5467.000000	64.835524 
5466.000000	64.830660 
5465.000000	64.843869 
5464.000000	64.872479 
5463.000000	64.909958 
5462.000000	64.947247 
5461.000000	64.975309 
5460.000000	64.987659 
5459.000000	64.981937 
5458.000000	64.959907 
5457.000000	64.927363 
5456.000000	64.891839 
5455.000000	64.861416 
5454.000000	64.842939 
5453.000000	64.839911 
5452.000000	64.852809 
5451.000000	64.877653 
5450.000000	64.907693 
5449.000000	64.934349 
5448.000000	64.949512 
5447.000000	64.947414 
5446.000000	64.926123 
5445.000000	64.888381 
5444.000000	64.840865 
5443.000000	64.792227 
5442.000000	64.750504 
5441.000000	64.720988 
5440.000000	64.704561 
5439.000000	64.696431 
5438.000000	64.688038 
5437.000000	64.668989 
5436.000000	64.631724 
5435.000000	64.574313 
5434.000000	64.502835 
5433.000000	64.430189 
5432.000000	64.373826 
5431.000000	64.350271 
5430.000000	64.371848 
5429.000000	64.441204 
5428.000000	64.552140 
5427.000000	64.690995 
5426.000000	64.839434 
5425.000000	64.979410 
5424.000000	65.095901 
5423.000000	65.179920 
5422.000000	65.228724 
5421.000000	65.244531 
5420.000000	65.233325 
5419.000000	65.202403 
5418.000000	65.159440 
5417.000000	65.111184 
5416.000000	65.063881 
5415.000000	65.022945 
5414.000000	64.992904 
5413.000000	64.976978 
5412.000000	64.975666 
5411.000000	64.986491 
5410.000000	65.003919 
5409.000000	65.020704 
5408.000000	65.028858 
5407.000000	65.022182 
5406.000000	64.999294 
5405.000000	64.962720 
5404.000000	64.918208 
5403.000000	64.872026 
5402.000000	64.829993 
5401.000000	64.794301 
5400.000000	64.762854 
5399.000000	64.730000 
5398.000000	64.688134 
5397.000000	64.631128 
5396.000000	64.557504 
5395.000000	64.470887 
5394.000000	64.379191 
5393.000000	64.293503 
5392.000000	64.225244 
5391.000000	64.181971 
5390.000000	64.164900 
5389.000000	64.168763 
5388.000000	64.183378 
5387.000000	64.196538 
5386.000000	64.198279 
5385.000000	64.184021 
5384.000000	64.157271 
5383.000000	64.128446 
5382.000000	64.113807 
5381.000000	64.131069 
5380.000000	64.195370 
5379.000000	64.315271 
5378.000000	64.489197 
5377.000000	64.706492 
5376.000000	64.946269 
5375.000000	65.183496 
5374.000000	65.389585 
5373.000000	65.538978 
5372.000000	65.611314 
5371.000000	65.596342 
5370.000000	65.493941 
5369.000000	65.314221 
5368.000000	65.076470 
5367.000000	64.806914 
5366.000000	64.534306 
5365.000000	64.286422 
5364.000000	64.085602 
5363.000000	63.946676 
5362.000000	63.874244 
5361.000000	63.863420 
5360.000000	63.900756 
5359.000000	63.968110 
5358.000000	64.046978 
5357.000000	64.122343 
5356.000000	64.183902 
5355.000000	64.227366 
5354.000000	64.252686 
5353.000000	64.263463 
5352.000000	64.262413 
5351.000000	64.252233 
5350.000000	64.234590 
5349.000000	64.211249 
5348.000000	64.185261 
5347.000000	64.160871 
5346.000000	64.144444 
5345.000000	64.142465 
5344.000000	64.159727 
5343.000000	64.198350 
5342.000000	64.257621 
5341.000000	64.332342 
5340.000000	64.413619 
5339.000000	64.490175 
5338.000000	64.550614 
5337.000000	64.585423 
5336.000000	64.589214 
5335.000000	64.559578 
5334.000000	64.497351 
5333.000000	64.406156 
5332.000000	64.291572 
5331.000000	64.161705 
5330.000000	64.026069 
5329.000000	63.893723 
5328.000000	63.772845 
5327.000000	63.670945 
5326.000000	63.593983 
5325.000000	63.545036 
5324.000000	63.524937 
5323.000000	63.532161 
5322.000000	63.562870 
5321.000000	63.613080 
5320.000000	63.675498 
5319.000000	63.738727 
5318.000000	63.788890 
5317.000000	63.810539 
5316.000000	63.791680 
5315.000000	63.725948 
5314.000000	63.616633 
5313.000000	63.476085 
5312.000000	63.325643 
5311.000000	63.191533 
5310.000000	63.097715 
5309.000000	63.060760 
5308.000000	63.078713 
5307.000000	63.129687 
5306.000000	63.176441 
5305.000000	63.175106 
5304.000000	63.081669 
5303.000000	62.866258 
5302.000000	62.521314 
5301.000000	62.069320 
5300.000000	61.556935 
5299.000000	61.052274 
5298.000000	60.625720 
5297.000000	60.342645 
5296.000000	60.251235 
5295.000000	60.372328 
5294.000000	60.699319 
5293.000000	61.192560 
5292.000000	61.787080 
5291.000000	62.399840 
5290.000000	62.943577 
5289.000000	63.342142 
5288.000000	63.538455 
5287.000000	63.512945 
5286.000000	63.282203 
5285.000000	62.904286 
5284.000000	62.463092 
5283.000000	62.062501 
5282.000000	61.804270 
5281.000000	61.775684 
5280.000000	62.030434 
5279.000000	62.579846 
5278.000000	63.385558 
5277.000000	64.360499 
5276.000000	65.381121 
5275.000000	66.305208 
5274.000000	66.999864 
5273.000000	67.365527 
5272.000000	67.358088 
5271.000000	66.994833 
5270.000000	66.353607 
5269.000000	65.553259 
5268.000000	64.732789 
5267.000000	64.023756 
5266.000000	63.528680 
5265.000000	63.308954 
5264.000000	63.377499 
5263.000000	63.709139 
5262.000000	64.246535 
5261.000000	64.919161 
5260.000000	65.652155 
5259.000000	66.375517 
5258.000000	67.032837 
5257.000000	67.581629 
5256.000000	67.994165 
5255.000000	68.252944 
5254.000000	68.354773 
5253.000000	68.307232 
5252.000000	68.131828 
5251.000000	67.858791 
5250.000000	67.523074 
5249.000000	67.157030 
5248.000000	66.788363 
5247.000000	66.434574 
5246.000000	66.106653 
5245.000000	65.807628 
5244.000000	65.534639 
5243.000000	65.283823 
5242.000000	65.055227 
5241.000000	64.853954 
5240.000000	64.684438 
5239.000000	64.555191 
5238.000000	64.470815 
5237.000000	64.436793 
5236.000000	64.453291 
5235.000000	64.518928 
5234.000000	64.626479 
5233.000000	64.767074 
5232.000000	64.929771 
5231.000000	65.102195 
5230.000000	65.270757 
5229.000000	65.421080 
5228.000000	65.538239 
5227.000000	65.613412 
5226.000000	65.644907 
5225.000000	65.638852 
5224.000000	65.606379 
5223.000000	65.560340 
5222.000000	65.510344 
5221.000000	65.460085 
5220.000000	65.405845 
5219.000000	65.338110 
5218.000000	65.245270 
5217.000000	65.120792 
5216.000000	64.965510 
5215.000000	64.788579 
5214.000000	64.606904 
5213.000000	64.441680 
5212.000000	64.313530 
5211.000000	64.235615 
5210.000000	64.212775 
5209.000000	64.238929 
5208.000000	64.301133 
5207.000000	64.382123 
5206.000000	64.466452 
5205.000000	64.543271 
5204.000000	64.609432 
5203.000000	64.668250 
5202.000000	64.727497 
5201.000000	64.794778 
5200.000000	64.877653 
5199.000000	64.980244 
5198.000000	65.102672 
5197.000000	65.239834 
5196.000000	65.383052 
5195.000000	65.520286 
5194.000000	65.638518 
5193.000000	65.724778 
5192.000000	65.768289 
5191.000000	65.762114 
5190.000000	65.705895 
5189.000000	65.605425 
5188.000000	65.472126 
5187.000000	65.321183 
5186.000000	65.170907 
5185.000000	65.038108 
5184.000000	64.935970 
5183.000000	64.871454 
5182.000000	64.845728 
5181.000000	64.853382 
5180.000000	64.884686 
5179.000000	64.927220 
5178.000000	64.968895 
5177.000000	64.999055 
5176.000000	65.010070 
5175.000000	64.997172 
5174.000000	64.957857 
5173.000000	64.893531 
5172.000000	64.809155 
5171.000000	64.712309 
5170.000000	64.612531 
5169.000000	64.521002 
5168.000000	64.448952 
5167.000000	64.405775 
5166.000000	64.397621 
5165.000000	64.426851 
5164.000000	64.491772 
5163.000000	64.586162 
5162.000000	64.701128 
5161.000000	64.826202 
5160.000000	64.951086 
5159.000000	65.067076 
5158.000000	65.167593 
5157.000000	65.248060 
5156.000000	65.305852 
5155.000000	65.340352 
5154.000000	65.351557 
5153.000000	65.339994 
5152.000000	65.306377 
5151.000000	65.253329 
5150.000000	65.183711 
5149.000000	65.101528 
5148.000000	65.011215 
5147.000000	64.917922 
5146.000000	64.826703 
5145.000000	64.742326 
5144.000000	64.668059 
5143.000000	64.605855 
5142.000000	64.555811 
5141.000000	64.517450 
5140.000000	64.489412 
5139.000000	64.471316 
5138.000000	64.463520 
5137.000000	64.468073 
5136.000000	64.487433 
5135.000000	64.524197 
5134.000000	64.579439 
5133.000000	64.651942 
5132.000000	64.736676 
5131.000000	64.825725 
5130.000000	64.909195 
5129.000000	64.977598 
5128.000000	65.023541 
5127.000000	65.043973 
5126.000000	65.041184 
5125.000000	65.021800 
5124.000000	64.995884 
5123.000000	64.972472 
5122.000000	64.957642 
5121.000000	64.952230 
5120.000000	64.952111 
5119.000000	64.949393 
5118.000000	64.935398 
5117.000000	64.904212 
5116.000000	64.854788 
5115.000000	64.792180 
5114.000000	64.725947 
5113.000000	64.667868 
5112.000000	64.627790 
5111.000000	64.610528 
5110.000000	64.614248 
5109.000000	64.630413 
5108.000000	64.647221 
5107.000000	64.652633 
5106.000000	64.639544 
5105.000000	64.607644 
5104.000000	64.564895 
5103.000000	64.524579 
5102.000000	64.503145 
5101.000000	64.514565 
5100.000000	64.567708 
5099.000000	64.663696 
5098.000000	64.795160 
5097.000000	64.948201 
5096.000000	65.104556 
5095.000000	65.246200 
5094.000000	65.357160 
5093.000000	65.426492 
5092.000000	65.449094 
5091.000000	65.425634 
5090.000000	65.361595 
5089.000000	65.265655 
5088.000000	65.148186 
5087.000000	65.019559 
5086.000000	64.889860 
5085.000000	64.767765 
5084.000000	64.660191 
5083.000000	64.572691 
5082.000000	64.509153 
5081.000000	64.473128 
5080.000000	64.466571 
5079.000000	64.491224 
5078.000000	64.547395 
5077.000000	64.633798 
5076.000000	64.745807 
5075.000000	64.875578 
5074.000000	65.011715 
5073.000000	65.140438 
5072.000000	65.247821 
5071.000000	65.321493 
5070.000000	65.352702 
5069.000000	65.337753 
5068.000000	65.279150 
5067.000000	65.184497 
5066.000000	65.065240 
5065.000000	64.935016 
5064.000000	64.807367 
5063.000000	64.693665 
5062.000000	64.601850 
5061.000000	64.535832 
5060.000000	64.496064 
5059.000000	64.480257 
5058.000000	64.485359 
5057.000000	64.507293 
5056.000000	64.543652 
5055.000000	64.592671 
5054.000000	64.654803 
5053.000000	64.730453 
5052.000000	64.820051 
5051.000000	64.922833 
5050.000000	65.034937 
5049.000000	65.149235 
5048.000000	65.254759 
5047.000000	65.339231 
5046.000000	65.389919 
5045.000000	65.397047 
5044.000000	65.355443 
5043.000000	65.266656 
5042.000000	65.138626 
5041.000000	64.985203 
5040.000000	64.823508 
5039.000000	64.671444 
5038.000000	64.545106 
5037.000000	64.456510 
5036.000000	64.412522 
5035.000000	64.414095 
5034.000000	64.456510 
5033.000000	64.530849 
5032.000000	64.625287 
5031.000000	64.727759 
5030.000000	64.826297 
5029.000000	64.911770 
5028.000000	64.977622 
5027.000000	65.021848 
5026.000000	65.045952 
5025.000000	65.055084 
5024.000000	65.055966 
5023.000000	65.055799 
5022.000000	65.061140 
5021.000000	65.075874 
5020.000000	65.101122 
5019.000000	65.134882 
5018.000000	65.173482 
5017.000000	65.212130 
5016.000000	65.246343 
5015.000000	65.272951 
5014.000000	65.290641 
5013.000000	65.299510 
5012.000000	65.300893 
5011.000000	65.296697 
5010.000000	65.288805 
5009.000000	65.279102 
5008.000000	65.269088 
5007.000000	65.260148 
5006.000000	65.253257 
5005.000000	65.249967 
5004.000000	65.251398 
5003.000000	65.257978 
5002.000000	65.268802 
5001.000000	65.281391 
5000.000000	65.291976 
4999.000000	65.295982 
4998.000000	65.289425 
4997.000000	65.269589 
4996.000000	65.236210 
4995.000000	65.191578 
4994.000000	65.140604 
4993.000000	65.089726 
4992.000000	65.045833 
4991.000000	65.015077 
4990.000000	65.000796 
4989.000000	65.003085 
4988.000000	65.018224 
4987.000000	65.039610 
4986.000000	65.058588 
4985.000000	65.066480 
4984.000000	65.056753 
4983.000000	65.026640 
4982.000000	64.977574 
4981.000000	64.915227 
4980.000000	64.848232 
4979.000000	64.786291 
4978.000000	64.738035 
4977.000000	64.709568 
4976.000000	64.703488 
4975.000000	64.719200 
4974.000000	64.753079 
4973.000000	64.800310 
4972.000000	64.856529 
4971.000000	64.918446 
4970.000000	64.984202 
4969.000000	65.052175 
4968.000000	65.119934 
4967.000000	65.183544 
4966.000000	65.237402 
4965.000000	65.274620 
4964.000000	65.288686 
4963.000000	65.275168 
4962.000000	65.233898 
4961.000000	65.168738 
4960.000000	65.087246 
4959.000000	64.999485 
4958.000000	64.916253 
4957.000000	64.846920 
4956.000000	64.797472 
4955.000000	64.769983 
4954.000000	64.762473 
4953.000000	64.769387 
4952.000000	64.782857 
4951.000000	64.794445 
4950.000000	64.796853 
4949.000000	64.784216 
4948.000000	64.754223 
4947.000000	64.707136 
4946.000000	64.647245 
4945.000000	64.580798 
4944.000000	64.516377 
4943.000000	64.462685 
4942.000000	64.427709 
4941.000000	64.416933 
4940.000000	64.432716 
4939.000000	64.473104 
4938.000000	64.533162 
4937.000000	64.606070 
4936.000000	64.684009 
4935.000000	64.759397 
4934.000000	64.825987 
4933.000000	64.879345 
4932.000000	64.917063 
4931.000000	64.938259 
4930.000000	64.944148 
4929.000000	64.937353 
4928.000000	64.922022 
4927.000000	64.903402 
4926.000000	64.886593 
4925.000000	64.875793 
4924.000000	64.874505 
4923.000000	64.884805 
4922.000000	64.906692 
4921.000000	64.938545 
4920.000000	64.977717 
4919.000000	65.021133 
4918.000000	65.066242 
4917.000000	65.111017 
4916.000000	65.153956 
4915.000000	65.193629 
4914.000000	65.228581 
4913.000000	65.256643 
4912.000000	65.275216 
4911.000000	65.281701 
4910.000000	65.274715 
4909.000000	65.253925 
4908.000000	65.221357 
4907.000000	65.180039 
4906.000000	65.134143 
4905.000000	65.087294 
4904.000000	65.042281 
4903.000000	65.001249 
4902.000000	64.965891 
4901.000000	64.938163 
4900.000000	64.920544 
4899.000000	64.916515 
4898.000000	64.929723 
4897.000000	64.962983 
4896.000000	65.016555 
4895.000000	65.086817 
4894.000000	65.165638 
4893.000000	65.241026 
4892.000000	65.299129 
4891.000000	65.327072 
4890.000000	65.315556 
4889.000000	65.261769 
4888.000000	65.169668 
4887.000000	65.049600 
4886.000000	64.916086 
4885.000000	64.785003 
4884.000000	64.670395 
4883.000000	64.582133 
4882.000000	64.524364 
4881.000000	64.495968 
4880.000000	64.491677 
4879.000000	64.504194 
4878.000000	64.526271 
4877.000000	64.552164 
4876.000000	64.578700 
4875.000000	64.605331 
4874.000000	64.633297 
4873.000000	64.664483 
4872.000000	64.699816 
4871.000000	64.738392 
4870.000000	64.777660 
4869.000000	64.813423 
4868.000000	64.840865 
4867.000000	64.855742 
4866.000000	64.855384 
4865.000000	64.840006 
4864.000000	64.812493 
4863.000000	64.778709 
4862.000000	64.746212 
4861.000000	64.723062 
4860.000000	64.716553 
4859.000000	64.731287 
4858.000000	64.768552 
4857.000000	64.825057 
4856.000000	64.893627 
4855.000000	64.964222 
4854.000000	65.026092 
4853.000000	65.069961 
4852.000000	65.089797 
4851.000000	65.084815 
4850.000000	65.059208 
4849.000000	65.021848 
4848.000000	64.984035 
4847.000000	64.956688 
4846.000000	64.947795 
4845.000000	64.960765 
4844.000000	64.993524 
4843.000000	65.039610 
4842.000000	65.089583 
4841.000000	65.133929 
4840.000000	65.165257 
4839.000000	65.180087 
4838.000000	65.179443 
4837.000000	65.167713 
4836.000000	65.151429 
4835.000000	65.136861 
4834.000000	65.128469 
4833.000000	65.127992 
4832.000000	65.133905 
4831.000000	65.143227 
4830.000000	65.151238 
4829.000000	65.154051 
4828.000000	65.148186 
4827.000000	65.132212 
4826.000000	65.105271 
4825.000000	65.067458 
4824.000000	65.018820 
4823.000000	64.959430 
4822.000000	64.889955 
4821.000000	64.812326 
4820.000000	64.730262 
4819.000000	64.649510 
4818.000000	64.577174 
4817.000000	64.520883 
4816.000000	64.487290 
4815.000000	64.480996 
4814.000000	64.502835 
4813.000000	64.550042 
4812.000000	64.616489 
4811.000000	64.694023 
4810.000000	64.774012 
4809.000000	64.848685 
4808.000000	64.912176 
4807.000000	64.961266 
4806.000000	64.995288 
4805.000000	65.015482 
4804.000000	65.024328 
4803.000000	65.024423 
4802.000000	65.018105 
4801.000000	65.006995 
4800.000000	64.992523 
4799.000000	64.975666 
4798.000000	64.957571 
4797.000000	64.939403 
4796.000000	64.922904 
4795.000000	64.910125 
4794.000000	64.903330 
4793.000000	64.904713 
4792.000000	64.916276 
4791.000000	64.938926 
4790.000000	64.972591 
4789.000000	65.016126 
4788.000000	65.067458 
4787.000000	65.123748 
4786.000000	65.181660 
4785.000000	65.237784 
4784.000000	65.288710 
4783.000000	65.331482 
4782.000000	65.363502 
4781.000000	65.383028 
4780.000000	65.389013 
4779.000000	65.381813 
4778.000000	65.362548 
4777.000000	65.333509 
4776.000000	65.297508 
4775.000000	65.258264 
4774.000000	65.219259 
4773.000000	65.183591 
4772.000000	65.153408 
4771.000000	65.129923 
4770.000000	65.113425 
4769.000000	65.103507 
4768.000000	65.100121 
4767.000000	65.103745 
4766.000000	65.115332 
4765.000000	65.135622 
4764.000000	65.164208 
4763.000000	65.198969 
4762.000000	65.235567 
4761.000000	65.268087 
4760.000000	65.290141 
4759.000000	65.296339 
4758.000000	65.284061 
4757.000000	65.254068 
4756.000000	65.210628 
4755.000000	65.160846 
4754.000000	65.112853 
4753.000000	65.074157 
4752.000000	65.050053 
4751.000000	65.042734 
4750.000000	65.051317 
4749.000000	65.072035 
4748.000000	65.099740 
4747.000000	65.128612 
4746.000000	65.153717 
4745.000000	65.171027 
4744.000000	65.177822 
4743.000000	65.172576 
4742.000000	65.154933 
4741.000000	65.126085 
4740.000000	65.088486 
4739.000000	65.046596 
4738.000000	65.006065 
4737.000000	64.973258 
4736.000000	64.954113 
4735.000000	64.952921 
4734.000000	64.971256 
4733.000000	65.007615 
4732.000000	65.057754 
4731.000000	65.115189 
4730.000000	65.173220 
4729.000000	65.226173 
4728.000000	65.270805 
4727.000000	65.306448 
4726.000000	65.335106 
4725.000000	65.360403 
4724.000000	65.385985 
4723.000000	65.414476 
4722.000000	65.446209 
4721.000000	65.479063 
4720.000000	65.509080 
4719.000000	65.532040 
4718.000000	65.544533 
4717.000000	65.545558 
4716.000000	65.536546 
4715.000000	65.521311 
4714.000000	65.504717 
4713.000000	65.491580 
4712.000000	65.484952 
4711.000000	65.485596 
4710.000000	65.491914 
4709.000000	65.500378 
4708.000000	65.507245 
4707.000000	65.509247 
4706.000000	65.504431 
4705.000000	65.492439 
4704.000000	65.474295 
4703.000000	65.452098 
4702.000000	65.428066 
4701.000000	65.404462 
4700.000000	65.382385 
4699.000000	65.362286 
4698.000000	65.344476 
4697.000000	65.328717 
4696.000000	65.314507 
4695.000000	65.301132 
4694.000000	65.288376 
4693.000000	65.275716 
4692.000000	65.262341 
4691.000000	65.247368 
4690.000000	65.230154 
4689.000000	65.210461 
4688.000000	65.188574 
4687.000000	65.165901 
4686.000000	65.144681 
4685.000000	65.127706 
4684.000000	65.117859 
4683.000000	65.117263 
4682.000000	65.126657 
4681.000000	65.145659 
4680.000000	65.172410 
4679.000000	65.203619 
4678.000000	65.235090 
4677.000000	65.262985 
4676.000000	65.283799 
4675.000000	65.295004 
4674.000000	65.294814 
4673.000000	65.282797 
4672.000000	65.259075 
4671.000000	65.224146 
4670.000000	65.178847 
4669.000000	65.124487 
4668.000000	65.062880 
4667.000000	64.996910 
4666.000000	64.930009 
4665.000000	64.866161 
4664.000000	64.809203 
4663.000000	64.762258 
4662.000000	64.727210 
4661.000000	64.704322 
4660.000000	64.692950 
4659.000000	64.691925 
4658.000000	64.700412 
4657.000000	64.717984 
4656.000000	64.745163 
4655.000000	64.782977 
4654.000000	64.832353 
4653.000000	64.893603 
4652.000000	64.965462 
4651.000000	65.045237 
4650.000000	65.128922 
4649.000000	65.211749 
4648.000000	65.289068 
4647.000000	65.356421 
4646.000000	65.410900 
4645.000000	65.450119 
4644.000000	65.472698 
4643.000000	65.477204 
4642.000000	65.463137 
4641.000000	65.430378 
4640.000000	65.379929 
4639.000000	65.314126 
4638.000000	65.237736 
4637.000000	65.156745 
4636.000000	65.078091 
4635.000000	65.008521 
4634.000000	64.953613 
4633.000000	64.916825 
4632.000000	64.899230 
4631.000000	64.899230 
4630.000000	64.913511 
4629.000000	64.938163 
4628.000000	64.969730 
4627.000000	65.005373 
4626.000000	65.043187 
4625.000000	65.082216 
4624.000000	65.122175 
4623.000000	65.162038 
4622.000000	65.200424 
4621.000000	65.235519 
4620.000000	65.265250 
4619.000000	65.287971 
4618.000000	65.302562 
4617.000000	65.309357 
4616.000000	65.309572 
4615.000000	65.305209 
4614.000000	65.298461 
4613.000000	65.291619 
4612.000000	65.286421 
4611.000000	65.284037 
4610.000000	65.284371 
4609.000000	65.286445 
4608.000000	65.288186 
4607.000000	65.286970 
4606.000000	65.279316 
4605.000000	65.261578 
4604.000000	65.230250 
4603.000000	65.183162 
4602.000000	65.119647 
4601.000000	65.041685 
4600.000000	64.953875 
4599.000000	64.863324 
4598.000000	64.778852 
4597.000000	64.709305 
4596.000000	64.662122 
4595.000000	64.641547 
4594.000000	64.647674 
4593.000000	64.676237 
4592.000000	64.719033 
4591.000000	64.766168 
4590.000000	64.807629 
4589.000000	64.835786 
4588.000000	64.846229 
4587.000000	64.838814 
4586.000000	64.816856 
4585.000000	64.785933 
4584.000000	64.751887 
4583.000000	64.719128 
4582.000000	64.689540 
4581.000000	64.662384 
4580.000000	64.635086 
4579.000000	64.604353 
4578.000000	64.567923 
4577.000000	64.525508 
4576.000000	64.479589 
4575.000000	64.434909 
4574.000000	64.397692 
4573.000000	64.373660 
4572.000000	64.367246 
4571.000000	64.379930 
4570.000000	64.410448 
4569.000000	64.455246 
4568.000000	64.508938 
4567.000000	64.565062 
4566.000000	64.617419 
4565.000000	64.661121 
4564.000000	64.692950 
4563.000000	64.711236 
4562.000000	64.715909 
4561.000000	64.707946 
4560.000000	64.689278 
4559.000000	64.662718 
4558.000000	64.631319 
4557.000000	64.598321 
4556.000000	64.567065 
4555.000000	64.540910 
4554.000000	64.522480 
4553.000000	64.513564 
4552.000000	64.513897 
4551.000000	64.521479 
4550.000000	64.532566 
4549.000000	64.542675 
4548.000000	64.547109 
4547.000000	64.542746 
4546.000000	64.528703 
4545.000000	64.507246 
4544.000000	64.483428 
4543.000000	64.464449 
4542.000000	64.457702 
4541.000000	64.469146 
4540.000000	64.501810 
4539.000000	64.554381 
4538.000000	64.621424 
4537.000000	64.693880 
4536.000000	64.761161 
4535.000000	64.812684 
4534.000000	64.840269 
4533.000000	64.839220 
4532.000000	64.809298 
4531.000000	64.754390 
4530.000000	64.681410 
4529.000000	64.598917 
4528.000000	64.515399 
4527.000000	64.438271 
4526.000000	64.373183 
4525.000000	64.323925 
4524.000000	64.292454 
4523.000000	64.279341 
4522.000000	64.283680 
4521.000000	64.303231 
4520.000000	64.334416 
4519.000000	64.371871 
4518.000000	64.409351 
4517.000000	64.440512 
4516.000000	64.460301 
4515.000000	64.465475 
4514.000000	64.455676 
4513.000000	64.433073 
4512.000000	64.402413 
4511.000000	64.369726 
4510.000000	64.341211 
4509.000000	64.322042 
4508.000000	64.315414 
4507.000000	64.322638 
4506.000000	64.342617 
4505.000000	64.372348 
4504.000000	64.407467 
4503.000000	64.443349 
4502.000000	64.475536 
4501.000000	64.500498 
4500.000000	64.515662 
4499.000000	64.519524 
4498.000000	64.511060 
4497.000000	64.489579 
4496.000000	64.454865 
4495.000000	64.407539 
4494.000000	64.348983 
4493.000000	64.281916 
4492.000000	64.210057 
4491.000000	64.138340 
4490.000000	64.071893 
4489.000000	64.016056 
4488.000000	63.974595 
4487.000000	63.950514 
4486.000000	63.944888 
4485.000000	63.958477 
4484.000000	63.990306 
4483.000000	64.039587 
4482.000000	64.104795 
4481.000000	64.184212 
4480.000000	64.275050 
4479.000000	64.373326 
4478.000000	64.473223 
4477.000000	64.567804 
4476.000000	64.649677 
4475.000000	64.712524 
4474.000000	64.752197 
4473.000000	64.767646 
4472.000000	64.761543 
4471.000000	64.738535 
4470.000000	64.704442 
4469.000000	64.664149 
4468.000000	64.620685 
4467.000000	64.575171 
4466.000000	64.527106 
4465.000000	64.475750 
4464.000000	64.421153 
4463.000000	64.364767 
4462.000000	64.310336 
4461.000000	64.262723 
4460.000000	64.228010 
4459.000000	64.211869 
4458.000000	64.218425 
4457.000000	64.249300 
4456.000000	64.302420 
4455.000000	64.371418 
4454.000000	64.447402 
4453.000000	64.519762 
4452.000000	64.579892 
4451.000000	64.622855 
4450.000000	64.648604 
4449.000000	64.661788 
4448.000000	64.669132 
4447.000000	64.677262 
4446.000000	64.689803 
4445.000000	64.706182 
4444.000000	64.722418 
4443.000000	64.732575 
4442.000000	64.731407 
4441.000000	64.715981 
4440.000000	64.684987 
4439.000000	64.639258 
4438.000000	64.581727 
4437.000000	64.516878 
4436.000000	64.449214 
4435.000000	64.383649 
4434.000000	64.324283 
4433.000000	64.275288 
4432.000000	64.242410 
4431.000000	64.230799 
4430.000000	64.242362 
4429.000000	64.276742 
4428.000000	64.329695 
4427.000000	64.394998 
4426.000000	64.467906 
4425.000000	64.542579 
4424.000000	64.606857 
4423.000000	64.653372 
4422.000000	64.687442 
4421.000000	64.712667 
4420.000000	64.725160 
4419.000000	64.723253 
4418.000000	64.707612 
4417.000000	64.685201 
4416.000000	64.670944 
4415.000000	64.676094 
4414.000000	64.707064 
4413.000000	64.776945 
4412.000000	64.897179 
4411.000000	65.084385 
4410.000000	65.340709 
4409.000000	65.641140 
4408.000000	65.933394 
4407.000000	66.123390 
4406.000000	66.119599 
4405.000000	65.872764 
4404.000000	65.390157 
4403.000000	64.753746 
4402.000000	64.094686 
4401.000000	63.515257 
4400.000000	63.140034 
4399.000000	63.015365 
4398.000000	63.243603 
4397.000000	63.996672 
4396.000000	65.466213 
4395.000000	67.874574 
4394.000000	71.235918 
4393.000000	75.304794 
4392.000000	79.531860 
4391.000000	83.134484 
4390.000000	85.389304 
4389.000000	85.814619 
4388.000000	84.384036 
4387.000000	81.529402 
4386.000000	77.943587 
4385.000000	74.393939 
4384.000000	71.434450 
4383.000000	69.317102 
4382.000000	68.023657 
4381.000000	67.311453 
4380.000000	66.955685 
4379.000000	66.753339 
4378.000000	66.598534 
4377.000000	66.473126 
4376.000000	66.334629 
4375.000000	66.182756 
4374.000000	65.990829 
4373.000000	65.753889 
4372.000000	65.488839 
4371.000000	65.222978 
4370.000000	64.986944 
4369.000000	64.801573 
4368.000000	64.660882 
4367.000000	64.553356 
4366.000000	64.467954 
4365.000000	64.398932 
4364.000000	64.350748 
4363.000000	64.330816 
4362.000000	64.346933 
4361.000000	64.395546 
4360.000000	64.460539 
4359.000000	64.531588 
4358.000000	64.603447 
4357.000000	64.671921 
4356.000000	64.735078 
4355.000000	64.786696 
4354.000000	64.819097 
4353.000000	64.834403 
4352.000000	64.837336 
4351.000000	64.824295 
4350.000000	64.791393 
4349.000000	64.740872 
4348.000000	64.678502 
4347.000000	64.613175 
4346.000000	64.556074 
4345.000000	64.519596 
4344.000000	64.512681 
4343.000000	64.538240 
4342.000000	64.592266 
4341.000000	64.664983 
4340.000000	64.741849 
4339.000000	64.806652 
4338.000000	64.846563 
4337.000000	64.855313 
4336.000000	64.833402 
4335.000000	64.787507 
4334.000000	64.728116 
4333.000000	64.666199 
4332.000000	64.610481 
4331.000000	64.565443 
4330.000000	64.531183 
4329.000000	64.504599 
4328.000000	64.481711 
4327.000000	64.459347 
4326.000000	64.436388 
4325.000000	64.414215 
4324.000000	64.395642 
4323.000000	64.384388 
4322.000000	64.381814 
4321.000000	64.388513 
4320.000000	64.402747 
4319.000000	64.422774 
4318.000000	64.446830 
4317.000000	64.474558 
4316.000000	64.506912 
4315.000000	64.545893 
4314.000000	64.593338 
4313.000000	64.649558 
4312.000000	64.712405 
4311.000000	64.777398 
4310.000000	64.838123 
4309.000000	64.887523 
4308.000000	64.919352 
4307.000000	64.929556 
4306.000000	64.917325 
4305.000000	64.885210 
4304.000000	64.838457 
4303.000000	64.783954 
4302.000000	64.728975 
4301.000000	64.679813 
4300.000000	64.640665 
4299.000000	64.614224 
4298.000000	64.600801 
4297.000000	64.599013 
4296.000000	64.605975 
4295.000000	64.617872 
4294.000000	64.630651 
4293.000000	64.640092 
4292.000000	64.643073 
4291.000000	64.637088 
4290.000000	64.621877 
4289.000000	64.598655 
4288.000000	64.570951 
4287.000000	64.543604 
4286.000000	64.522266 
4285.000000	64.512419 
4284.000000	64.517974 
4283.000000	64.540410 
4282.000000	64.578413 
4281.000000	64.628148 
4280.000000	64.683604 
4279.000000	64.737749 
4278.000000	64.783740 
4277.000000	64.816260 
4276.000000	64.832115 
4275.000000	64.830708 
4274.000000	64.814186 
4273.000000	64.786815 
4272.000000	64.754223 
4271.000000	64.721894 
4270.000000	64.694190 
4269.000000	64.673352 
4268.000000	64.660191 
4267.000000	64.653801 
4266.000000	64.652633 
4265.000000	64.655280 
4264.000000	64.660930 
4263.000000	64.669752 
4262.000000	64.682340 
4261.000000	64.699435 
4260.000000	64.720988 
4259.000000	64.746141 
4258.000000	64.773082 
4257.000000	64.799332 
4256.000000	64.822101 
4255.000000	64.838743 
4254.000000	64.847373 
4253.000000	64.847064 
4252.000000	64.838027 
4251.000000	64.821386 
4250.000000	64.798951 
4249.000000	64.772820 
4248.000000	64.745497 
4247.000000	64.719772 
4246.000000	64.698314 
4245.000000	64.683485 
4244.000000	64.676880 
4243.000000	64.679050 
4242.000000	64.689469 
4241.000000	64.706420 
4240.000000	64.727401 
4239.000000	64.749550 
4238.000000	64.770364 
4237.000000	64.787983 
4236.000000	64.801406 
4235.000000	64.810276 
4234.000000	64.814686 
4233.000000	64.814519 
4232.000000	64.809989 
4231.000000	64.801263 
4230.000000	64.789295 
4229.000000	64.775705 
4228.000000	64.763522 
4227.000000	64.756655 
4226.000000	64.759397 
4225.000000	64.775228 
4224.000000	64.805316 
4223.000000	64.847874 
4222.000000	64.897847 
4221.000000	64.947819 
4220.000000	64.989495 
4219.000000	65.015912 
4218.000000	65.023255 
4217.000000	65.011835 
4216.000000	64.985871 
4215.000000	64.952349 
4214.000000	64.919567 
4213.000000	64.894247 
4212.000000	64.880371 
4211.000000	64.877533 
4210.000000	64.882135 
4209.000000	64.887595 
4208.000000	64.886951 
4207.000000	64.874339 
4206.000000	64.846801 
4205.000000	64.805412 
4204.000000	64.754676 
4203.000000	64.701867 
4202.000000	64.654898 
4201.000000	64.621067 
4200.000000	64.605212 
4199.000000	64.609098 
4198.000000	64.631223 
4197.000000	64.667153 
4196.000000	64.710927 
4195.000000	64.755964 
4194.000000	64.796590 
4193.000000	64.829015 
4192.000000	64.852142 
4191.000000	64.866924 
4190.000000	64.876317 
4189.000000	64.884185 
4188.000000	64.894199 
4187.000000	64.909219 
4186.000000	64.930129 
4185.000000	64.956235 
4184.000000	64.984631 
4183.000000	65.011930 
4182.000000	65.034151 
4181.000000	65.047979 
4180.000000	65.051388 
4179.000000	65.044140 
4178.000000	65.028047 
4177.000000	65.006470 
4176.000000	64.983677 
4175.000000	64.963865 
4174.000000	64.950704 
4173.000000	64.946365 
4172.000000	64.951324 
4171.000000	64.964246 
4170.000000	64.981770 
4169.000000	64.999437 
4168.000000	65.012669 
4167.000000	65.017843 
4166.000000	65.012884 
4165.000000	64.998030 
4164.000000	64.975738 
4163.000000	64.950394 
4162.000000	64.927053 
4161.000000	64.910578 
4160.000000	64.904427 
4159.000000	64.910006 
4158.000000	64.926528 
4157.000000	64.951086 
4156.000000	64.979696 
4155.000000	65.007567 
4154.000000	65.030217 
4153.000000	65.043640 
4152.000000	65.045213 
4151.000000	65.033555 
4150.000000	65.008711 
4149.000000	64.971971 
4148.000000	64.925694 
4147.000000	64.873409 
4146.000000	64.819741 
4145.000000	64.770030 
4144.000000	64.729881 
4143.000000	64.704513 
4142.000000	64.698123 
4141.000000	64.712762 
4140.000000	64.748406 
4139.000000	64.802289 
4138.000000	64.869642 
4137.000000	64.943933 
4136.000000	65.018200 
4135.000000	65.085768 
4134.000000	65.141725 
4133.000000	65.183234 
4132.000000	65.210223 
4131.000000	65.225052 
4130.000000	65.231728 
4129.000000	65.235352 
4128.000000	65.240120 
4127.000000	65.248680 
4126.000000	65.260982 
4125.000000	65.274930 
4124.000000	65.286588 
4123.000000	65.291857 
4122.000000	65.287375 
4121.000000	65.271925 
4120.000000	65.246295 
4119.000000	65.213656 
4118.000000	65.178442 
4117.000000	65.145587 
4116.000000	65.119361 
4115.000000	65.102648 
4114.000000	65.096688 
4113.000000	65.101027 
4112.000000	65.114092 
4111.000000	65.133500 
4110.000000	65.156865 
4109.000000	65.182185 
4108.000000	65.208244 
4107.000000	65.234494 
4106.000000	65.260362 
4105.000000	65.285158 
4104.000000	65.307927 
4103.000000	65.327191 
4102.000000	65.341091 
4101.000000	65.347862 
4100.000000	65.346670 
4099.000000	65.337800 
4098.000000	65.323019 
4097.000000	65.305089 
4096.000000	65.287208 
4095.000000	65.272545 
4094.000000	65.263724 
4093.000000	65.262126 
4092.000000	65.267848 
4091.000000	65.279817 
4090.000000	65.295934 
4089.000000	65.313553 
4088.000000	65.329861 
4087.000000	65.342307 
4086.000000	65.348982 
4085.000000	65.348911 
4084.000000	65.342020 
4083.000000	65.329480 
4082.000000	65.313291 
4081.000000	65.295767 
4080.000000	65.279030 
4079.000000	65.264773 
4078.000000	65.253686 
4077.000000	65.245699 
4076.000000	65.240240 
4075.000000	65.236163 
4074.000000	65.232706 
4073.000000	65.229892 
4072.000000	65.228700 
4071.000000	65.230703 
4070.000000	65.237998 
4069.000000	65.252614 
4068.000000	65.275454 
4067.000000	65.305900 
4066.000000	65.341281 
4065.000000	65.377330 
4064.000000	65.408849 
4063.000000	65.430974 
4062.000000	65.439963 
4061.000000	65.434408 
4060.000000	65.415596 
4059.000000	65.387463 
4058.000000	65.355563 
4057.000000	65.325880 
4056.000000	65.303635 
4055.000000	65.291905 
4054.000000	65.291357 
4053.000000	65.299892 
4052.000000	65.314078 
4051.000000	65.329265 
4050.000000	65.341043 
4049.000000	65.345788 
4048.000000	65.341639 
4047.000000	65.327835 
4046.000000	65.304803 
4045.000000	65.273642 
4044.000000	65.235733 
4043.000000	65.193009 
4042.000000	65.147781 
4041.000000	65.103030 
4040.000000	65.062379 
4039.000000	65.030050 
4038.000000	65.010213 
4037.000000	65.006089 
4036.000000	65.019059 
4035.000000	65.048360 
4034.000000	65.091061 
4033.000000	65.141892 
4032.000000	65.194630 
4031.000000	65.243291 
4030.000000	65.283632 
4029.000000	65.313482 
4028.000000	65.333509 
4027.000000	65.346503 
4026.000000	65.356707 
4025.000000	65.368533 
4024.000000	65.385365 
4023.000000	65.408515 
4022.000000	65.436744 
4021.000000	65.467286 
4020.000000	65.495610 
4019.000000	65.517330 
4018.000000	65.528321 
4017.000000	65.526247 
4016.000000	65.510511 
4015.000000	65.482139 
4014.000000	65.443611 
4013.000000	65.398097 
4012.000000	65.348625 
4011.000000	65.297484 
4010.000000	65.246415 
4009.000000	65.196728 
4008.000000	65.149259 
4007.000000	65.104746 
4006.000000	65.064358 
4005.000000	65.029764 
4004.000000	65.002751 
4003.000000	64.985370 
4002.000000	64.978671 
4001.000000	64.983081 
4000.000000	64.998149 
3999.000000	65.022540 
3998.000000	65.053558 
3997.000000	65.087866 
3996.000000	65.121889 
3995.000000	65.152192 
3994.000000	65.175461 
3993.000000	65.189599 
3992.000000	65.193557 
3991.000000	65.187883 
3990.000000	65.174388 
3989.000000	65.156221 
3988.000000	65.137410 
3987.000000	65.122151 
3986.000000	65.114450 
3985.000000	65.117216 
3984.000000	65.131902 
3983.000000	65.158390 
3982.000000	65.194797 
3981.000000	65.237784 
3980.000000	65.282654 
3979.000000	65.324544 
3978.000000	65.358901 
3977.000000	65.381622 
3976.000000	65.389990 
3975.000000	65.383005 
3974.000000	65.361595 
3973.000000	65.328645 
3972.000000	65.288114 
3971.000000	65.245413 
3970.000000	65.205430 
3969.000000	65.172410 
3968.000000	65.148615 
3967.000000	65.134453 
3966.000000	65.128183 
3965.000000	65.126991 
3964.000000	65.127515 
3963.000000	65.126705 
3962.000000	65.122866 
3961.000000	65.115952 
3960.000000	65.107393 
3959.000000	65.099334 
3958.000000	65.094161 
3957.000000	65.093421 
3956.000000	65.097546 
3955.000000	65.105581 
3954.000000	65.115475 
3953.000000	65.124654 
3952.000000	65.131163 
3951.000000	65.133857 
3950.000000	65.132999 
3949.000000	65.130138 
3948.000000	65.127301 
3947.000000	65.126776 
3946.000000	65.130305 
3945.000000	65.138769 
3944.000000	65.151739 
3943.000000	65.167617 
3942.000000	65.184020 
3941.000000	65.198040 
3940.000000	65.207386 
3939.000000	65.210151 
3938.000000	65.205144 
3937.000000	65.192174 
3936.000000	65.171933 
3935.000000	65.145826 
3934.000000	65.115642 
3933.000000	65.083599 
3932.000000	65.051960 
3931.000000	65.023207 
3930.000000	64.999532 
3929.000000	64.983057 
3928.000000	64.975261 
3927.000000	64.976811 
3926.000000	64.987158 
3925.000000	65.004682 
3924.000000	65.026807 
3923.000000	65.050077 
3922.000000	65.070843 
3921.000000	65.085840 
3920.000000	65.092945 
3919.000000	65.091228 
3918.000000	65.081429 
3917.000000	65.065765 
3916.000000	65.047287 
3915.000000	65.029168 
3914.000000	65.013957 
3913.000000	65.003418 
3912.000000	64.997696 
3911.000000	64.995646 
3910.000000	64.994978 
3909.000000	64.993000 
3908.000000	64.987587 
3907.000000	64.977741 
3906.000000	64.964151 
3905.000000	64.948773 
3904.000000	64.934897 
3903.000000	64.926171 
3902.000000	64.925837 
3901.000000	64.935874 
3900.000000	64.956569 
3899.000000	64.986586 
3898.000000	65.022945 
3897.000000	65.061950 
3896.000000	65.099596 
3895.000000	65.132641 
3894.000000	65.159082 
3893.000000	65.178751 
3892.000000	65.193057 
3891.000000	65.204668 
3890.000000	65.216898 
3889.000000	65.232491 
3888.000000	65.253043 
3887.000000	65.278077 
3886.000000	65.305781 
3885.000000	65.332293 
3884.000000	65.353178 
3883.000000	65.363955 
3882.000000	65.361714 
3881.000000	65.345287 
3880.000000	65.315675 
3879.000000	65.275597 
3878.000000	65.229129 
3877.000000	65.180301 
3876.000000	65.132498 
3875.000000	65.087795 
3874.000000	65.047216 
3873.000000	65.011048 
3872.000000	64.979648 
3871.000000	64.953732 
3870.000000	64.934754 
3869.000000	64.924407 
3868.000000	64.924550 
3867.000000	64.935421 
3866.000000	64.956116 
3865.000000	64.984107 
3864.000000	65.015959 
3863.000000	65.047502 
3862.000000	65.075278 
3861.000000	65.097236 
3860.000000	65.113186 
3859.000000	65.124535 
3858.000000	65.133881 
3857.000000	65.144205 
3856.000000	65.157985 
3855.000000	65.176463 
3854.000000	65.199422 
3853.000000	65.225505 
3852.000000	65.252542 
3851.000000	65.278291 
3850.000000	65.301012 
3849.000000	65.319824 
3848.000000	65.334606 
3847.000000	65.345859 
3846.000000	65.353918 
3845.000000	65.358734 
3844.000000	65.359950 
3843.000000	65.356922 
3842.000000	65.348911 
3841.000000	65.335249 
3840.000000	65.316390 
3839.000000	65.293192 
3838.000000	65.267038 
3837.000000	65.239262 
3836.000000	65.210866 
3835.000000	65.182805 
3834.000000	65.155625 
3833.000000	65.129876 
3832.000000	65.106272 
3831.000000	65.085697 
3830.000000	65.069293 
3829.000000	65.057873 
3828.000000	65.051698 
3827.000000	65.050029 
3826.000000	65.051174 
3825.000000	65.052747 
3824.000000	65.051937 
3823.000000	65.046501 
3822.000000	65.035176 
3821.000000	65.018224 
3820.000000	64.997410 
3819.000000	64.975905 
3818.000000	64.957642 
3817.000000	64.946222 
3816.000000	64.944171 
3815.000000	64.952445 
3814.000000	64.970254 
3813.000000	64.995217 
3812.000000	65.023899 
3811.000000	65.052533 
3810.000000	65.077590 
3809.000000	65.096640 
3808.000000	65.108418 
3807.000000	65.112900 
3806.000000	65.111279 
3805.000000	65.105724 
3804.000000	65.098404 
3803.000000	65.091204 
3802.000000	65.085363 
3801.000000	65.081787 
3800.000000	65.080666 
3799.000000	65.081596 
3798.000000	65.083932 
3797.000000	65.086913 
3796.000000	65.089559 
3795.000000	65.090656 
3794.000000	65.088939 
3793.000000	65.083336 
3792.000000	65.073466 
3791.000000	65.059685 
3790.000000	65.043520 
3789.000000	65.027284 
3788.000000	65.013647 
3787.000000	65.005111 
3786.000000	65.003299 
3785.000000	65.008544 
3784.000000	65.019392 
3783.000000	65.033507 
3782.000000	65.047669 
3781.000000	65.059471 
3780.000000	65.067553 
3779.000000	65.072536 
3778.000000	65.076422 
3777.000000	65.082621 
3776.000000	65.094590 
3775.000000	65.114736 
3774.000000	65.143465 
3773.000000	65.179085 
3772.000000	65.218162 
3771.000000	65.256118 
3770.000000	65.288257 
3769.000000	65.310668 
3768.000000	65.321040 
3767.000000	65.318846 
3766.000000	65.305328 
3765.000000	65.283036 
3764.000000	65.255451 
3763.000000	65.226197 
3762.000000	65.198493 
3761.000000	65.175151 
3760.000000	65.158224 
3759.000000	65.148949 
3758.000000	65.147972 
3757.000000	65.155005 
3756.000000	65.169310 
3755.000000	65.189480 
3754.000000	65.213608 
3753.000000	65.239524 
3752.000000	65.264749 
3751.000000	65.286993 
3750.000000	65.303850 
3749.000000	65.313243 
3748.000000	65.313482 
3747.000000	65.303707 
3746.000000	65.283989 
3745.000000	65.255570 
3744.000000	65.221023 
3743.000000	65.184020 
3742.000000	65.148615 
3741.000000	65.118718 
3740.000000	65.097069 
3739.000000	65.084791 
3738.000000	65.081167 
3737.000000	65.084004 
3736.000000	65.089845 
3735.000000	65.095162 
3734.000000	65.097093 
3733.000000	65.094637 
3732.000000	65.088367 
3731.000000	65.080928 
3730.000000	65.075635 
3729.000000	65.076327 
3728.000000	65.085744 
3727.000000	65.105319 
3726.000000	65.134644 
3725.000000	65.171766 
3724.000000	65.213608 
3723.000000	65.256834 
3722.000000	65.298295 
3721.000000	65.335726 
3720.000000	65.367841 
3719.000000	65.394234 
3718.000000	65.414977 
3717.000000	65.430307 
3716.000000	65.440297 
3715.000000	65.444445 
3714.000000	65.441966 
3713.000000	65.432000 
3712.000000	65.414166 
3711.000000	65.388989 
3710.000000	65.357899 
3709.000000	65.323519 
3708.000000	65.289235 
3707.000000	65.258383 
3706.000000	65.233755 
3705.000000	65.217041 
3704.000000	65.208411 
3703.000000	65.206742 
3702.000000	65.210127 
3701.000000	65.215945 
3700.000000	65.222167 
3699.000000	65.227508 
3698.000000	65.231966 
3697.000000	65.236282 
3696.000000	65.241932 
3695.000000	65.250325 
3694.000000	65.262269 
3693.000000	65.277481 
3692.000000	65.294790 
3691.000000	65.312552 
3690.000000	65.328860 
3689.000000	65.341854 
3688.000000	65.350270 
3687.000000	65.353775 
3686.000000	65.352535 
3685.000000	65.347290 
3684.000000	65.339303 
3683.000000	65.330028 
3682.000000	65.321183 
3681.000000	65.314149 
3680.000000	65.309953 
3679.000000	65.308880 
3678.000000	65.310692 
3677.000000	65.314435 
3676.000000	65.318489 
3675.000000	65.321111 
3674.000000	65.320754 
3673.000000	65.316534 
3672.000000	65.308451 
3671.000000	65.297365 
3670.000000	65.285062 
3669.000000	65.273547 
3668.000000	65.264511 
3667.000000	65.258836 
3666.000000	65.256428 
3665.000000	65.255904 
3664.000000	65.255236 
3663.000000	65.252113 
3662.000000	65.244579 
3661.000000	65.231490 
3660.000000	65.212750 
3659.000000	65.189433 
3658.000000	65.163516 
3657.000000	65.137839 
3656.000000	65.115427 
3655.000000	65.099096 
3654.000000	65.090751 
3653.000000	65.091228 
3652.000000	65.099978 
3651.000000	65.115332 
3650.000000	65.134906 
3649.000000	65.155959 
3648.000000	65.176296 
3647.000000	65.194249 
3646.000000	65.209245 
3645.000000	65.221571 
3644.000000	65.232205 
3643.000000	65.242266 
3642.000000	65.252590 
3641.000000	65.263462 
3640.000000	65.274715 
3639.000000	65.285706 
3638.000000	65.295839 
3637.000000	65.304970 
3636.000000	65.313410 
3635.000000	65.322041 
3634.000000	65.331625 
3633.000000	65.342569 
3632.000000	65.354394 
3631.000000	65.365910 
3630.000000	65.375542 
3629.000000	65.381908 
3628.000000	65.384459 
3627.000000	65.383911 
3626.000000	65.382099 
3625.000000	65.381526 
3624.000000	65.384650 
3623.000000	65.393233 
3622.000000	65.407371 
3621.000000	65.425682 
3620.000000	65.445113 
3619.000000	65.462183 
3618.000000	65.474009 
3617.000000	65.478873 
3616.000000	65.476989 
3615.000000	65.470099 
3614.000000	65.461111 
3613.000000	65.452909 
3612.000000	65.447616 
3611.000000	65.445780 
3610.000000	65.446209 
3609.000000	65.446329 
3608.000000	65.443277 
3607.000000	65.434360 
3606.000000	65.418171 
3605.000000	65.394949 
3604.000000	65.366649 
3603.000000	65.336585 
3602.000000	65.308594 
3601.000000	65.286087 
3600.000000	65.271234 
3599.000000	65.264725 
3598.000000	65.265274 
3597.000000	65.269970 
3596.000000	65.274930 
3595.000000	65.276217 
3594.000000	65.270924 
3593.000000	65.257143 
3592.000000	65.235280 
3591.000000	65.207409 
3590.000000	65.177679 
3589.000000	65.150880 
3588.000000	65.132212 
3587.000000	65.125799 
3586.000000	65.134358 
3585.000000	65.158247 
3584.000000	65.195894 
3583.000000	65.243959 
3582.000000	65.298032 
3581.000000	65.353417 
3580.000000	65.405917 
3579.000000	65.452218 
3578.000000	65.490341 
3577.000000	65.519332 
3576.000000	65.538907 
3575.000000	65.548849 
3574.000000	65.549087 
3573.000000	65.539216 
3572.000000	65.518832 
3571.000000	65.487527 
3570.000000	65.445852 
3569.000000	65.395498 
3568.000000	65.339374 
3567.000000	65.281605 
3566.000000	65.226984 
3565.000000	65.180349 
3564.000000	65.146017 
3563.000000	65.126800 
3562.000000	65.123510 
3561.000000	65.134811 
3560.000000	65.157389 
3559.000000	65.186429 
3558.000000	65.216517 
3557.000000	65.242648 
3556.000000	65.261125 
3555.000000	65.270137 
3554.000000	65.269947 
3553.000000	65.263032 
3552.000000	65.253472 
3551.000000	65.245962 
3550.000000	65.244626 
3549.000000	65.252208 
3548.000000	65.269231 
3547.000000	65.294122 
3546.000000	65.323185 
3545.000000	65.351939 
3544.000000	65.375638 
3543.000000	65.390634 
3542.000000	65.394759 
3541.000000	65.387606 
3540.000000	65.370345 
3539.000000	65.345549 
3538.000000	65.316462 
3537.000000	65.286564 
3536.000000	65.258836 
3535.000000	65.236043 
3534.000000	65.219545 
3533.000000	65.209674 
3532.000000	65.205025 
3531.000000	65.203022 
3530.000000	65.200042 
3529.000000	65.192103 
3528.000000	65.175724 
3527.000000	65.148806 
3526.000000	65.111613 
3525.000000	65.066909 
3524.000000	65.020012 
3523.000000	64.977645 
3522.000000	64.946317 
3521.000000	64.930963 
3520.000000	64.933562 
3519.000000	64.952754 
3518.000000	64.984059 
3517.000000	65.021204 
3516.000000	65.057420 
3515.000000	65.087199 
3514.000000	65.107583 
3513.000000	65.118384 
3512.000000	65.121626 
3511.000000	65.120339 
3510.000000	65.117383 
3509.000000	65.113925 
3508.000000	65.109276 
3507.000000	65.100884 
3506.000000	65.085124 
3505.000000	65.059018 
3504.000000	65.021848 
3503.000000	64.975953 
3502.000000	64.926409 
3501.000000	64.880824 
3500.000000	64.847540 
3499.000000	64.833974 
3498.000000	64.844703 
3497.000000	64.880633 
3496.000000	64.938497 
3495.000000	65.011572 
3494.000000	65.090775 
3493.000000	65.166640 
3492.000000	65.230751 
3491.000000	65.277194 
3490.000000	65.303063 
3489.000000	65.308594 
3488.000000	65.296554 
3487.000000	65.271115 
3486.000000	65.236997 
3485.000000	65.198779 
3484.000000	65.160298 
3483.000000	65.125060 
3482.000000	65.095949 
3481.000000	65.075445 
3480.000000	65.065383 
3479.000000	65.066885 
3478.000000	65.079903 
3477.000000	65.103006 
3476.000000	65.133810 
3475.000000	65.168952 
3474.000000	65.204882 
3473.000000	65.238165 
3472.000000	65.266180 
3471.000000	65.287327 
3470.000000	65.301108 
3469.000000	65.307974 
3468.000000	65.309143 
3467.000000	65.305924 
3466.000000	65.299797 
3465.000000	65.291738 
3464.000000	65.282750 
3463.000000	65.273356 
3462.000000	65.263724 
3461.000000	65.253686 
3460.000000	65.243268 
3459.000000	65.232658 
3458.000000	65.221858 
3457.000000	65.211462 
3456.000000	65.202379 
3455.000000	65.196084 
3454.000000	65.194058 
3453.000000	65.197587 
3452.000000	65.207195 
3451.000000	65.222334 
3450.000000	65.241384 
3449.000000	65.262031 
3448.000000	65.281748 
3447.000000	65.298390 
3446.000000	65.310525 
3445.000000	65.317869 
3444.000000	65.321063 
3443.000000	65.321445 
3442.000000	65.320277 
3441.000000	65.318679 
3440.000000	65.317225 
3439.000000	65.315723 
3438.000000	65.313220 
3437.000000	65.308380 
3436.000000	65.299677 
3435.000000	65.286064 
3434.000000	65.267205 
3433.000000	65.243411 
3432.000000	65.215969 
3431.000000	65.186929 
3430.000000	65.158820 
3429.000000	65.134382 
3428.000000	65.115690 
3427.000000	65.104317 
3426.000000	65.100383 
3425.000000	65.102744 
3424.000000	65.109038 
3423.000000	65.116000 
3422.000000	65.120577 
3421.000000	65.120625 
3420.000000	65.115284 
3419.000000	65.105175 
3418.000000	65.092015 
3417.000000	65.078091 
3416.000000	65.065479 
3415.000000	65.055489 
3414.000000	65.048456 
3413.000000	65.043735 
3412.000000	65.040469 
3411.000000	65.037989 
3410.000000	65.036201 
3409.000000	65.035963 
3408.000000	65.038776 
3407.000000	65.046381 
3406.000000	65.059947 
3405.000000	65.079474 
3404.000000	65.103673 
3403.000000	65.129971 
3402.000000	65.155315 
3401.000000	65.176367 
3400.000000	65.190815 
3399.000000	65.196967 
3398.000000	65.194272 
3397.000000	65.182948 
3396.000000	65.163993 
3395.000000	65.138840 
3394.000000	65.109491 
3393.000000	65.078639 
3392.000000	65.049505 
3391.000000	65.025830 
3390.000000	65.011525 
3389.000000	65.010070 
3388.000000	65.023517 
3387.000000	65.052103 
3386.000000	65.093874 
3385.000000	65.144467 
3384.000000	65.198087 
3383.000000	65.248417 
3382.000000	65.289640 
3381.000000	65.317606 
3380.000000	65.330123 
3379.000000	65.327239 
3378.000000	65.310764 
3377.000000	65.283679 
3376.000000	65.249419 
3375.000000	65.211486 
3374.000000	65.172839 
3373.000000	65.136194 
3372.000000	65.103602 
3371.000000	65.076780 
3370.000000	65.056705 
3369.000000	65.043807 
3368.000000	65.037870 
3367.000000	65.038132 
3366.000000	65.043139 
3365.000000	65.051031 
3364.000000	65.059971 
3363.000000	65.068387 
3362.000000	65.075159 
3361.000000	65.079689 
3360.000000	65.081739 
3359.000000	65.081095 
3358.000000	65.077590 
3357.000000	65.070819 
3356.000000	65.060448 
3355.000000	65.046381 
3354.000000	65.028977 
3353.000000	65.009331 
3352.000000	64.989137 
3351.000000	64.970588 
3350.000000	64.955878 
3349.000000	64.947009 
3348.000000	64.945054 
3347.000000	64.950370 
3346.000000	64.962172 
3345.000000	64.979004 
3344.000000	64.998435 
3343.000000	65.017795 
3342.000000	65.034532 
3341.000000	65.046405 
3340.000000	65.051555 
3339.000000	65.048980 
3338.000000	65.038561 
3337.000000	65.021157 
3336.000000	64.998459 
3335.000000	64.972996 
3334.000000	64.947748 
3333.000000	64.925885 
3332.000000	64.910268 
3331.000000	64.903020 
3330.000000	64.905357 
3329.000000	64.917516 
3328.000000	64.938783 
3327.000000	64.967703 
3326.000000	65.002417 
3325.000000	65.040731 
3324.000000	65.080618 
3323.000000	65.120124 
3322.000000	65.157532 
3321.000000	65.191197 
3320.000000	65.219831 
3319.000000	65.242433 
3318.000000	65.258431 
3317.000000	65.267825 
3316.000000	65.270900 
3315.000000	65.268778 
3314.000000	65.262722 
3313.000000	65.254354 
3312.000000	65.245008 
3311.000000	65.235829 
3310.000000	65.227603 
3309.000000	65.220928 
3308.000000	65.216040 
3307.000000	65.213084 
3306.000000	65.211939 
3305.000000	65.212345 
3304.000000	65.213942 
3303.000000	65.216183 
3302.000000	65.218305 
3301.000000	65.219736 
3300.000000	65.219998 
3299.000000	65.218901 
3298.000000	65.216755 
3297.000000	65.214157 
3296.000000	65.211987 
3295.000000	65.210938 
3294.000000	65.211653 
3293.000000	65.214180 
3292.000000	65.218043 
3291.000000	65.222454 
3290.000000	65.226697 
3289.000000	65.230035 
3288.000000	65.232205 
3287.000000	65.233039 
3286.000000	65.232586 
3285.000000	65.230774 
3284.000000	65.227293 
3283.000000	65.221881 
3282.000000	65.214490 
3281.000000	65.205383 
3280.000000	65.195322 
3279.000000	65.185260 
3278.000000	65.176296 
3277.000000	65.169262 
3276.000000	65.164566 
3275.000000	65.162301 
3274.000000	65.162038 
3273.000000	65.163111 
3272.000000	65.164852 
3271.000000	65.166640 
3270.000000	65.168285 
3269.000000	65.169692 
3268.000000	65.171146 
3267.000000	65.173077 
3266.000000	65.175938 
3265.000000	65.180134 
3264.000000	65.185856 
3263.000000	65.193176 
3262.000000	65.201783 
3261.000000	65.211224 
3260.000000	65.220808 
3259.000000	65.229749 
3258.000000	65.236997 
3257.000000	65.241599 
3256.000000	65.242552 
3255.000000	65.239143 
3254.000000	65.230751 
3253.000000	65.217280 
3252.000000	65.199017 
3251.000000	65.176653 
3250.000000	65.151309 
3249.000000	65.124297 
3248.000000	65.097141 
3247.000000	65.071511 
3246.000000	65.048885 
3245.000000	65.030646 
3244.000000	65.017652 
3243.000000	65.010523 
3242.000000	65.009236 
3241.000000	65.013551 
3240.000000	65.023016 
3239.000000	65.036869 
3238.000000	65.054106 
3237.000000	65.073513 
3236.000000	65.093445 
3235.000000	65.112042 
3234.000000	65.127229 
3233.000000	65.137243 
3232.000000	65.140724 
3231.000000	65.137147 
3230.000000	65.127015 
3229.000000	65.111708 
3228.000000	65.093445 
3227.000000	65.074491 
3226.000000	65.057015 
3225.000000	65.042376 
3224.000000	65.031075 
3223.000000	65.022921 
3222.000000	65.017485 
3221.000000	65.014338 
3220.000000	65.013551 
3219.000000	65.015864 
3218.000000	65.022420 
3217.000000	65.033841 
3216.000000	65.049862 
3215.000000	65.069198 
3214.000000	65.089440 
3213.000000	65.107560 
3212.000000	65.120649 
3211.000000	65.126705 
3210.000000	65.125179 
3209.000000	65.117168 
3208.000000	65.104866 
3207.000000	65.091133 
3206.000000	65.078663 
3205.000000	65.069246 
3204.000000	65.063476 
3203.000000	65.060687 
3202.000000	65.059518 
3201.000000	65.058469 
3200.000000	65.056633 
3199.000000	65.054082 
3198.000000	65.051817 
3197.000000	65.051627 
3196.000000	65.055489 
3195.000000	65.065050 
3194.000000	65.081143 
3193.000000	65.103864 
3192.000000	65.132284 
3191.000000	65.164709 
3190.000000	65.198945 
3189.000000	65.232586 
3188.000000	65.263295 
3187.000000	65.288901 
3186.000000	65.307903 
3185.000000	65.319252 
3184.000000	65.322661 
3183.000000	65.318298 
3182.000000	65.307259 
3181.000000	65.290975 
3180.000000	65.271353 
3179.000000	65.250492 
3178.000000	65.230536 
3177.000000	65.213489 
3176.000000	65.200924 
3175.000000	65.193796 
3174.000000	65.192270 
3173.000000	65.195798 
3172.000000	65.203189 
3171.000000	65.212512 
3170.000000	65.221810 
3169.000000	65.228962 
3168.000000	65.232467 
3167.000000	65.231823 
3166.000000	65.227603 
3165.000000	65.221333 
3164.000000	65.214943 
3163.000000	65.210390 
3162.000000	65.208935 
3161.000000	65.210771 
3160.000000	65.214967 
3159.000000	65.219855 
3158.000000	65.223431 
3157.000000	65.223979 
3156.000000	65.220737 
3155.000000	65.214180 
3154.000000	65.205907 
3153.000000	65.198135 
3152.000000	65.193390 
3151.000000	65.193462 
3150.000000	65.199255 
3149.000000	65.210485 
3148.000000	65.226006 
3147.000000	65.243935 
3146.000000	65.262222 
3145.000000	65.279054 
3144.000000	65.292835 
3143.000000	65.302276 
3142.000000	65.306329 
3141.000000	65.304327 
3140.000000	65.296101 
3139.000000	65.282177 
3138.000000	65.263867 
3137.000000	65.243148 
3136.000000	65.222764 
3135.000000	65.205597 
3134.000000	65.194010 
3133.000000	65.189766 
3132.000000	65.193367 
3131.000000	65.204191 
3130.000000	65.220499 
3129.000000	65.240049 
3128.000000	65.260457 
3127.000000	65.279841 
3126.000000	65.296959 
3125.000000	65.311431 
3124.000000	65.323328 
3123.000000	65.333127 
3122.000000	65.341162 
3121.000000	65.347695 
3120.000000	65.352606 
3119.000000	65.355801 
3118.000000	65.357255 
3117.000000	65.356779 
3116.000000	65.354228 
3115.000000	65.349483 
3114.000000	65.342545 
3113.000000	65.333366 
3112.000000	65.322208 
3111.000000	65.309357 
3110.000000	65.295267 
3109.000000	65.280532 
3108.000000	65.265893 
3107.000000	65.251994 
3106.000000	65.239644 
3105.000000	65.229654 
3104.000000	65.223026 
3103.000000	65.220499 
3102.000000	65.222764 
3101.000000	65.230131 
3100.000000	65.242528 
3099.000000	65.259051 
3098.000000	65.278291 
3097.000000	65.298318 
3096.000000	65.316987 
3095.000000	65.332293 
3094.000000	65.342855 
3093.000000	65.348362 
3092.000000	65.349459 
3091.000000	65.347552 
3090.000000	65.344476 
3089.000000	65.341925 
3088.000000	65.341067 
3087.000000	65.342211 
3086.000000	65.345096 
3085.000000	65.348815 
3084.000000	65.352511 
3083.000000	65.355110 
3082.000000	65.355730 
3081.000000	65.353560 
3080.000000	65.347743 
3079.000000	65.337586 
3078.000000	65.322422 
3077.000000	65.302181 
3076.000000	65.277314 
3075.000000	65.249443 
3074.000000	65.221190 
3073.000000	65.195989 
3072.000000	65.177416 
3071.000000	65.168452 
3070.000000	65.170788 
3069.000000	65.184068 
3068.000000	65.205907 
3067.000000	65.232491 
3066.000000	65.259194 
3065.000000	65.281653 
3064.000000	65.296769 
3063.000000	65.303230 
3062.000000	65.301656 
3061.000000	65.294146 
3060.000000	65.283656 
3059.000000	65.273165 
3058.000000	65.265059 
3057.000000	65.260696 
3056.000000	65.260291 
3055.000000	65.263032 
3054.000000	65.267348 
3053.000000	65.271830 
3052.000000	65.274953 
3051.000000	65.275692 
3050.000000	65.273427 
3049.000000	65.267920 
3048.000000	65.259361 
3047.000000	65.248155 
3046.000000	65.235066 
3045.000000	65.221214 
3044.000000	65.207791 
3043.000000	65.196180 
3042.000000	65.187716 
3041.000000	65.183353 
3040.000000	65.183591 
3039.000000	65.188264 
3038.000000	65.196561 
3037.000000	65.207147 
3036.000000	65.218496 
3035.000000	65.229034 
3034.000000	65.237498 
3033.000000	65.243053 
3032.000000	65.245628 
3031.000000	65.245819 
3030.000000	65.244793 
3029.000000	65.243911 
3028.000000	65.244412 
3027.000000	65.247130 
3026.000000	65.252637 
3025.000000	65.260696 
3024.000000	65.270566 
3023.000000	65.280938 
3022.000000	65.290236 
3021.000000	65.296769 
3020.000000	65.298938 
3019.000000	65.295624 
3018.000000	65.286302 
3017.000000	65.271425 
3016.000000	65.252232 
3015.000000	65.230846 
3014.000000	65.209698 
3013.000000	65.191340 
3012.000000	65.177726 
3011.000000	65.169930 
3010.000000	65.167760 
3009.000000	65.169930 
3008.000000	65.174317 
3007.000000	65.178608 
3006.000000	65.180897 
3005.000000	65.180325 
3004.000000	65.177369 
3003.000000	65.173578 
3002.000000	65.171098 
3001.000000	65.171957 
3000.000000	65.177345 
2999.000000	65.187096 
2998.000000	65.199732 
2997.000000	65.212869 
2996.000000	65.223908 
2995.000000	65.230846 
2994.000000	65.232729 
2993.000000	65.229868 
2992.000000	65.223598 
2991.000000	65.215682 
2990.000000	65.207576 
2989.000000	65.200018 
2988.000000	65.192508 
2987.000000	65.183734 
2986.000000	65.172076 
2985.000000	65.156483 
2984.000000	65.136766 
2983.000000	65.114140 
2982.000000	65.090847 
2981.000000	65.069746 
2980.000000	65.053367 
2979.000000	65.043354 
2978.000000	65.039992 
2977.000000	65.042257 
2976.000000	65.048313 
2975.000000	65.055847 
2974.000000	65.062928 
2973.000000	65.068387 
2972.000000	65.071916 
2971.000000	65.074253 
2970.000000	65.076637 
2969.000000	65.080547 
2968.000000	65.086960 
2967.000000	65.096211 
2966.000000	65.108013 
2965.000000	65.121388 
2964.000000	65.135025 
2963.000000	65.147352 
2962.000000	65.157103 
2961.000000	65.163183 
2960.000000	65.164852 
2959.000000	65.161395 
2958.000000	65.152144 
2957.000000	65.136671 
2956.000000	65.114665 
2955.000000	65.086388 
2954.000000	65.052771 
2953.000000	65.015625 
2952.000000	64.977574 
2951.000000	64.941883 
2950.000000	64.912176 
2949.000000	64.891529 
2948.000000	64.882016 
2947.000000	64.884257 
2946.000000	64.897203 
2945.000000	64.918231 
2944.000000	64.943599 
2943.000000	64.969086 
2942.000000	64.990663 
2941.000000	65.005278 
2940.000000	65.011191 
2939.000000	65.008091 
2938.000000	64.997196 
2937.000000	64.980602 
2936.000000	64.961075 
2935.000000	64.941287 
2934.000000	64.923501 
2933.000000	64.909386 
2932.000000	64.899754 
2931.000000	64.894604 
2930.000000	64.893317 
2929.000000	64.894771 
2928.000000	64.897346 
2927.000000	64.899253 
2926.000000	64.898824 
2925.000000	64.894747 
2924.000000	64.886045 
2923.000000	64.872527 
2922.000000	64.854788 
2921.000000	64.834499 
2920.000000	64.813780 
2919.000000	64.794993 
2918.000000	64.780545 
2917.000000	64.772391 
2916.000000	64.771604 
2915.000000	64.778399 
2914.000000	64.791965 
2913.000000	64.810848 
2912.000000	64.833235 
2911.000000	64.857149 
2910.000000	64.880895 
2909.000000	64.903187 
2908.000000	64.923214 
2907.000000	64.940738 
2906.000000	64.955759 
2905.000000	64.968466 
2904.000000	64.979195 
2903.000000	64.988493 
2902.000000	64.997100 
2901.000000	65.006065 
2900.000000	65.016579 
2899.000000	65.030026 
2898.000000	65.047407 
2897.000000	65.069222 
2896.000000	65.095067 
2895.000000	65.123510 
2894.000000	65.152168 
2893.000000	65.178132 
2892.000000	65.198373 
2891.000000	65.210628 
2890.000000	65.213799 
2889.000000	65.208005 
2888.000000	65.194630 
2887.000000	65.176200 
2886.000000	65.155720 
2885.000000	65.136146 
2884.000000	65.119934 
2883.000000	65.108609 
2882.000000	65.102720 
2881.000000	65.102267 
2880.000000	65.106487 
2879.000000	65.114283 
2878.000000	65.124320 
2877.000000	65.135383 
2876.000000	65.146088 
2875.000000	65.155124 
2874.000000	65.161013 
2873.000000	65.162587 
2872.000000	65.158915 
2871.000000	65.149807 
2870.000000	65.135741 
2869.000000	65.118098 
2868.000000	65.099120 
2867.000000	65.081572 
2866.000000	65.068459 
2865.000000	65.062284 
2864.000000	65.064620 
2863.000000	65.075445 
2862.000000	65.093135 
2861.000000	65.114426 
2860.000000	65.134930 
2859.000000	65.149950 
2858.000000	65.155434 
2857.000000	65.148735 
2856.000000	65.129089 
2855.000000	65.097928 
2854.000000	65.058159 
2853.000000	65.014076 
2852.000000	64.970350 
2851.000000	64.931464 
2850.000000	64.901065 
2849.000000	64.881682 
2848.000000	64.874553 
2847.000000	64.879679 
2846.000000	64.896059 
2845.000000	64.921641 
2844.000000	64.954042 
2843.000000	64.990401 
2842.000000	65.028119 
2841.000000	65.064620 
2840.000000	65.098071 
2839.000000	65.127086 
2838.000000	65.151143 
2837.000000	65.170526 
2836.000000	65.185832 
2835.000000	65.197825 
2834.000000	65.207099 
2833.000000	65.214371 
2832.000000	65.219879 
2831.000000	65.223646 
2830.000000	65.225481 
2829.000000	65.225458 
2828.000000	65.223598 
2827.000000	65.220117 
2826.000000	65.215349 
2825.000000	65.209794 
2824.000000	65.204048 
2823.000000	65.198850 
2822.000000	65.194964 
2821.000000	65.193319 
2820.000000	65.194535 
2819.000000	65.198850 
2818.000000	65.206003 
2817.000000	65.215229 
2816.000000	65.225005 
2815.000000	65.233659 
2814.000000	65.239357 
2813.000000	65.240788 
2812.000000	65.237450 
2811.000000	65.229940 
2810.000000	65.219712 
2809.000000	65.208864 
2808.000000	65.199518 
2807.000000	65.193533 
2806.000000	65.191674 
2805.000000	65.193772 
2804.000000	65.199208 
2803.000000	65.206837 
2802.000000	65.215468 
2801.000000	65.224194 
2800.000000	65.232634 
2799.000000	65.240669 
2798.000000	65.248465 
2797.000000	65.256309 
2796.000000	65.264344 
2795.000000	65.272617 
2794.000000	65.280985 
2793.000000	65.289139 
2792.000000	65.296649 
2791.000000	65.303039 
2790.000000	65.307927 
2789.000000	65.311002 
2788.000000	65.312004 
2787.000000	65.310978 
2786.000000	65.308022 
2785.000000	65.303564 
2784.000000	65.297985 
2783.000000	65.291953 
2782.000000	65.285801 
2781.000000	65.279698 
2780.000000	65.273213 
2779.000000	65.265583 
2778.000000	65.255928 
2777.000000	65.243530 
2776.000000	65.228128 
2775.000000	65.210270 
2774.000000	65.191340 
2773.000000	65.173268 
2772.000000	65.158247 
2771.000000	65.148186 
2770.000000	65.144562 
2769.000000	65.147972 
2768.000000	65.158081 
2767.000000	65.173673 
2766.000000	65.192818 
2765.000000	65.213346 
2764.000000	65.233111 
2763.000000	65.250349 
2762.000000	65.263962 
2761.000000	65.273714 
2760.000000	65.280008 
2759.000000	65.283584 
2758.000000	65.285539 
2757.000000	65.286517 
2756.000000	65.287041 
2755.000000	65.287041 
2754.000000	65.285944 
2753.000000	65.282940 
2752.000000	65.277361 
2751.000000	65.268850 
2750.000000	65.257525 
2749.000000	65.244150 
2748.000000	65.230011 
2747.000000	65.216898 
2746.000000	65.206456 
2745.000000	65.200114 
2744.000000	65.198612 
2743.000000	65.202164 
2742.000000	65.210294 
2741.000000	65.222144 
2740.000000	65.236425 
2739.000000	65.251970 
2738.000000	65.267682 
2737.000000	65.282702 
2736.000000	65.296268 
2735.000000	65.307807 
2734.000000	65.317010 
2733.000000	65.323424 
2732.000000	65.326666 
2731.000000	65.326809 
2730.000000	65.323996 
2729.000000	65.318870 
2728.000000	65.312218 
2727.000000	65.305352 
2726.000000	65.299558 
2725.000000	65.296149 
2724.000000	65.295791 
2723.000000	65.298700 
2722.000000	65.304350 
2721.000000	65.311527 
2720.000000	65.318274 
2719.000000	65.322542 
2718.000000	65.322351 
2717.000000	65.316343 
2716.000000	65.303921 
2715.000000	65.285611 
2714.000000	65.263009 
2713.000000	65.238499 
2712.000000	65.214872 
2711.000000	65.194916 
2710.000000	65.180754 
2709.000000	65.173554 
2708.000000	65.173482 
2707.000000	65.179562 
2706.000000	65.189886 
2705.000000	65.202140 
2704.000000	65.214228 
2703.000000	65.224456 
2702.000000	65.231895 
2701.000000	65.236353 
2700.000000	65.238356 
2699.000000	65.238618 
2698.000000	65.237927 
2697.000000	65.236759 
2696.000000	65.235114 
2695.000000	65.232801 
2694.000000	65.229392 
2693.000000	65.224575 
2692.000000	65.218472 
2691.000000	65.211582 
2690.000000	65.204930 
2689.000000	65.199756 
2688.000000	65.197372 
2687.000000	65.198755 
2686.000000	65.204215 
2685.000000	65.213418 
2684.000000	65.225219 
2683.000000	65.237975 
2682.000000	65.249824 
2681.000000	65.258812 
2680.000000	65.263557 
2679.000000	65.263342 
2678.000000	65.258431 
2677.000000	65.249896 
2676.000000	65.239620 
2675.000000	65.229749 
2674.000000	65.222477 
2673.000000	65.219402 
2672.000000	65.221142 
2671.000000	65.227460 
2670.000000	65.237092 
2669.000000	65.248131 
2668.000000	65.258502 
2667.000000	65.266370 
2666.000000	65.270519 
2665.000000	65.270328 
2664.000000	65.266060 
2663.000000	65.258669 
2662.000000	65.249586 
2661.000000	65.240335 
2660.000000	65.232443 
2659.000000	65.227174 
2658.000000	65.225553 
2657.000000	65.227961 
2656.000000	65.234327 
2655.000000	65.243840 
2654.000000	65.255260 
2653.000000	65.266990 
2652.000000	65.277147 
2651.000000	65.284180 
2650.000000	65.287208 
2649.000000	65.286302 
2648.000000	65.282535 
2647.000000	65.277385 
2646.000000	65.272831 
2645.000000	65.270376 
2644.000000	65.270757 
2643.000000	65.273928 
2642.000000	65.278935 
2641.000000	65.284466 
2640.000000	65.289187 
2639.000000	65.292191 
2638.000000	65.293240 
2637.000000	65.292859 
2636.000000	65.292143 
2635.000000	65.292429 
2634.000000	65.294623 
2633.000000	65.299129 
2632.000000	65.305519 
2631.000000	65.312600 
2630.000000	65.318870 
2629.000000	65.322828 
2628.000000	65.323448 
2627.000000	65.320467 
2626.000000	65.314412 
2625.000000	65.306425 
2624.000000	65.297913 
2623.000000	65.290331 
2622.000000	65.284442 
2621.000000	65.280413 
2620.000000	65.277481 
2619.000000	65.274262 
2618.000000	65.269041 
2617.000000	65.260243 
2616.000000	65.247464 
2615.000000	65.231418 
2614.000000	65.214419 
2613.000000	65.199780 
2612.000000	65.191221 
2611.000000	65.191960 
2610.000000	65.203785 
2609.000000	65.226435 
2608.000000	65.257549 
2607.000000	65.293145 
2606.000000	65.328335 
2605.000000	65.358281 
2604.000000	65.379285 
2603.000000	65.389466 
2602.000000	65.388965 
2601.000000	65.379810 
2600.000000	65.365099 
2599.000000	65.348148 
2598.000000	65.331912 
2597.000000	65.318250 
2596.000000	65.307927 
2595.000000	65.300559 
2594.000000	65.295267 
2593.000000	65.290927 
2592.000000	65.286469 
2591.000000	65.281414 
2590.000000	65.275692 
2589.000000	65.269804 
2588.000000	65.264415 
2587.000000	65.260338 
2586.000000	65.258216 
2585.000000	65.258193 
2584.000000	65.260076 
2583.000000	65.263128 
2582.000000	65.266418 
2581.000000	65.268874 
2580.000000	65.269756 
2579.000000	65.268731 
2578.000000	65.265965 
2577.000000	65.262293 
2576.000000	65.258884 
2575.000000	65.257143 
2574.000000	65.258002 
2573.000000	65.261793 
2572.000000	65.267920 
2571.000000	65.275192 
2570.000000	65.281820 
2569.000000	65.285944 
2568.000000	65.286183 
2567.000000	65.282082 
2566.000000	65.274333 
2565.000000	65.264105 
2564.000000	65.253138 
2563.000000	65.243196 
2562.000000	65.235662 
2561.000000	65.231204 
2560.000000	65.229606 
2559.000000	65.230250 
2558.000000	65.232181 
2557.000000	65.234565 
2556.000000	65.236759 
2555.000000	65.238404 
2554.000000	65.239405 
2553.000000	65.239906 
2552.000000	65.239906 
2551.000000	65.239334 
2550.000000	65.238142 
2549.000000	65.236473 
2548.000000	65.234732 
2547.000000	65.233469 
2546.000000	65.233516 
2545.000000	65.235853 
2544.000000	65.241050 
2543.000000	65.249609 
2542.000000	65.261363 
2541.000000	65.275955 
2540.000000	65.292644 
2539.000000	65.310883 
2538.000000	65.330100 
2537.000000	65.349793 
2536.000000	65.369749 
2535.000000	65.389323 
2534.000000	65.407657 
2533.000000	65.423178 
2532.000000	65.434098 
2531.000000	65.438318 
2530.000000	65.434050 
2529.000000	65.420198 
2528.000000	65.396809 
2527.000000	65.365076 
2526.000000	65.327239 
2525.000000	65.286254 
2524.000000	65.245342 
2523.000000	65.207409 
2522.000000	65.174794 
2521.000000	65.148997 
2520.000000	65.130662 
2519.000000	65.119791 
2518.000000	65.116000 
2517.000000	65.118360 
2516.000000	65.126109 
2515.000000	65.138030 
2514.000000	65.153050 
2513.000000	65.169763 
2512.000000	65.186929 
2511.000000	65.203380 
2510.000000	65.218210 
2509.000000	65.230798 
2508.000000	65.241026 
2507.000000	65.249013 
2506.000000	65.254926 
2505.000000	65.259051 
2504.000000	65.261673 
2503.000000	65.262961 
2502.000000	65.263128 
2501.000000	65.262484 
2500.000000	65.261507 
2499.000000	65.261077 
2498.000000	65.262198 
2497.000000	65.265870 
2496.000000	65.272784 
2495.000000	65.283036 
2494.000000	65.296053 
2493.000000	65.310811 
2492.000000	65.325736 
2491.000000	65.339040 
2490.000000	65.349245 
2489.000000	65.355539 
2488.000000	65.357565 
2487.000000	65.355753 
2486.000000	65.350914 
2485.000000	65.344333 
2484.000000	65.337347 
2483.000000	65.331411 
2482.000000	65.327692 
2481.000000	65.327000 
2480.000000	65.329837 
2479.000000	65.336012 
2478.000000	65.344929 
2477.000000	65.355491 
2476.000000	65.366268 
2475.000000	65.375804 
2474.000000	65.382862 
2473.000000	65.386724 
2472.000000	65.387296 
2471.000000	65.385270 
2470.000000	65.381860 
2469.000000	65.378570 
2468.000000	65.376734 
2467.000000	65.377163 
2466.000000	65.379953 
2465.000000	65.384507 
2464.000000	65.389633 
2463.000000	65.393853 
2462.000000	65.395784 
2461.000000	65.394544 
2460.000000	65.389823 
2459.000000	65.381908 
2458.000000	65.371441 
2457.000000	65.359568 
2456.000000	65.347290 
2455.000000	65.335488 
2454.000000	65.324783 
2453.000000	65.315389 
2452.000000	65.307283 
2451.000000	65.300345 
2450.000000	65.294480 
2449.000000	65.289545 
2448.000000	65.285658 
2447.000000	65.283012 
2446.000000	65.281939 
2445.000000	65.282726 
2444.000000	65.285515 
2443.000000	65.290284 
2442.000000	65.296602 
2441.000000	65.303730 
2440.000000	65.310645 
2439.000000	65.316009 
2438.000000	65.318560 
2437.000000	65.317249 
2436.000000	65.311479 
2435.000000	65.301394 
2434.000000	65.287876 
2433.000000	65.272235 
2432.000000	65.256285 
2431.000000	65.241694 
2430.000000	65.229892 
2429.000000	65.221810 
2428.000000	65.217471 
2427.000000	65.216493 
2426.000000	65.218043 
2425.000000	65.221333 
2424.000000	65.225744 
2423.000000	65.231370 
2422.000000	65.238571 
2421.000000	65.248179 
2420.000000	65.260744 
2419.000000	65.276050 
2418.000000	65.293097 
2417.000000	65.309858 
2416.000000	65.323925 
2415.000000	65.333151 
2414.000000	65.336251 
2413.000000	65.333580 
2412.000000	65.326857 
2411.000000	65.318894 
2410.000000	65.312743 
2409.000000	65.310764 
2408.000000	65.314006 
2407.000000	65.321898 
2406.000000	65.332150 
2405.000000	65.341615 
2404.000000	65.347146 
2403.000000	65.346503 
2402.000000	65.338897 
2401.000000	65.325164 
2400.000000	65.307664 
2399.000000	65.289402 
2398.000000	65.273189 
2397.000000	65.261101 
2396.000000	65.253925 
2395.000000	65.251231 
2394.000000	65.251660 
2393.000000	65.253353 
2392.000000	65.254664 
2391.000000	65.254521 
2390.000000	65.252470 
2389.000000	65.248823 
2388.000000	65.244603 
2387.000000	65.241241 
2386.000000	65.240263 
2385.000000	65.242719 
2384.000000	65.249252 
2383.000000	65.259838 
2382.000000	65.273761 
2381.000000	65.289616 
2380.000000	65.305662 
2379.000000	65.320038 
2378.000000	65.331077 
2377.000000	65.337610 
2376.000000	65.339183 
2375.000000	65.336251 
2374.000000	65.329837 
2373.000000	65.321683 
2372.000000	65.313625 
2371.000000	65.307402 
2370.000000	65.304350 
2369.000000	65.305185 
2368.000000	65.310001 
2367.000000	65.318274 
2366.000000	65.329194 
2365.000000	65.341472 
2364.000000	65.353465 
2363.000000	65.363454 
2362.000000	65.369868 
2361.000000	65.371561 
2360.000000	65.368008 
2359.000000	65.359497 
2358.000000	65.347027 
2357.000000	65.332317 
2356.000000	65.317440 
2355.000000	65.304446 
2354.000000	65.294933 
2353.000000	65.289688 
2352.000000	65.288376 
2351.000000	65.290021 
2350.000000	65.292859 
2349.000000	65.295028 
2348.000000	65.294933 
2347.000000	65.291523 
2346.000000	65.284872 
2345.000000	65.275621 
2344.000000	65.265417 
2343.000000	65.256047 
2342.000000	65.249466 
2341.000000	65.247154 
2340.000000	65.249943 
2339.000000	65.257906 
2338.000000	65.270161 
2337.000000	65.285086 
2336.000000	65.300440 
2335.000000	65.313959 
2334.000000	65.323805 
2333.000000	65.329003 
2332.000000	65.329623 
2331.000000	65.326881 
2330.000000	65.322995 
2329.000000	65.320682 
2328.000000	65.322589 
2327.000000	65.330672 
2326.000000	65.345692 
2325.000000	65.366816 
2324.000000	65.392065 
2323.000000	65.418410 
2322.000000	65.442371 
2321.000000	65.460777 
2320.000000	65.471458 
2319.000000	65.473628 
2318.000000	65.467977 
2317.000000	65.456461 
2316.000000	65.441894 
2315.000000	65.427160 
2314.000000	65.414667 
2313.000000	65.405917 
2312.000000	65.401315 
2311.000000	65.400004 
2310.000000	65.400552 
2309.000000	65.401244 
2308.000000	65.400600 
2307.000000	65.397906 
2306.000000	65.393257 
2305.000000	65.387606 
2304.000000	65.382385 
2303.000000	65.378928 
2302.000000	65.378475 
2301.000000	65.381312 
2300.000000	65.386939 
2299.000000	65.394306 
2298.000000	65.402007 
2297.000000	65.408492 
2296.000000	65.412759 
2295.000000	65.414500 
2294.000000	65.413975 
2293.000000	65.411901 
2292.000000	65.409278 
2291.000000	65.407085 
2290.000000	65.405917 
2289.000000	65.405821 
2288.000000	65.406274 
2287.000000	65.406513 
2286.000000	65.405607 
2285.000000	65.402960 
2284.000000	65.398216 
2283.000000	65.391588 
2282.000000	65.383815 
2281.000000	65.376043 
2280.000000	65.369439 
2279.000000	65.365028 
2278.000000	65.363430 
2277.000000	65.364742 
2276.000000	65.368461 
2275.000000	65.373539 
2274.000000	65.378808 
2273.000000	65.382814 
2272.000000	65.384292 
2271.000000	65.382289 
2270.000000	65.376353 
2269.000000	65.366625 
2268.000000	65.353679 
2267.000000	65.338492 
2266.000000	65.322232 
2265.000000	65.306210 
2264.000000	65.291643 
2263.000000	65.279436 
2262.000000	65.270233 
2261.000000	65.264391 
2260.000000	65.261983 
2259.000000	65.262937 
2258.000000	65.266823 
2257.000000	65.273070 
2256.000000	65.280985 
2255.000000	65.289711 
2254.000000	65.298295 
2253.000000	65.305876 
2252.000000	65.311813 
2251.000000	65.315818 
2250.000000	65.318107 
2249.000000	65.319323 
2248.000000	65.320587 
2247.000000	65.323162 
2246.000000	65.328407 
2245.000000	65.337181 
2244.000000	65.349698 
2243.000000	65.365624 
2242.000000	65.383720 
2241.000000	65.402221 
2240.000000	65.419054 
2239.000000	65.432262 
2238.000000	65.440130 
2237.000000	65.441441 
2236.000000	65.435624 
2235.000000	65.423059 
2234.000000	65.404558 
2233.000000	65.381574 
2232.000000	65.355682 
2231.000000	65.328717 
2230.000000	65.302300 
2229.000000	65.277838 
2228.000000	65.256381 
2227.000000	65.238666 
2226.000000	65.224981 
2225.000000	65.215587 
2224.000000	65.210485 
2223.000000	65.209674 
2222.000000	65.212988 
2221.000000	65.220284 
2220.000000	65.231227 
2219.000000	65.245246 
2218.000000	65.261483 
2217.000000	65.278887 
2216.000000	65.296125 
2215.000000	65.311837 
2214.000000	65.325069 
2213.000000	65.335202 
2212.000000	65.342092 
2211.000000	65.346217 
2210.000000	65.348482 
2209.000000	65.349888 
2208.000000	65.351557 
2207.000000	65.353941 
2206.000000	65.357184 
2205.000000	65.360665 
2204.000000	65.363454 
2203.000000	65.364265 
2202.000000	65.361976 
2201.000000	65.355920 
2200.000000	65.346217 
2199.000000	65.333771 
2198.000000	65.320348 
2197.000000	65.308237 
2196.000000	65.300011 
2195.000000	65.297889 
2194.000000	65.303373 
2193.000000	65.316820 
2192.000000	65.337443 
2191.000000	65.363192 
2190.000000	65.391135 
2189.000000	65.417885 
2188.000000	65.440154 
2187.000000	65.455555 
2186.000000	65.462779 
2185.000000	65.461802 
2184.000000	65.453767 
2183.000000	65.440797 
2182.000000	65.425324 
2181.000000	65.409708 
2180.000000	65.395545 
2179.000000	65.383934 
2178.000000	65.375018 
2177.000000	65.368437 
2176.000000	65.363454 
2175.000000	65.359377 
2174.000000	65.355753 
2173.000000	65.352535 
2172.000000	65.349984 
2171.000000	65.348672 
2170.000000	65.349173 
2169.000000	65.351986 
2168.000000	65.357327 
2167.000000	65.365266 
2166.000000	65.375447 
2165.000000	65.387296 
2164.000000	65.399909 
2163.000000	65.412330 
2162.000000	65.423417 
2161.000000	65.432071 
2160.000000	65.437507 
2159.000000	65.439224 
2158.000000	65.437126 
2157.000000	65.431594 
2156.000000	65.423417 
2155.000000	65.413498 
2154.000000	65.402889 
2153.000000	65.392518 
2152.000000	65.382981 
2151.000000	65.374660 
2150.000000	65.367746 
2149.000000	65.362262 
2148.000000	65.358042 
2147.000000	65.354990 
2146.000000	65.352892 
2145.000000	65.351414 
2144.000000	65.350127 
2143.000000	65.348124 
2142.000000	65.344619 
2141.000000	65.338778 
2140.000000	65.330123 
2139.000000	65.318632 
2138.000000	65.304803 
2137.000000	65.289592 
2136.000000	65.274548 
2135.000000	65.261006 
2134.000000	65.250349 
2133.000000	65.243577 
2132.000000	65.241241 
2131.000000	65.243196 
2130.000000	65.248894 
2129.000000	65.257477 
2128.000000	65.267992 
2127.000000	65.279459 
2126.000000	65.291070 
2125.000000	65.302133 
2124.000000	65.312266 
2123.000000	65.321302 
2122.000000	65.329217 
2121.000000	65.336179 
2120.000000	65.342426 
2119.000000	65.348124 
2118.000000	65.353155 
2117.000000	65.357232 
2116.000000	65.359783 
2115.000000	65.359878 
2114.000000	65.356779 
2113.000000	65.349817 
2112.000000	65.338921 
2111.000000	65.324592 
2110.000000	65.307569 
2109.000000	65.289211 
2108.000000	65.270900 
2107.000000	65.253925 
2106.000000	65.238976 
2105.000000	65.226435 
2104.000000	65.216374 
2103.000000	65.208745 
2102.000000	65.203690 
2101.000000	65.201687 
2100.000000	65.203309 
2099.000000	65.209245 
2098.000000	65.219736 
2097.000000	65.234303 
2096.000000	65.251421 
2095.000000	65.268659 
2094.000000	65.282988 
2093.000000	65.291428 
2092.000000	65.291523 
2091.000000	65.282058 
2090.000000	65.263319 
2089.000000	65.237212 
2088.000000	65.207076 
2087.000000	65.176939 
2086.000000	65.151143 
2085.000000	65.133452 
2084.000000	65.126562 
2083.000000	65.131926 
2082.000000	65.149569 
2081.000000	65.178036 
2080.000000	65.214586 
2079.000000	65.255880 
2078.000000	65.297794 
2077.000000	65.336251 
2076.000000	65.367507 
2075.000000	65.388679 
2074.000000	65.398144 
2073.000000	65.395712 
2072.000000	65.382623 
2071.000000	65.361356 
2070.000000	65.335297 
2069.000000	65.308308 
2068.000000	65.284085 
2067.000000	65.265655 
2066.000000	65.255212 
2065.000000	65.253663 
2064.000000	65.260839 
2063.000000	65.275430 
2062.000000	65.295171 
2061.000000	65.317440 
2060.000000	65.339183 
2059.000000	65.357518 
2058.000000	65.369939 
2057.000000	65.374803 
2056.000000	65.371274 
2055.000000	65.359616 
2054.000000	65.341258 
2053.000000	65.318346 
2052.000000	65.293335 
2051.000000	65.268754 
2050.000000	65.246820 
2049.000000	65.229249 
2048.000000	65.217304 
2047.000000	65.211653 
2046.000000	65.212392 
2045.000000	65.219020 
2044.000000	65.230751 
2043.000000	65.246200 
2042.000000	65.263462 
2041.000000	65.280413 
2040.000000	65.295028 
2039.000000	65.305638 
2038.000000	65.311360 
2037.000000	65.312170 
2036.000000	65.309119 
2035.000000	65.304088 
2034.000000	65.299367 
2033.000000	65.296912 
2032.000000	65.298080 
2031.000000	65.302968 
2030.000000	65.310788 
2029.000000	65.320062 
2028.000000	65.329051 
2027.000000	65.336394 
2026.000000	65.341258 
2025.000000	65.343713 
2024.000000	65.344452 
2023.000000	65.344476 
2022.000000	65.344667 
2021.000000	65.345454 
2020.000000	65.346717 
2019.000000	65.347886 
2018.000000	65.348148 
2017.000000	65.346693 
2016.000000	65.342998 
2015.000000	65.337347 
2014.000000	65.330481 
2013.000000	65.323615 
2012.000000	65.318107 
2011.000000	65.314984 
2010.000000	65.314793 
2009.000000	65.317368 
2008.000000	65.321946 
2007.000000	65.327358 
2006.000000	65.332269 
2005.000000	65.335559 
2004.000000	65.336441 
2003.000000	65.334582 
2002.000000	65.330100 
2001.000000	65.323519 
2000.000000	65.315532 
1999.000000	65.306663 
1998.000000	65.297365 
1997.000000	65.287828 
1996.000000	65.278005 
1995.000000	65.268015 
1994.000000	65.258073 
1993.000000	65.248823 
1992.000000	65.241122 
1991.000000	65.235972 
1990.000000	65.234136 
1989.000000	65.236234 
1988.000000	65.242266 
1987.000000	65.251946 
1986.000000	65.264725 
1985.000000	65.279936 
1984.000000	65.296983 
1983.000000	65.315341 
1982.000000	65.334558 
1981.000000	65.354108 
1980.000000	65.373206 
1979.000000	65.390753 
1978.000000	65.405273 
1977.000000	65.415239 
1976.000000	65.419220 
1975.000000	65.416288 
1974.000000	65.406250 
1973.000000	65.389871 
1972.000000	65.368771 
1971.000000	65.345287 
1970.000000	65.322065 
1969.000000	65.301680 
1968.000000	65.286302 
1967.000000	65.277290 
1966.000000	65.275192 
1965.000000	65.279722 
1964.000000	65.289759 
1963.000000	65.303730 
1962.000000	65.319800 
1961.000000	65.336012 
1960.000000	65.350627 
1959.000000	65.362358 
1958.000000	65.370416 
1957.000000	65.374588 
1956.000000	65.375018 
1955.000000	65.372300 
1954.000000	65.367174 
1953.000000	65.360474 
1952.000000	65.353131 
1951.000000	65.346026 
1950.000000	65.339946 
1949.000000	65.335488 
1948.000000	65.332984 
1947.000000	65.332460 
1946.000000	65.333724 
1945.000000	65.336227 
1944.000000	65.339207 
1943.000000	65.342044 
1942.000000	65.344119 
1941.000000	65.345168 
1940.000000	65.345168 
1939.000000	65.344309 
1938.000000	65.343141 
1937.000000	65.342307 
1936.000000	65.342068 
1935.000000	65.342545 
1934.000000	65.343379 
1933.000000	65.343880 
1932.000000	65.343236 
1931.000000	65.340518 
1930.000000	65.335035 
1929.000000	65.326499 
1928.000000	65.315008 
1927.000000	65.301203 
1926.000000	65.286254 
1925.000000	65.271496 
1924.000000	65.258502 
1923.000000	65.248847 
1922.000000	65.243577 
1921.000000	65.243291 
1920.000000	65.247893 
1919.000000	65.256452 
1918.000000	65.267801 
1917.000000	65.280437 
1916.000000	65.293097 
1915.000000	65.304923 
1914.000000	65.315675 
1913.000000	65.325665 
1912.000000	65.335345 
1911.000000	65.345263 
1910.000000	65.355587 
1909.000000	65.366029 
1908.000000	65.375685 
1907.000000	65.383267 
1906.000000	65.387463 
1905.000000	65.387439 
1904.000000	65.383076 
1903.000000	65.375161 
1902.000000	65.365219 
1901.000000	65.355300 
1900.000000	65.347361 
1899.000000	65.342879 
1898.000000	65.342569 
1897.000000	65.346169 
1896.000000	65.352606 
1895.000000	65.360236 
1894.000000	65.367293 
1893.000000	65.372252 
1892.000000	65.374112 
1891.000000	65.372705 
1890.000000	65.368461 
1889.000000	65.362477 
1888.000000	65.356016 
1887.000000	65.350317 
1886.000000	65.346121 
1885.000000	65.343832 
1884.000000	65.343165 
1883.000000	65.343689 
1882.000000	65.344738 
1881.000000	65.345978 
1880.000000	65.347051 
1879.000000	65.348052 
1878.000000	65.349340 
1877.000000	65.351152 
1876.000000	65.353512 
1875.000000	65.356040 
1874.000000	65.358066 
1873.000000	65.358591 
1872.000000	65.356469 
1871.000000	65.350794 
1870.000000	65.341162 
1869.000000	65.327644 
1868.000000	65.311098 
1867.000000	65.292739 
1866.000000	65.274333 
1865.000000	65.257501 
1864.000000	65.244007 
1863.000000	65.235280 
1862.000000	65.232372 
1861.000000	65.235877 
1860.000000	65.245771 
1859.000000	65.261316 
1858.000000	65.281248 
1857.000000	65.303611 
1856.000000	65.326070 
1855.000000	65.346074 
1854.000000	65.361237 
1853.000000	65.369629 
1852.000000	65.370225 
1851.000000	65.362954 
1850.000000	65.348625 
1849.000000	65.328764 
1848.000000	65.305423 
1847.000000	65.280652 
1846.000000	65.256333 
1845.000000	65.233945 
1844.000000	65.214443 
1843.000000	65.198421 
1842.000000	65.186238 
1841.000000	65.178155 
1840.000000	65.174365 
1839.000000	65.175127 
1838.000000	65.180325 
1837.000000	65.189790 
1836.000000	65.202641 
1835.000000	65.217995 
1834.000000	65.234518 
1833.000000	65.250968 
1832.000000	65.266346 
1831.000000	65.280151 
1830.000000	65.292263 
1829.000000	65.302920 
1828.000000	65.312504 
1827.000000	65.321111 
1826.000000	65.328526 
1825.000000	65.334177 
1824.000000	65.337443 
1823.000000	65.337824 
1822.000000	65.335226 
1821.000000	65.330410 
1820.000000	65.324854 
1819.000000	65.320539 
1818.000000	65.319466 
1817.000000	65.322947 
1816.000000	65.331292 
1815.000000	65.343689 
1814.000000	65.358233 
1813.000000	65.372657 
1812.000000	65.384435 
1811.000000	65.391921 
1810.000000	65.394186 
1809.000000	65.391039 
1808.000000	65.383005 
1807.000000	65.370798 
1806.000000	65.355563 
1805.000000	65.338540 
1804.000000	65.321254 
1803.000000	65.305399 
1802.000000	65.292477 
1801.000000	65.284013 
1800.000000	65.280842 
1799.000000	65.282940 
1798.000000	65.289449 
1797.000000	65.298843 
1796.000000	65.309119 
1795.000000	65.318155 
1794.000000	65.324258 
1793.000000	65.326571 
1792.000000	65.325021 
1791.000000	65.320515 
1790.000000	65.314555 
1789.000000	65.309190 
1788.000000	65.306091 
1787.000000	65.306520 
1786.000000	65.311145 
1785.000000	65.319919 
1784.000000	65.332221 
1783.000000	65.346956 
1782.000000	65.363025 
1781.000000	65.379309 
1780.000000	65.394830 
1779.000000	65.408682 
1778.000000	65.420055 
1777.000000	65.428137 
1776.000000	65.432333 
1775.000000	65.432119 
1774.000000	65.427327 
1773.000000	65.418195 
1772.000000	65.405654 
1771.000000	65.390992 
1770.000000	65.375995 
1769.000000	65.362358 
1768.000000	65.351629 
1767.000000	65.344810 
1766.000000	65.342140 
1765.000000	65.343070 
1764.000000	65.346264 
1763.000000	65.350103 
1762.000000	65.352821 
1761.000000	65.352797 
1760.000000	65.349006 
1759.000000	65.341114 
1758.000000	65.329480 
1757.000000	65.315008 
1756.000000	65.299034 
1755.000000	65.282750 
1754.000000	65.267276 
1753.000000	65.253353 
1752.000000	65.241336 
1751.000000	65.231251 
1750.000000	65.222907 
1749.000000	65.216064 
1748.000000	65.210485 
1747.000000	65.206027 
1746.000000	65.202498 
1745.000000	65.199661 
1744.000000	65.197038 
1743.000000	65.193963 
1742.000000	65.189599 
1741.000000	65.183091 
1740.000000	65.173721 
1739.000000	65.161156 
1738.000000	65.145540 
1737.000000	65.127587 
1736.000000	65.108251 
1735.000000	65.088868 
1734.000000	65.070581 
1733.000000	65.054702 
1732.000000	65.042018 
1731.000000	65.033173 
1730.000000	65.028572 
1729.000000	65.028381 
1728.000000	65.032529 
1727.000000	65.040850 
1726.000000	65.052795 
1725.000000	65.067720 
1724.000000	65.084600 
1723.000000	65.102338 
1722.000000	65.119695 
1721.000000	65.135574 
1720.000000	65.149164 
1719.000000	65.160179 
1718.000000	65.168809 
1717.000000	65.175676 
1716.000000	65.181803 
1715.000000	65.188002 
1714.000000	65.194940 
1713.000000	65.202832 
1712.000000	65.211415 
1711.000000	65.220117 
1710.000000	65.228056 
1709.000000	65.234637 
1708.000000	65.239500 
1707.000000	65.243053 
1706.000000	65.246129 
1705.000000	65.249919 
1704.000000	65.255618 
1703.000000	65.264225 
1702.000000	65.275907 
1701.000000	65.289735 
1700.000000	65.303969 
1699.000000	65.316224 
1698.000000	65.324020 
1697.000000	65.325379 
1696.000000	65.319442 
1695.000000	65.306568 
1694.000000	65.288615 
1693.000000	65.268516 
1692.000000	65.249562 
1691.000000	65.234708 
1690.000000	65.225720 
1689.000000	65.222930 
1688.000000	65.224957 
1687.000000	65.229129 
1686.000000	65.232157 
1685.000000	65.231227 
1684.000000	65.224313 
1683.000000	65.211057 
1682.000000	65.192675 
1681.000000	65.171885 
1680.000000	65.151929 
1679.000000	65.136241 
1678.000000	65.127563 
1677.000000	65.127515 
1676.000000	65.136313 
1675.000000	65.152812 
1674.000000	65.174961 
1673.000000	65.199947 
1672.000000	65.224790 
1671.000000	65.246486 
1670.000000	65.262627 
1669.000000	65.271472 
1668.000000	65.271902 
1667.000000	65.264081 
1666.000000	65.249109 
1665.000000	65.229344 
1664.000000	65.207767 
1663.000000	65.187644 
1662.000000	65.172028 
1661.000000	65.163278 
1660.000000	65.162658 
1659.000000	65.169954 
1658.000000	65.183758 
1657.000000	65.201783 
1656.000000	65.221285 
1655.000000	65.239548 
1654.000000	65.254306 
1653.000000	65.264034 
1652.000000	65.267920 
1651.000000	65.265870 
1650.000000	65.258336 
1649.000000	65.246081 
1648.000000	65.230226 
1647.000000	65.212011 
1646.000000	65.192556 
1645.000000	65.173459 
1644.000000	65.155911 
1643.000000	65.141320 
1642.000000	65.130400 
1641.000000	65.123438 
1640.000000	65.120196 
1639.000000	65.120029 
1638.000000	65.121984 
1637.000000	65.124940 
1636.000000	65.128016 
1635.000000	65.130496 
1634.000000	65.132164 
1633.000000	65.133070 
1632.000000	65.133619 
1631.000000	65.134501 
1630.000000	65.136218 
1629.000000	65.139436 
1628.000000	65.144586 
1627.000000	65.152049 
1626.000000	65.161943 
1625.000000	65.174150 
1624.000000	65.188145 
1623.000000	65.203237 
1622.000000	65.218305 
1621.000000	65.232086 
1620.000000	65.243244 
1619.000000	65.250563 
1618.000000	65.253186 
1617.000000	65.250706 
1616.000000	65.243363 
1615.000000	65.231990 
1614.000000	65.218114 
1613.000000	65.203547 
1612.000000	65.190267 
1611.000000	65.179920 
1610.000000	65.173840 
1609.000000	65.172624 
1608.000000	65.176129 
1607.000000	65.183353 
1606.000000	65.192627 
1605.000000	65.201878 
1604.000000	65.209007 
1603.000000	65.212106 
1602.000000	65.209937 
1601.000000	65.202188 
1600.000000	65.189599 
1599.000000	65.173792 
1598.000000	65.156936 
1597.000000	65.141463 
1596.000000	65.129423 
1595.000000	65.121960 
1594.000000	65.119242 
1593.000000	65.120506 
1592.000000	65.124416 
1591.000000	65.129232 
1590.000000	65.133523 
1589.000000	65.136551 
1588.000000	65.138435 
1587.000000	65.139961 
1586.000000	65.142226 
1585.000000	65.146017 
1584.000000	65.151381 
1583.000000	65.157675 
1582.000000	65.163397 
1581.000000	65.166783 
1580.000000	65.166139 
1579.000000	65.160632 
1578.000000	65.150213 
1577.000000	65.135860 
1576.000000	65.119314 
1575.000000	65.102553 
1574.000000	65.087437 
1573.000000	65.075373 
1572.000000	65.066719 
1571.000000	65.061116 
1570.000000	65.057611 
1569.000000	65.055012 
1568.000000	65.052056 
1567.000000	65.048050 
1566.000000	65.042662 
1565.000000	65.036296 
1564.000000	65.029835 
1563.000000	65.024614 
1562.000000	65.022015 
1561.000000	65.023374 
1560.000000	65.029740 
1559.000000	65.041446 
1558.000000	65.058016 
1557.000000	65.078091 
1556.000000	65.099740 
1555.000000	65.120792 
1554.000000	65.139222 
1553.000000	65.153527 
1552.000000	65.162873 
1551.000000	65.167117 
1550.000000	65.166616 
1549.000000	65.161967 
1548.000000	65.153765 
1547.000000	65.142583 
1546.000000	65.128755 
1545.000000	65.112900 
1544.000000	65.095663 
1543.000000	65.077757 
1542.000000	65.060377 
1541.000000	65.044879 
1540.000000	65.032839 
1539.000000	65.025544 
1538.000000	65.023899 
1537.000000	65.028357 
1536.000000	65.038728 
1535.000000	65.054297 
1534.000000	65.073919 
1533.000000	65.096068 
1532.000000	65.118980 
1531.000000	65.140390 
1530.000000	65.158033 
1529.000000	65.169787 
1528.000000	65.174031 
1527.000000	65.169978 
1526.000000	65.158033 
1525.000000	65.139698 
1524.000000	65.117287 
1523.000000	65.093541 
1522.000000	65.071129 
1521.000000	65.052175 
1520.000000	65.038251 
1519.000000	65.030121 
1518.000000	65.027856 
1517.000000	65.031099 
1516.000000	65.039229 
1515.000000	65.051627 
1514.000000	65.067625 
1513.000000	65.086627 
1512.000000	65.107631 
1511.000000	65.129613 
1510.000000	65.151190 
1509.000000	65.171074 
1508.000000	65.188312 
1507.000000	65.202140 
1506.000000	65.212416 
1505.000000	65.219235 
1504.000000	65.222835 
1503.000000	65.223431 
1502.000000	65.221071 
1501.000000	65.216040 
1500.000000	65.208959 
1499.000000	65.200734 
1498.000000	65.192651 
1497.000000	65.186095 
1496.000000	65.182113 
1495.000000	65.180993 
1494.000000	65.182209 
1493.000000	65.184473 
1492.000000	65.186023 
1491.000000	65.185284 
1490.000000	65.181255 
1489.000000	65.173935 
1488.000000	65.164184 
1487.000000	65.153837 
1486.000000	65.144729 
1485.000000	65.138602 
1484.000000	65.136122 
1483.000000	65.136981 
1482.000000	65.139985 
1481.000000	65.143728 
1480.000000	65.147066 
1479.000000	65.149474 
1478.000000	65.151166 
1477.000000	65.152955 
1476.000000	65.155696 
1475.000000	65.159940 
1474.000000	65.165495 
1473.000000	65.171408 
1472.000000	65.176153 
1471.000000	65.178108 
1470.000000	65.176105 
1469.000000	65.169858 
1468.000000	65.160083 
1467.000000	65.148353 
1466.000000	65.136575 
1465.000000	65.126538 
1464.000000	65.119409 
1463.000000	65.115475 
1462.000000	65.113925 
1461.000000	65.113353 
1460.000000	65.112137 
1459.000000	65.108966 
1458.000000	65.103173 
1457.000000	65.095186 
1456.000000	65.086007 
1455.000000	65.077280 
1454.000000	65.070986 
1453.000000	65.068936 
1452.000000	65.072250 
1451.000000	65.081334 
1450.000000	65.095758 
1449.000000	65.114068 
1448.000000	65.134215 
1447.000000	65.153598 
1446.000000	65.169501 
1445.000000	65.179443 
1444.000000	65.181493 
1443.000000	65.174841 
1442.000000	65.159893 
1441.000000	65.138363 
1440.000000	65.113258 
1439.000000	65.088653 
1438.000000	65.068650 
1437.000000	65.057063 
1436.000000	65.056443 
1435.000000	65.067577 
1434.000000	65.088987 
1433.000000	65.117478 
1432.000000	65.148425 
1431.000000	65.176463 
1430.000000	65.196704 
1429.000000	65.205574 
1428.000000	65.201592 
1427.000000	65.185451 
1426.000000	65.159869 
1425.000000	65.128946 
1424.000000	65.097308 
1423.000000	65.069270 
1422.000000	65.047883 
1421.000000	65.034627 
1420.000000	65.029191 
1419.000000	65.030121 
1418.000000	65.035009 
1417.000000	65.041446 
1416.000000	65.047550 
1415.000000	65.052270 
1414.000000	65.055513 
1413.000000	65.057992 
1412.000000	65.060448 
1411.000000	65.063738 
1410.000000	65.068340 
1409.000000	65.074300 
1408.000000	65.081548 
1407.000000	65.090084 
1406.000000	65.100193 
1405.000000	65.112352 
1404.000000	65.127277 
1403.000000	65.145325 
1402.000000	65.166258 
1401.000000	65.189003 
1400.000000	65.211844 
1399.000000	65.232157 
1398.000000	65.247368 
1397.000000	65.255093 
1396.000000	65.254044 
1395.000000	65.244150 
1394.000000	65.226817 
1393.000000	65.204548 
1392.000000	65.180540 
1391.000000	65.158271 
1390.000000	65.140795 
1389.000000	65.130400 
1388.000000	65.128087 
1387.000000	65.133547 
1386.000000	65.145182 
1385.000000	65.160322 
1384.000000	65.175700 
1383.000000	65.187692 
1382.000000	65.193295 
1381.000000	65.190505 
1380.000000	65.178966 
1379.000000	65.159773 
1378.000000	65.135431 
1377.000000	65.109419 
1376.000000	65.085291 
1375.000000	65.066075 
1374.000000	65.053558 
1373.000000	65.048050 
1372.000000	65.048384 
1371.000000	65.052390 
1370.000000	65.057492 
1369.000000	65.061402 
1368.000000	65.062689 
1367.000000	65.060925 
1366.000000	65.056800 
1365.000000	65.051770 
1364.000000	65.047502 
1363.000000	65.045404 
1362.000000	65.046405 
1361.000000	65.050721 
1360.000000	65.057969 
1359.000000	65.067148 
1358.000000	65.077018 
1357.000000	65.086245 
1356.000000	65.093564 
1355.000000	65.098190 
1354.000000	65.099596 
1353.000000	65.097880 
1352.000000	65.093660 
1351.000000	65.088295 
1350.000000	65.083503 
1349.000000	65.081238 
1348.000000	65.083479 
1347.000000	65.091490 
1346.000000	65.105414 
1345.000000	65.124106 
1344.000000	65.145444 
1343.000000	65.166521 
1342.000000	65.184354 
1341.000000	65.196490 
1340.000000	65.201520 
1339.000000	65.199422 
1338.000000	65.191340 
1337.000000	65.179085 
1336.000000	65.164756 
1335.000000	65.150117 
1334.000000	65.136384 
1333.000000	65.124106 
1332.000000	65.113377 
1331.000000	65.104246 
1330.000000	65.096974 
1329.000000	65.092253 
1328.000000	65.090847 
1327.000000	65.093445 
1326.000000	65.100455 
1325.000000	65.111470 
1324.000000	65.125560 
1323.000000	65.141439 
1322.000000	65.157818 
1321.000000	65.173959 
1320.000000	65.189504 
1319.000000	65.204429 
1318.000000	65.218806 
1317.000000	65.232443 
1316.000000	65.244555 
1315.000000	65.253710 
1314.000000	65.258097 
1313.000000	65.255904 
1312.000000	65.245938 
1311.000000	65.228199 
1310.000000	65.203738 
1309.000000	65.174531 
1308.000000	65.143084 
1307.000000	65.111780 
1306.000000	65.082287 
1305.000000	65.055418 
1304.000000	65.031218 
1303.000000	65.009570 
1302.000000	64.990353 
1301.000000	64.974188 
1300.000000	64.962267 
1299.000000	64.956402 
1298.000000	64.958143 
1297.000000	64.968776 
1296.000000	64.988446 
1295.000000	65.016174 
1294.000000	65.049719 
1293.000000	65.086054 
1292.000000	65.121936 
1291.000000	65.154409 
1290.000000	65.181231 
1289.000000	65.200877 
1288.000000	65.212726 
1287.000000	65.216588 
1286.000000	65.212869 
1285.000000	65.202093 
1284.000000	65.185046 
1283.000000	65.162897 
1282.000000	65.137362 
1281.000000	65.110492 
1280.000000	65.084242 
1279.000000	65.060687 
1278.000000	65.041422 
1277.000000	65.027117 
1276.000000	65.017700 
1275.000000	65.012121 
1274.000000	65.009212 
1273.000000	65.007543 
1272.000000	65.006184 
1271.000000	65.004849 
1270.000000	65.004038 
1269.000000	65.004467 
1268.000000	65.007138 
1267.000000	65.012454 
1266.000000	65.020251 
1265.000000	65.029668 
1264.000000	65.039324 
1263.000000	65.047645 
1262.000000	65.053224 
1261.000000	65.055322 
1260.000000	65.053987 
1259.000000	65.049982 
1258.000000	65.044713 
1257.000000	65.039610 
1256.000000	65.036058 
1255.000000	65.035033 
1254.000000	65.036702 
1253.000000	65.040588 
1252.000000	65.045785 
1251.000000	65.051174 
1250.000000	65.055775 
1249.000000	65.058922 
1248.000000	65.060305 
1247.000000	65.060019 
1246.000000	65.058350 
1245.000000	65.055632 
1244.000000	65.052199 
1243.000000	65.048193 
1242.000000	65.043616 
1241.000000	65.038537 
1240.000000	65.033030 
1239.000000	65.027332 
1238.000000	65.021800 
1237.000000	65.016913 
1236.000000	65.013194 
1235.000000	65.011143 
1234.000000	65.011215 
1233.000000	65.013766 
1232.000000	65.018939 
1231.000000	65.026760 
1230.000000	65.037131 
1229.000000	65.049576 
1228.000000	65.063333 
1227.000000	65.077257 
1226.000000	65.090036 
1225.000000	65.100097 
1224.000000	65.105938 
1223.000000	65.106320 
1222.000000	65.100598 
1221.000000	65.088915 
1220.000000	65.072250 
1219.000000	65.052318 
1218.000000	65.031456 
1217.000000	65.012097 
1216.000000	64.996528 
1215.000000	64.986705 
1214.000000	64.983510 
1213.000000	64.987111 
1212.000000	64.996528 
1211.000000	65.009880 
1210.000000	65.024685 
1209.000000	65.038299 
1208.000000	65.048408 
1207.000000	65.053367 
1206.000000	65.052533 
1205.000000	65.046286 
1204.000000	65.035676 
1203.000000	65.022087 
1202.000000	65.006923 
1201.000000	64.991402 
1200.000000	64.976215 
1199.000000	64.961862 
1198.000000	64.948654 
1197.000000	64.936995 
1196.000000	64.927530 
1195.000000	64.921045 
1194.000000	64.918327 
1193.000000	64.919638 
1192.000000	64.924550 
1191.000000	64.931917 
1190.000000	64.939785 
1189.000000	64.946055 
1188.000000	64.949131 
1187.000000	64.948391 
1186.000000	64.944362 
1185.000000	64.938735 
1184.000000	64.933609 
1183.000000	64.931106 
1182.000000	64.932656 
1181.000000	64.938831 
1180.000000	64.949440 
1179.000000	64.963603 
1178.000000	64.980292 
1177.000000	64.998555 
1176.000000	65.017843 
1175.000000	65.037751 
1174.000000	65.057897 
1173.000000	65.077567 
1172.000000	65.095472 
1171.000000	65.109801 
1170.000000	65.118384 
1169.000000	65.119361 
1168.000000	65.111660 
1167.000000	65.095329 
1166.000000	65.071630 
1165.000000	65.042686 
1164.000000	65.011096 
1163.000000	64.979505 
1162.000000	64.950132 
1161.000000	64.924645 
1160.000000	64.904093 
1159.000000	64.889216 
1158.000000	64.880037 
1157.000000	64.876103 
1156.000000	64.876604 
1155.000000	64.880204 
1154.000000	64.885425 
1153.000000	64.890837 
1152.000000	64.895319 
1151.000000	64.898037 
1150.000000	64.898753 
1149.000000	64.897704 
1148.000000	64.895248 
1147.000000	64.891767 
1146.000000	64.887142 
1145.000000	64.880776 
1144.000000	64.871644 
1143.000000	64.858841 
1142.000000	64.841890 
1141.000000	64.821267 
1140.000000	64.798593 
1139.000000	64.776396 
1138.000000	64.757490 
1137.000000	64.744400 
1136.000000	64.738702 
1135.000000	64.741015 
1134.000000	64.750671 
1133.000000	64.766144 
1132.000000	64.785647 
1131.000000	64.807224 
1130.000000	64.828991 
1129.000000	64.849233 
1128.000000	64.866304 
1127.000000	64.878630 
1126.000000	64.884710 
1125.000000	64.883518 
1124.000000	64.874601 
1123.000000	64.858746 
1122.000000	64.837908 
1121.000000	64.815378 
1120.000000	64.795136 
1119.000000	64.780879 
1118.000000	64.775300 
1117.000000	64.779543 
1116.000000	64.793014 
1115.000000	64.813542 
1114.000000	64.838099 
1113.000000	64.863824 
1112.000000	64.888381 
1111.000000	64.910578 
1110.000000	64.930248 
1109.000000	64.947748 
1108.000000	64.963364 
1107.000000	64.976859 
1106.000000	64.987325 
1105.000000	64.993071 
1104.000000	64.991998 
1103.000000	64.982438 
1102.000000	64.963483 
1101.000000	64.935827 
1100.000000	64.901304 
1099.000000	64.862728 
1098.000000	64.823532 
1097.000000	64.786982 
1096.000000	64.756035 
1095.000000	64.732956 
1094.000000	64.719223 
1093.000000	64.715528 
1092.000000	64.721655 
1091.000000	64.736700 
1090.000000	64.758825 
1089.000000	64.785623 
1088.000000	64.814329 
1087.000000	64.842128 
1086.000000	64.866328 
1085.000000	64.884662 
1084.000000	64.895129 
1083.000000	64.896559 
1082.000000	64.888334 
1081.000000	64.870834 
1080.000000	64.845633 
1079.000000	64.815568 
1078.000000	64.784479 
1077.000000	64.757037 
1076.000000	64.737796 
1075.000000	64.730668 
1074.000000	64.738225 
1073.000000	64.760971 
1072.000000	64.797139 
1071.000000	64.842915 
1070.000000	64.893078 
1069.000000	64.941644 
1068.000000	64.982867 
1067.000000	65.012288 
1066.000000	65.027236 
1065.000000	65.027046 
1064.000000	65.012788 
1063.000000	64.986920 
1062.000000	64.952611 
1061.000000	64.913129 
1060.000000	64.871239 
1059.000000	64.829158 
1058.000000	64.788818 
1057.000000	64.751839 
1056.000000	64.720129 
1055.000000	64.695644 
1054.000000	64.680767 
1053.000000	64.677810 
1052.000000	64.688944 
1051.000000	64.714789 
1050.000000	64.754581 
1049.000000	64.805912 
1048.000000	64.864802 
1047.000000	64.926123 
1046.000000	64.984416 
1045.000000	65.034675 
1044.000000	65.073156 
1043.000000	65.097856 
1042.000000	65.108489 
1041.000000	65.106201 
1040.000000	65.093278 
1039.000000	65.072464 
1038.000000	65.046739 
1037.000000	65.018844 
1036.000000	64.991259 
1035.000000	64.966106 
1034.000000	64.945363 
1033.000000	64.930295 
1032.000000	64.922046 
1031.000000	64.920473 
1030.000000	64.924478 
1029.000000	64.931368 
1028.000000	64.937734 
1027.000000	64.939427 
1026.000000	64.932513 
1025.000000	64.914083 
1024.000000	64.883017 
1023.000000	64.840602 
1022.000000	64.789962 
1021.000000	64.736127 
1020.000000	64.684700 
1019.000000	64.641213 
1018.000000	64.609885 
1017.000000	64.593243 
1016.000000	64.591288 
1015.000000	64.602613 
1014.000000	64.624738 
1013.000000	64.654469 
1012.000000	64.688420 
1011.000000	64.723539 
1010.000000	64.757180 
1009.000000	64.787197 
1008.000000	64.811849 
1007.000000	64.829969 
1006.000000	64.841055 
1005.000000	64.845705 
1004.000000	64.845299 
1003.000000	64.841771 
1002.000000	64.837384 
1001.000000	64.834380 
1000.000000	64.834690 
999.000000	 64.839529 
998.000000	 64.849615 
997.000000	 64.865159 
996.000000	 64.885807 
995.000000	 64.910864 
994.000000	 64.938902 
993.000000	 64.968228 
992.000000	 64.996075 
991.000000	 65.019059 
990.000000	 65.033125 
989.000000	 65.034699 
988.000000	 65.021157 
987.000000	 64.991569 
986.000000	 64.947414 
985.000000	 64.892840 
984.000000	 64.833950 
983.000000	 64.777708 
982.000000	 64.730668 
981.000000	 64.697599 
980.000000	 64.680981 
979.000000	 64.680504 
978.000000	 64.693284 
977.000000	 64.714956 
976.000000	 64.740633 
975.000000	 64.766168 
974.000000	 64.788246 
973.000000	 64.805507 
972.000000	 64.817643 
971.000000	 64.825773 
970.000000	 64.830851 
969.000000	 64.834046 
968.000000	 64.836025 
967.000000	 64.837384 
966.000000	 64.838480 
965.000000	 64.839744 
964.000000	 64.842057 
963.000000	 64.846277 
962.000000	 64.853167 
961.000000	 64.862561 
960.000000	 64.873409 
959.000000	 64.883518 
958.000000	 64.890289 
957.000000	 64.891171 
956.000000	 64.884638 
955.000000	 64.870905 
954.000000	 64.852190 
953.000000	 64.832162 
952.000000	 64.814901 
951.000000	 64.804053 
950.000000	 64.801502 
949.000000	 64.806890 
948.000000	 64.817333 
947.000000	 64.828014 
946.000000	 64.833450 
945.000000	 64.828920 
944.000000	 64.811587 
943.000000	 64.780998 
942.000000	 64.739418 
941.000000	 64.690899 
940.000000	 64.640760 
939.000000	 64.593815 
938.000000	 64.554405 
937.000000	 64.525651 
936.000000	 64.509415 
935.000000	 64.506196 
934.000000	 64.515542 
933.000000	 64.536404 
932.000000	 64.567351 
931.000000	 64.606547 
930.000000	 64.652347 
929.000000	 64.702987 
928.000000	 64.756298 
927.000000	 64.809489 
926.000000	 64.858937 
925.000000	 64.900231 
924.000000	 64.928436 
923.000000	 64.938855 
922.000000	 64.928007 
921.000000	 64.894676 
920.000000	 64.841508 
919.000000	 64.774322 
918.000000	 64.701771 
917.000000	 64.633464 
916.000000	 64.579439 
915.000000	 64.546155 
914.000000	 64.535307 
913.000000	 64.543056 
912.000000	 64.561438 
911.000000	 64.580178 
910.000000	 64.589381 
909.000000	 64.582490 
908.000000	 64.558005 
907.000000	 64.519429 
906.000000	 64.473867 
905.000000	 64.429616 
904.000000	 64.393448 
903.000000	 64.368605 
902.000000	 64.354014 
901.000000	 64.344716 
900.000000	 64.333963 
899.000000	 64.315319 
898.000000	 64.285850 
897.000000	 64.246368 
896.000000	 64.203143 
895.000000	 64.165759 
894.000000	 64.146375 
893.000000	 64.155054 
892.000000	 64.199495 
891.000000	 64.282250 
890.000000	 64.400982 
889.000000	 64.548420 
888.000000	 64.713621 
887.000000	 64.884161 
886.000000	 65.047240 
885.000000	 65.191674 
884.000000	 65.308427 
883.000000	 65.391564 
882.000000	 65.438413 
881.000000	 65.449595 
880.000000	 65.428256 
879.000000	 65.379595 
878.000000	 65.310359 
877.000000	 65.228343 
876.000000	 65.141677 
875.000000	 65.058112 
874.000000	 64.984250 
873.000000	 64.925193 
872.000000	 64.883279 
871.000000	 64.858436 
870.000000	 64.848160 
869.000000	 64.848518 
868.000000	 64.854860 
867.000000	 64.862728 
866.000000	 64.868354 
865.000000	 64.868569 
864.000000	 64.860796 
863.000000	 64.842844 
862.000000	 64.812350 
861.000000	 64.767909 
860.000000	 64.708924 
859.000000	 64.637088 
858.000000	 64.556097 
857.000000	 64.472460 
856.000000	 64.394736 
855.000000	 64.331674 
854.000000	 64.290332 
853.000000	 64.274811 
852.000000	 64.285230 
851.000000	 64.316821 
850.000000	 64.360904 
849.000000	 64.407229 
848.000000	 64.446258 
847.000000	 64.471244 
846.000000	 64.479446 
845.000000	 64.471983 
844.000000	 64.453387 
843.000000	 64.429616 
842.000000	 64.406633 
841.000000	 64.388895 
840.000000	 64.378547 
839.000000	 64.375591 
838.000000	 64.378404 
837.000000	 64.384365 
836.000000	 64.391136 
835.000000	 64.397311 
834.000000	 64.403152 
833.000000	 64.410567 
832.000000	 64.422392 
831.000000	 64.441347 
830.000000	 64.468812 
829.000000	 64.503717 
828.000000	 64.542341 
827.000000	 64.579033 
826.000000	 64.606738 
825.000000	 64.618778 
824.000000	 64.610481 
823.000000	 64.580631 
822.000000	 64.531564 
821.000000	 64.468550 
820.000000	 64.398980 
819.000000	 64.330601 
818.000000	 64.269614 
817.000000	 64.219570 
816.000000	 64.181017 
815.000000	 64.152050 
814.000000	 64.129567 
813.000000	 64.110732 
812.000000	 64.093637 
811.000000	 64.077782 
810.000000	 64.063835 
809.000000	 64.052987 
808.000000	 64.045500 
807.000000	 64.040923 
806.000000	 64.037203 
805.000000	 64.032196 
804.000000	 64.023590 
803.000000	 64.010834 
802.000000	 63.995409 
801.000000	 63.980793 
800.000000	 63.971638 
799.000000	 63.972616 
798.000000	 63.986945 
797.000000	 64.015579 
796.000000	 64.056730 
795.000000	 64.107060 
794.000000	 64.162230 
793.000000	 64.218592 
792.000000	 64.273262 
791.000000	 64.324617 
790.000000	 64.371275 
789.000000	 64.411759 
788.000000	 64.443802 
787.000000	 64.463996 
786.000000	 64.468526 
785.000000	 64.454793 
784.000000	 64.421939 
783.000000	 64.372158 
782.000000	 64.310193 
781.000000	 64.243745 
780.000000	 64.181232 
779.000000	 64.130377 
778.000000	 64.096570 
777.000000	 64.081454 
776.000000	 64.083266 
775.000000	 64.097499 
774.000000	 64.118337 
773.000000	 64.140152 
772.000000	 64.159059 
771.000000	 64.173555 
770.000000	 64.184117 
769.000000	 64.192342 
768.000000	 64.199900 
767.000000	 64.207696 
766.000000	 64.215183 
765.000000	 64.220142 
764.000000	 64.219856 
763.000000	 64.211845 
762.000000	 64.194846 
761.000000	 64.169597 
760.000000	 64.139246 
759.000000	 64.108633 
758.000000	 64.083337 
757.000000	 64.067888 
756.000000	 64.064908 
755.000000	 64.073944 
754.000000	 64.092206 
753.000000	 64.114356 
752.000000	 64.134263 
751.000000	 64.145994 
750.000000	 64.145541 
749.000000	 64.130973 
748.000000	 64.102697 
747.000000	 64.063072 
746.000000	 64.015793 
745.000000	 63.964867 
744.000000	 63.913846 
743.000000	 63.865613 
742.000000	 63.822078 
741.000000	 63.784599 
740.000000	 63.754034 
739.000000	 63.730716 
738.000000	 63.714671 
737.000000	 63.705396 
736.000000	 63.702178 
735.000000	 63.703393 
734.000000	 63.707709 
733.000000	 63.713812 
732.000000	 63.721609 
731.000000	 63.731670 
730.000000	 63.745427 
729.000000	 63.764667 
728.000000	 63.790535 
727.000000	 63.823032 
726.000000	 63.860177 
725.000000	 63.898253 
724.000000	 63.932108 
723.000000	 63.956284 
722.000000	 63.966155 
721.000000	 63.958883 
720.000000	 63.934087 
719.000000	 63.894224 
718.000000	 63.844084 
717.000000	 63.790035 
716.000000	 63.738512 
715.000000	 63.694953 
714.000000	 63.662600 
713.000000	 63.642120 
712.000000	 63.632082 
711.000000	 63.629484 
710.000000	 63.630580 
709.000000	 63.631892 
708.000000	 63.630962 
707.000000	 63.626742 
706.000000	 63.618969 
705.000000	 63.608360 
704.000000	 63.595509 
703.000000	 63.581085 
702.000000	 63.565301 
701.000000	 63.548636 
700.000000	 63.531494 
699.000000	 63.515067 
698.000000	 63.501715 
697.000000	 63.493967 
696.000000	 63.494205 
695.000000	 63.503336 
694.000000	 63.520598 
693.000000	 63.542723 
692.000000	 63.564300 
691.000000	 63.579225 
690.000000	 63.582110 
689.000000	 63.569784 
688.000000	 63.542270 
687.000000	 63.502502 
686.000000	 63.455724 
685.000000	 63.408422 
684.000000	 63.366842 
683.000000	 63.335633 
682.000000	 63.317012 
681.000000	 63.310980 
680.000000	 63.315773 
679.000000	 63.328623 
678.000000	 63.346314 
677.000000	 63.366150 
676.000000	 63.385796 
675.000000	 63.403701 
674.000000	 63.418316 
673.000000	 63.428068 
672.000000	 63.430714 
671.000000	 63.423776 
670.000000	 63.404798 
669.000000	 63.372206 
668.000000	 63.325762 
667.000000	 63.267064 
666.000000	 63.199925 
665.000000	 63.130021 
664.000000	 63.064289 
663.000000	 63.009929 
662.000000	 62.973380 
661.000000	 62.959265 
660.000000	 62.969446 
659.000000	 63.002729 
658.000000	 63.054943 
657.000000	 63.119530 
656.000000	 63.188672 
655.000000	 63.254642 
654.000000	 63.310480 
653.000000	 63.351106 
652.000000	 63.373231 
651.000000	 63.375711 
650.000000	 63.359189 
649.000000	 63.326120 
648.000000	 63.280367 
647.000000	 63.226366 
646.000000	 63.169360 
645.000000	 63.113880 
644.000000	 63.064265 
643.000000	 63.023376 
642.000000	 62.993073 
641.000000	 62.973904 
640.000000	 62.965416 
639.000000	 62.966942 
638.000000	 62.977719 
637.000000	 62.997102 
636.000000	 63.024044 
635.000000	 63.057255 
634.000000	 63.094878 
633.000000	 63.134002 
632.000000	 63.170838 
631.000000	 63.201141 
630.000000	 63.220953 
629.000000	 63.227677 
628.000000	 63.220405 
627.000000	 63.200831 
626.000000	 63.172245 
625.000000	 63.139462 
624.000000	 63.106775 
623.000000	 63.077235 
622.000000	 63.051700 
621.000000	 63.029074 
620.000000	 63.006782 
619.000000	 62.981677 
618.000000	 62.952113 
617.000000	 62.918114 
616.000000	 62.883114 
615.000000	 62.852358 
614.000000	 62.833333 
613.000000	 62.833738 
612.000000	 62.859511 
611.000000	 62.913155 
610.000000	 62.991595 
609.000000	 63.086128 
608.000000	 63.183760 
607.000000	 63.269591 
606.000000	 63.331103 
605.000000	 63.361048 
604.000000	 63.359022 
603.000000	 63.331031 
602.000000	 63.287472 
601.000000	 63.240122 
600.000000	 63.198852 
599.000000	 63.169622 
598.000000	 63.154745 
597.000000	 63.152122 
596.000000	 63.159155 
595.000000	 63.171076 
594.000000	 63.183379 
593.000000	 63.191103 
592.000000	 63.189530 
591.000000	 63.174748 
590.000000	 63.143038 
589.000000	 63.093161 
588.000000	 63.026547 
587.000000	 62.947988 
586.000000	 62.865161 
585.000000	 62.787318 
584.000000	 62.723803 
583.000000	 62.680959 
582.000000	 62.660622 
581.000000	 62.658834 
580.000000	 62.666773 
579.000000	 62.672734 
578.000000	 62.665462 
577.000000	 62.636756 
576.000000	 62.584614 
575.000000	 62.513947 
574.000000	 62.436056 
573.000000	 62.364768 
572.000000	 62.313938 
571.000000	 62.293243 
570.000000	 62.306809 
569.000000	 62.351536 
568.000000	 62.419271 
567.000000	 62.498760 
566.000000	 62.579178 
565.000000	 62.652349 
564.000000	 62.714529 
563.000000	 62.765836 
562.000000	 62.809824 
561.000000	 62.850522 
560.000000	 62.891435 
559.000000	 62.933421 
558.000000	 62.975096 
557.000000	 63.013648 
556.000000	 63.045573 
555.000000	 63.068222 
554.000000	 63.080859 
553.000000	 63.084816 
552.000000	 63.082480 
551.000000	 63.076233 
550.000000	 63.067793 
549.000000	 63.057374 
548.000000	 63.044333 
547.000000	 63.026928 
546.000000	 63.003778 
545.000000	 62.973809 
544.000000	 62.937068 
543.000000	 62.894535 
542.000000	 62.847375 
541.000000	 62.797784 
540.000000	 62.747931 
539.000000	 62.700843 
538.000000	 62.659859 
537.000000	 62.628579 
536.000000	 62.610459 
535.000000	 62.607836 
534.000000	 62.620735 
533.000000	 62.647223 
532.000000	 62.683582 
531.000000	 62.724399 
530.000000	 62.762951 
529.000000	 62.793326 
528.000000	 62.811470 
527.000000	 62.815475 
526.000000	 62.805414 
525.000000	 62.784099 
524.000000	 62.755942 
523.000000	 62.725329 
522.000000	 62.695193 
521.000000	 62.666630 
520.000000	 62.638664 
519.000000	 62.609219 
518.000000	 62.576150 
517.000000	 62.538504 
516.000000	 62.497234 
515.000000	 62.456059 
514.000000	 62.420082 
513.000000	 62.393641 
512.000000	 62.379074 
511.000000	 62.375736 
510.000000	 62.379693 
509.000000	 62.384772 
508.000000	 62.383723 
507.000000	 62.371015 
506.000000	 62.342143 
505.000000	 62.295055 
504.000000	 62.228989 
503.000000	 62.144875 
502.000000	 62.043762 
501.000000	 61.926841 
500.000000	 61.794877 
499.000000	 61.648893 
498.000000	 61.491107 
497.000000	 61.326456 
496.000000	 61.161828 
495.000000	 61.007118 
494.000000	 60.874366 
493.000000	 60.777211 
492.000000	 60.727167 
491.000000	 60.732102 
490.000000	 60.793876 
489.000000	 60.907602 
488.000000	 61.060047 
487.000000	 61.233091 
486.000000	 61.405396 
485.000000	 61.557626 
484.000000	 61.674404 
483.000000	 61.748361 
482.000000	 61.779594 
481.000000	 61.776208 
480.000000	 61.751508 
479.000000	 61.720204 
478.000000	 61.695814 
477.000000	 61.685276 
476.000000	 61.689043 
475.000000	 61.698961 
474.000000	 61.701989 
473.000000	 61.682510 
472.000000	 61.627531 
471.000000	 61.530637 
470.000000	 61.394238 
469.000000	 61.230421 
468.000000	 61.057615 
467.000000	 60.894370 
466.000000	 60.754609 
465.000000	 60.644292 
464.000000	 60.560607 
463.000000	 60.493278 
462.000000	 60.429549 
461.000000	 60.358524 
460.000000	 60.276031 
459.000000	 60.186195 
458.000000	 60.100507 
457.000000	 60.033106 
456.000000	 59.996676 
455.000000	 59.998226 
454.000000	 60.034227 
453.000000	 60.089635 
452.000000	 60.141277 
451.000000	 60.164856 
450.000000	 60.138607 
449.000000	 60.048937 
448.000000	 59.895181 
447.000000	 59.690165 
446.000000	 59.458947 
445.000000	 59.233403 
444.000000	 59.046483 
443.000000	 58.925151 
442.000000	 58.887028 
441.000000	 58.936166 
440.000000	 59.062981 
439.000000	 59.245491 
438.000000	 59.452652 
437.000000	 59.650564 
436.000000	 59.809350 
435.000000	 59.908604 
434.000000	 59.937381 
433.000000	 59.897685 
432.000000	 59.803533 
431.000000	 59.674024 
430.000000	 59.536290 
429.000000	 59.406948 
428.000000	 59.285807 
427.000000	 59.158182 
426.000000	 59.007239 
425.000000	 58.811545 
424.000000	 58.551454 
423.000000	 58.223676 
422.000000	 57.845520 
421.000000	 57.455825 
420.000000	 57.108139 
419.000000	 56.856441 
418.000000	 56.739830 
417.000000	 56.783413 
416.000000	 56.988811 
415.000000	 57.325005 
414.000000	 57.729911 
413.000000	 58.130860 
412.000000	 58.450150 
411.000000	 58.610081 
410.000000	 58.551502 
409.000000	 58.234763 
408.000000	 57.666897 
407.000000	 56.887507 
406.000000	 55.997204 
405.000000	 55.126261 
404.000000	 54.446744 
403.000000	 54.133939 
402.000000	 54.348945 
401.000000	 55.200958 
400.000000	 56.718111 
399.000000	 58.841753 
398.000000	 61.401557 
397.000000	 64.139270 
396.000000	 66.738057 
395.000000	 68.881034 
394.000000	 70.296597 
393.000000	 70.809340 
392.000000	 70.352292 
391.000000	 68.973922 
390.000000	 66.799235 
389.000000	 64.003491 
388.000000	 60.796022 
387.000000	 57.395482 
386.000000	 54.007196 
385.000000	 50.824904 
384.000000	 48.021888 
383.000000	 45.762825 
382.000000	 44.211792 
381.000000	 43.503069 
380.000000	 43.713021 
379.000000	 44.830083 
378.000000	 46.663904 
377.000000	 48.954319 
376.000000	 51.340484 
375.000000	 53.536844 
374.000000	 55.394434 
373.000000	 56.915879 
372.000000	 58.280253 
371.000000	 59.646964 
370.000000	 61.064743 

