PE IR       SPECTRUM    SPECTRUM    ASCII       PEDS        1.60        
  -1
C-9AE1~1.ASC
17/05/02
12:46:03.00
17/05/02
12:46:03.00
tln
$C-4040-8_t0023$<tbV0>[-7.5,2.0,8.0,0.0,22,1,0]
370.000000
64









2002,4.07    
MIRTGS : RIGHTBACK : INTERNAL 2
MIR : ON : INTERNAL 2
OPTKBR

0.200000
8
8.000000
FILLER
RATIO
SPECTRUM
UNLOCKED 256

DOUBLE
64
COMBINED
1
0
0


1.000000
RATIO


1
0
TRUE
51149
0
LEFT NOT FITTED RIGHT NOT FITTED 0
NONE
NONE
15600
12.000000
4.427000
51148
TRUE
1 0 8 72 0 0 0 0 

15798.010000






#HDR
-1
-1
#GR
CM-1
%T
0.00002384185791015625
0.0
7800.000000
-1.000000
7431
8
93.398571
44.291019
#DATA
7800.000000	68.416833 
7799.000000	66.742539 
7798.000000	65.294480 
7797.000000	64.138126 
7796.000000	63.336658 
7795.000000	62.935662 
7794.000000	62.958431 
7793.000000	63.388514 
7792.000000	64.191389 
7791.000000	65.310001 
7790.000000	66.670250 
7789.000000	68.178582 
7788.000000	69.724464 
7787.000000	71.180701 
7786.000000	72.413229 
7785.000000	73.291969 
7784.000000	73.708271 
7783.000000	73.597359 
7782.000000	72.948551 
7781.000000	71.825385 
7780.000000	70.373916 
7779.000000	68.799686 
7778.000000	67.329835 
7777.000000	66.185164 
7776.000000	65.547060 
7775.000000	65.522170 
7774.000000	66.128611 
7773.000000	67.290854 
7772.000000	68.859076 
7771.000000	70.631861 
7770.000000	72.398972 
7769.000000	73.951816 
7768.000000	75.109577 
7767.000000	75.748443 
7766.000000	75.814557 
7765.000000	75.338959 
7764.000000	74.426102 
7763.000000	73.252749 
7762.000000	72.023010 
7761.000000	70.934200 
7760.000000	70.122718 
7759.000000	69.645047 
7758.000000	69.455289 
7757.000000	69.437479 
7756.000000	69.423627 
7755.000000	69.243049 
7754.000000	68.762135 
7753.000000	67.915725 
7752.000000	66.725444 
7751.000000	65.280270 
7750.000000	63.727712 
7749.000000	62.221050 
7748.000000	60.907196 
7747.000000	59.889531 
7746.000000	59.226012 
7745.000000	58.920240 
7744.000000	58.941960 
7743.000000	59.243226 
7742.000000	59.763169 
7741.000000	60.435628 
7740.000000	61.194062 
7739.000000	61.970114 
7738.000000	62.713313 
7737.000000	63.387346 
7736.000000	63.970398 
7735.000000	64.446091 
7734.000000	64.796829 
7733.000000	65.000176 
7732.000000	65.026545 
7731.000000	64.852809 
7730.000000	64.475131 
7729.000000	63.922142 
7728.000000	63.269853 
7727.000000	62.625432 
7726.000000	62.105917 
7725.000000	61.816954 
7724.000000	61.821699 
7723.000000	62.139868 
7722.000000	62.738227 
7721.000000	63.552641 
7720.000000	64.498424 
7719.000000	65.500497 
7718.000000	66.503715 
7717.000000	67.482256 
7716.000000	68.433070 
7715.000000	69.359326 
7714.000000	70.252609 
7713.000000	71.083998 
7712.000000	71.801161 
7711.000000	72.333931 
7710.000000	72.609376 
7709.000000	72.577857 
7708.000000	72.226548 
7707.000000	71.589350 
7706.000000	70.739603 
7705.000000	69.781780 
7704.000000	68.825578 
7703.000000	67.965149 
7702.000000	67.260575 
7701.000000	66.737914 
7700.000000	66.384100 
7699.000000	66.167140 
7698.000000	66.035938 
7697.000000	65.942025 
7696.000000	65.835857 
7695.000000	65.671706 
7694.000000	65.412044 
7693.000000	65.017485 
7692.000000	64.472699 
7691.000000	63.783454 
7690.000000	62.993121 
7689.000000	62.171816 
7688.000000	61.420726 
7687.000000	60.852885 
7686.000000	60.567355 
7685.000000	60.625529 
7684.000000	61.040258 
7683.000000	61.773443 
7682.000000	62.741589 
7681.000000	63.838005 
7680.000000	64.959120 
7679.000000	66.025900 
7678.000000	66.995167 
7677.000000	67.857456 
7676.000000	68.626785 
7675.000000	69.318509 
7674.000000	69.936561 
7673.000000	70.456528 
7672.000000	70.834803 
7671.000000	71.009325 
7670.000000	70.939493 
7669.000000	70.599603 
7668.000000	70.004796 
7667.000000	69.200086 
7666.000000	68.266797 
7665.000000	67.295742 
7664.000000	66.371774 
7663.000000	65.562915 
7662.000000	64.913201 
7661.000000	64.442586 
7660.000000	64.149785 
7659.000000	64.029026 
7658.000000	64.076423 
7657.000000	64.288163 
7656.000000	64.656853 
7655.000000	65.164518 
7654.000000	65.774846 
7653.000000	66.432142 
7652.000000	67.062067 
7651.000000	67.575001 
7650.000000	67.882180 
7649.000000	67.921233 
7648.000000	67.665553 
7647.000000	67.128586 
7646.000000	66.365885 
7645.000000	65.468406 
7644.000000	64.546585 
7643.000000	63.708853 
7642.000000	63.048911 
7641.000000	62.630605 
7640.000000	62.485480 
7639.000000	62.610316 
7638.000000	62.978625 
7637.000000	63.542222 
7636.000000	64.255023 
7635.000000	65.072941 
7634.000000	65.970969 
7633.000000	66.934323 
7632.000000	67.956256 
7631.000000	69.021749 
7630.000000	70.092439 
7629.000000	71.096467 
7628.000000	71.930027 
7627.000000	72.470259 
7626.000000	72.600865 
7625.000000	72.240829 
7624.000000	71.374440 
7623.000000	70.063638 
7622.000000	68.450689 
7621.000000	66.732859 
7620.000000	65.129280 
7619.000000	63.837552 
7618.000000	62.997484 
7617.000000	62.668943 
7616.000000	62.822008 
7615.000000	63.361096 
7614.000000	64.150357 
7613.000000	65.052866 
7612.000000	65.957260 
7611.000000	66.792035 
7610.000000	67.519664 
7609.000000	68.127679 
7608.000000	68.607020 
7607.000000	68.937683 
7606.000000	69.079804 
7605.000000	68.984413 
7604.000000	68.608927 
7603.000000	67.941975 
7602.000000	67.018938 
7601.000000	65.925669 
7600.000000	64.786911 
7599.000000	63.744044 
7598.000000	62.924623 
7597.000000	62.408924 
7596.000000	62.216663 
7595.000000	62.309217 
7594.000000	62.600755 
7593.000000	62.983512 
7592.000000	63.352465 
7591.000000	63.617730 
7590.000000	63.732218 
7589.000000	63.684535 
7588.000000	63.510751 
7587.000000	63.264346 
7586.000000	63.020968 
7585.000000	62.854456 
7584.000000	62.826848 
7583.000000	62.977266 
7582.000000	63.311910 
7581.000000	63.803720 
7580.000000	64.402198 
7579.000000	65.047287 
7578.000000	65.674495 
7577.000000	66.226148 
7576.000000	66.656947 
7575.000000	66.937112 
7574.000000	67.055106 
7573.000000	67.014670 
7572.000000	66.826391 
7571.000000	66.506862 
7570.000000	66.082501 
7569.000000	65.589475 
7568.000000	65.069127 
7567.000000	64.572215 
7566.000000	64.157748 
7565.000000	63.886380 
7564.000000	63.814258 
7563.000000	63.975310 
7562.000000	64.377593 
7561.000000	64.984846 
7560.000000	65.720772 
7559.000000	66.471886 
7558.000000	67.106437 
7557.000000	67.500114 
7556.000000	67.561507 
7555.000000	67.254519 
7554.000000	66.607284 
7553.000000	65.707159 
7552.000000	64.681196 
7551.000000	63.677263 
7550.000000	62.835192 
7549.000000	62.275099 
7548.000000	62.078142 
7547.000000	62.280225 
7546.000000	62.865257 
7545.000000	63.771009 
7544.000000	64.895009 
7543.000000	66.100573 
7542.000000	67.240834 
7541.000000	68.175840 
7540.000000	68.801665 
7539.000000	69.057774 
7538.000000	68.946099 
7537.000000	68.527173 
7536.000000	67.908406 
7535.000000	67.223811 
7534.000000	66.603779 
7533.000000	66.155672 
7532.000000	65.939521 
7531.000000	65.967607 
7530.000000	66.205239 
7529.000000	66.590905 
7528.000000	67.051672 
7527.000000	67.525649 
7526.000000	67.966198 
7525.000000	68.345928 
7524.000000	68.651461 
7523.000000	68.875312 
7522.000000	69.012141 
7521.000000	69.052886 
7520.000000	68.990826 
7519.000000	68.820834 
7518.000000	68.545460 
7517.000000	68.172430 
7516.000000	67.724037 
7515.000000	67.225289 
7514.000000	66.703176 
7513.000000	66.175293 
7512.000000	65.648221 
7511.000000	65.116477 
7510.000000	64.570474 
7509.000000	64.002919 
7508.000000	63.406610 
7507.000000	62.794876 
7506.000000	62.197446 
7505.000000	61.669492 
7504.000000	61.268377 
7503.000000	61.061263 
7502.000000	61.103510 
7501.000000	61.429929 
7500.000000	62.039709 
7499.000000	62.889075 
7498.000000	63.892650 
7497.000000	64.929461 
7496.000000	65.862345 
7495.000000	66.564226 
7494.000000	66.944169 
7493.000000	66.967511 
7492.000000	66.664743 
7491.000000	66.124892 
7490.000000	65.475344 
7489.000000	64.862585 
7488.000000	64.412355 
7487.000000	64.209675 
7486.000000	64.269900 
7485.000000	64.555835 
7484.000000	64.969754 
7483.000000	65.383267 
7482.000000	65.660548 
7481.000000	65.695333 
7480.000000	65.428566 
7479.000000	64.856529 
7478.000000	64.032936 
7477.000000	63.051462 
7476.000000	62.025046 
7475.000000	61.058163 
7474.000000	60.230135 
7473.000000	59.583473 
7472.000000	59.124445 
7471.000000	58.832883 
7470.000000	58.676600 
7469.000000	58.626246 
7468.000000	58.670783 
7467.000000	58.821463 
7466.000000	59.098434 
7465.000000	59.522128 
7464.000000	60.100364 
7463.000000	60.821485 
7462.000000	61.643409 
7461.000000	62.504434 
7460.000000	63.335943 
7459.000000	64.075875 
7458.000000	64.687871 
7457.000000	65.158486 
7456.000000	65.497303 
7455.000000	65.724563 
7454.000000	65.867638 
7453.000000	65.944814 
7452.000000	65.963506 
7451.000000	65.918564 
7450.000000	65.807700 
7449.000000	65.628385 
7448.000000	65.391445 
7447.000000	65.116190 
7446.000000	64.836144 
7445.000000	64.578986 
7444.000000	64.361000 
7443.000000	64.181137 
7442.000000	64.022874 
7441.000000	63.858389 
7440.000000	63.659667 
7439.000000	63.411331 
7438.000000	63.118290 
7437.000000	62.806916 
7436.000000	62.520098 
7435.000000	62.300777 
7434.000000	62.183880 
7433.000000	62.185192 
7432.000000	62.300229 
7431.000000	62.499499 
7430.000000	62.743854 
7429.000000	62.993001 
7428.000000	63.220906 
7427.000000	63.415789 
7426.000000	63.589286 
7425.000000	63.768577 
7424.000000	63.988494 
7423.000000	64.276981 
7422.000000	64.644336 
7421.000000	65.077304 
7420.000000	65.538048 
7419.000000	65.973567 
7418.000000	66.326737 
7417.000000	66.552567 
7416.000000	66.626572 
7415.000000	66.551685 
7414.000000	66.355705 
7413.000000	66.083955 
7412.000000	65.787863 
7411.000000	65.512895 
7410.000000	65.289425 
7409.000000	65.128231 
7408.000000	65.025091 
7407.000000	64.966082 
7406.000000	64.932751 
7405.000000	64.913344 
7404.000000	64.906835 
7403.000000	64.926815 
7402.000000	64.992523 
7401.000000	65.127277 
7400.000000	65.344929 
7399.000000	65.647172 
7398.000000	66.023135 
7397.000000	66.442251 
7396.000000	66.860914 
7395.000000	67.223906 
7394.000000	67.478704 
7393.000000	67.578577 
7392.000000	67.494821 
7391.000000	67.218232 
7390.000000	66.762995 
7389.000000	66.164493 
7388.000000	65.475630 
7387.000000	64.756131 
7386.000000	64.066267 
7385.000000	63.458561 
7384.000000	62.976408 
7383.000000	62.651968 
7382.000000	62.508964 
7381.000000	62.561917 
7380.000000	62.815904 
7379.000000	63.265562 
7378.000000	63.887572 
7377.000000	64.636278 
7376.000000	65.440607 
7375.000000	66.209268 
7374.000000	66.840910 
7373.000000	67.235851 
7372.000000	67.321491 
7371.000000	67.067432 
7370.000000	66.500425 
7369.000000	65.701341 
7368.000000	64.795923 
7367.000000	63.931202 
7366.000000	63.248062 
7365.000000	62.855339 
7364.000000	62.808322 
7363.000000	63.101696 
7362.000000	63.676047 
7361.000000	64.435553 
7360.000000	65.270876 
7359.000000	66.081714 
7358.000000	66.792774 
7357.000000	67.360472 
7356.000000	67.766880 
7355.000000	68.011283 
7354.000000	68.101119 
7353.000000	68.041443 
7352.000000	67.833971 
7351.000000	67.475080 
7350.000000	66.974592 
7349.000000	66.349911 
7348.000000	65.639162 
7347.000000	64.890742 
7346.000000	64.158892 
7345.000000	63.497996 
7344.000000	62.953829 
7343.000000	62.561702 
7342.000000	62.334585 
7341.000000	62.277030 
7340.000000	62.382769 
7339.000000	62.643361 
7338.000000	63.046598 
7337.000000	63.572978 
7336.000000	64.189624 
7335.000000	64.851069 
7334.000000	65.499925 
7333.000000	66.067647 
7332.000000	66.485047 
7331.000000	66.699862 
7330.000000	66.689610 
7329.000000	66.472959 
7328.000000	66.106271 
7327.000000	65.678334 
7326.000000	65.284442 
7325.000000	65.009927 
7324.000000	64.901351 
7323.000000	64.960956 
7322.000000	65.140128 
7321.000000	65.358304 
7320.000000	65.521216 
7319.000000	65.547180 
7318.000000	65.390515 
7317.000000	65.049099 
7316.000000	64.573907 
7315.000000	64.044976 
7314.000000	63.568806 
7313.000000	63.247227 
7312.000000	63.163661 
7311.000000	63.362121 
7310.000000	63.842487 
7309.000000	64.561557 
7308.000000	65.443348 
7307.000000	66.395473 
7306.000000	67.328906 
7305.000000	68.173933 
7304.000000	68.888640 
7303.000000	69.460439 
7302.000000	69.901752 
7301.000000	70.237755 
7300.000000	70.497012 
7299.000000	70.696210 
7298.000000	70.844960 
7297.000000	70.933127 
7296.000000	70.948886 
7295.000000	70.868277 
7294.000000	70.677542 
7293.000000	70.362019 
7292.000000	69.923591 
7291.000000	69.368052 
7290.000000	68.709707 
7289.000000	67.967343 
7288.000000	67.163038 
7287.000000	66.327714 
7286.000000	65.500235 
7285.000000	64.729738 
7284.000000	64.069938 
7283.000000	63.573288 
7282.000000	63.279581 
7281.000000	63.211512 
7280.000000	63.367080 
7279.000000	63.723969 
7278.000000	64.240217 
7277.000000	64.860606 
7276.000000	65.520858 
7275.000000	66.155505 
7274.000000	66.701579 
7273.000000	67.099475 
7272.000000	67.300081 
7271.000000	67.272782 
7270.000000	67.009258 
7269.000000	66.529893 
7268.000000	65.878605 
7267.000000	65.120911 
7266.000000	64.330792 
7265.000000	63.585400 
7264.000000	62.949180 
7263.000000	62.466478 
7262.000000	62.157988 
7261.000000	62.019848 
7260.000000	62.033033 
7259.000000	62.167096 
7258.000000	62.394285 
7257.000000	62.691450 
7256.000000	63.043713 
7255.000000	63.438296 
7254.000000	63.864755 
7253.000000	64.308118 
7252.000000	64.749026 
7251.000000	65.162253 
7250.000000	65.523195 
7249.000000	65.810966 
7248.000000	66.012358 
7247.000000	66.124653 
7246.000000	66.158032 
7245.000000	66.133356 
7244.000000	66.081285 
7243.000000	66.033387 
7242.000000	66.020274 
7241.000000	66.059565 
7240.000000	66.156697 
7239.000000	66.297817 
7238.000000	66.457581 
7237.000000	66.600203 
7236.000000	66.688108 
7235.000000	66.692018 
7234.000000	66.600656 
7233.000000	66.421699 
7232.000000	66.179132 
7231.000000	65.909433 
7230.000000	65.654230 
7229.000000	65.446686 
7228.000000	65.304660 
7227.000000	65.225815 
7226.000000	65.190315 
7225.000000	65.172195 
7224.000000	65.150713 
7223.000000	65.115380 
7222.000000	65.072345 
7221.000000	65.046906 
7220.000000	65.075993 
7219.000000	65.192222 
7218.000000	65.413832 
7217.000000	65.737771 
7216.000000	66.136455 
7215.000000	66.561055 
7214.000000	66.952872 
7213.000000	67.257213 
7212.000000	67.436981 
7211.000000	67.481064 
7210.000000	67.407536 
7209.000000	67.257642 
7208.000000	67.086553 
7207.000000	66.949152 
7206.000000	66.887593 
7205.000000	66.924905 
7204.000000	67.057156 
7203.000000	67.260503 
7202.000000	67.490959 
7201.000000	67.698049 
7200.000000	67.830610 
7199.000000	67.848825 
7198.000000	67.725896 
7197.000000	67.452931 
7196.000000	67.038488 
7195.000000	66.507554 
7194.000000	65.898799 
7193.000000	65.259504 
7192.000000	64.640951 
7191.000000	64.091563 
7190.000000	63.650941 
7189.000000	63.345408 
7188.000000	63.184881 
7187.000000	63.163375 
7186.000000	63.259720 
7185.000000	63.442850 
7184.000000	63.673543 
7183.000000	63.912844 
7182.000000	64.123511 
7181.000000	64.277791 
7180.000000	64.353370 
7179.000000	64.343857 
7178.000000	64.255619 
7177.000000	64.109706 
7176.000000	63.937520 
7175.000000	63.771939 
7174.000000	63.639974 
7173.000000	63.557410 
7172.000000	63.526988 
7171.000000	63.534688 
7170.000000	63.555812 
7169.000000	63.560938 
7168.000000	63.526821 
7167.000000	63.442468 
7166.000000	63.316559 
7165.000000	63.174104 
7164.000000	63.054156 
7163.000000	63.000226 
7162.000000	63.049411 
7161.000000	63.223528 
7160.000000	63.519334 
7159.000000	63.908052 
7158.000000	64.338183 
7157.000000	64.747619 
7156.000000	65.075230 
7155.000000	65.272188 
7154.000000	65.316271 
7153.000000	65.213727 
7152.000000	65.002536 
7151.000000	64.741110 
7150.000000	64.499282 
7149.000000	64.341139 
7148.000000	64.315724 
7147.000000	64.447832 
7146.000000	64.733743 
7145.000000	65.144228 
7144.000000	65.625762 
7143.000000	66.111111 
7142.000000	66.532444 
7141.000000	66.832590 
7140.000000	66.971635 
7139.000000	66.931557 
7138.000000	66.718745 
7137.000000	66.358661 
7136.000000	65.887928 
7135.000000	65.348696 
7134.000000	64.781856 
7133.000000	64.226198 
7132.000000	63.719677 
7131.000000	63.297319 
7130.000000	62.992429 
7129.000000	62.830281 
7128.000000	62.826776 
7127.000000	62.978935 
7126.000000	63.259005 
7125.000000	63.620114 
7124.000000	63.999915 
7123.000000	64.335322 
7122.000000	64.569211 
7121.000000	64.673423 
7120.000000	64.652037 
7119.000000	64.545965 
7118.000000	64.421081 
7117.000000	64.353752 
7116.000000	64.409947 
7115.000000	64.629840 
7114.000000	65.015769 
7113.000000	65.534210 
7112.000000	66.120767 
7111.000000	66.697382 
7110.000000	67.186331 
7109.000000	67.529797 
7108.000000	67.696285 
7107.000000	67.683863 
7106.000000	67.515587 
7105.000000	67.230796 
7104.000000	66.873908 
7103.000000	66.489958 
7102.000000	66.111564 
7101.000000	65.759587 
7100.000000	65.439844 
7099.000000	65.155863 
7098.000000	64.903569 
7097.000000	64.676904 
7096.000000	64.471960 
7095.000000	64.287638 
7094.000000	64.130163 
7093.000000	64.009881 
7092.000000	63.941049 
7091.000000	63.935542 
7090.000000	63.999891 
7089.000000	64.130258 
7088.000000	64.309144 
7087.000000	64.505910 
7086.000000	64.682888 
7085.000000	64.801406 
7084.000000	64.829039 
7083.000000	64.746356 
7082.000000	64.551544 
7081.000000	64.262080 
7080.000000	63.906121 
7079.000000	63.523936 
7078.000000	63.161277 
7077.000000	62.864947 
7076.000000	62.672567 
7075.000000	62.611770 
7074.000000	62.695360 
7073.000000	62.921738 
7072.000000	63.275456 
7071.000000	63.728785 
7070.000000	64.242339 
7069.000000	64.773178 
7068.000000	65.277814 
7067.000000	65.720009 
7066.000000	66.072940 
7065.000000	66.324663 
7064.000000	66.477084 
7063.000000	66.542434 
7062.000000	66.537332 
7061.000000	66.482019 
7060.000000	66.392874 
7059.000000	66.277170 
7058.000000	66.129660 
7057.000000	65.941953 
7056.000000	65.701818 
7055.000000	65.397691 
7054.000000	65.024685 
7053.000000	64.587783 
7052.000000	64.107203 
7051.000000	63.616394 
7050.000000	63.160538 
7049.000000	62.783098 
7048.000000	62.524127 
7047.000000	62.412977 
7046.000000	62.459802 
7045.000000	62.650775 
7044.000000	62.949585 
7043.000000	63.302874 
7042.000000	63.648796 
7041.000000	63.924717 
7040.000000	64.087867 
7039.000000	64.122462 
7038.000000	64.045691 
7037.000000	63.901948 
7036.000000	63.757753 
7035.000000	63.686561 
7034.000000	63.754415 
7033.000000	64.005613 
7032.000000	64.461755 
7031.000000	65.111374 
7030.000000	65.919661 
7029.000000	66.821289 
7028.000000	67.731189 
7027.000000	68.546938 
7026.000000	69.167470 
7025.000000	69.502425 
7024.000000	69.491171 
7023.000000	69.109916 
7022.000000	68.386840 
7021.000000	67.388272 
7020.000000	66.213846 
7019.000000	64.974117 
7018.000000	63.779354 
7017.000000	62.718224 
7016.000000	61.851835 
7015.000000	61.208224 
7014.000000	60.787487 
7013.000000	60.569477 
7012.000000	60.523796 
7011.000000	60.616326 
7010.000000	60.813212 
7009.000000	61.084318 
7008.000000	61.402225 
7007.000000	61.739110 
7006.000000	62.066626 
7005.000000	62.356114 
7004.000000	62.582445 
7003.000000	62.729263 
7002.000000	62.790822 
7001.000000	62.774968 
7000.000000	62.698864 
6999.000000	62.586379 
6998.000000	62.460207 
6997.000000	62.342262 
6996.000000	62.243604 
6995.000000	62.166213 
6994.000000	62.100434 
6993.000000	62.032914 
6992.000000	61.947369 
6991.000000	61.832666 
6990.000000	61.683416 
6989.000000	61.499166 
6988.000000	61.290574 
6987.000000	61.076617 
6986.000000	60.883450 
6985.000000	60.736513 
6984.000000	60.664796 
6983.000000	60.694837 
6982.000000	60.846424 
6981.000000	61.127376 
6980.000000	61.532473 
6979.000000	62.040901 
6978.000000	62.617683 
6977.000000	63.215446 
6976.000000	63.781499 
6975.000000	64.262771 
6974.000000	64.613771 
6973.000000	64.802217 
6972.000000	64.814925 
6971.000000	64.659285 
6970.000000	64.364123 
6969.000000	63.973712 
6968.000000	63.543915 
6967.000000	63.130402 
6966.000000	62.783741 
6965.000000	62.538552 
6964.000000	62.413859 
6963.000000	62.407660 
6962.000000	62.501502 
6961.000000	62.664675 
6960.000000	62.861490 
6959.000000	63.058733 
6958.000000	63.230252 
6957.000000	63.362836 
6956.000000	63.455438 
6955.000000	63.519001 
6954.000000	63.571357 
6953.000000	63.634562 
6952.000000	63.728475 
6951.000000	63.868117 
6950.000000	64.058542 
6949.000000	64.296364 
6948.000000	64.566850 
6947.000000	64.848828 
6946.000000	65.114736 
6945.000000	65.335774 
6944.000000	65.485739 
6943.000000	65.547990 
6942.000000	65.517091 
6941.000000	65.399074 
6940.000000	65.211963 
6939.000000	64.983487 
6938.000000	64.746069 
6937.000000	64.532899 
6936.000000	64.371156 
6935.000000	64.277625 
6934.000000	64.258551 
6933.000000	64.310908 
6932.000000	64.424395 
6931.000000	64.584803 
6930.000000	64.776945 
6929.000000	64.986777 
6928.000000	65.204429 
6927.000000	65.424299 
6926.000000	65.642428 
6925.000000	65.855240 
6924.000000	66.060686 
6923.000000	66.256308 
6922.000000	66.440272 
6921.000000	66.608071 
6920.000000	66.756153 
6919.000000	66.876578 
6918.000000	66.960906 
6917.000000	66.997122 
6916.000000	66.973114 
6915.000000	66.879415 
6914.000000	66.713237 
6913.000000	66.483116 
6912.000000	66.209816 
6911.000000	65.925979 
6910.000000	65.673613 
6909.000000	65.492486 
6908.000000	65.412521 
6907.000000	65.444064 
6906.000000	65.575742 
6905.000000	65.774059 
6904.000000	65.990924 
6903.000000	66.174125 
6902.000000	66.279196 
6901.000000	66.281795 
6900.000000	66.182684 
6899.000000	66.004443 
6898.000000	65.784144 
6897.000000	65.565061 
6896.000000	65.384864 
6895.000000	65.263414 
6894.000000	65.201997 
6893.000000	65.187358 
6892.000000	65.200018 
6891.000000	65.221118 
6890.000000	65.243005 
6889.000000	65.271091 
6888.000000	65.325570 
6887.000000	65.430355 
6886.000000	65.609335 
6885.000000	65.874719 
6884.000000	66.222429 
6883.000000	66.629838 
6882.000000	67.057561 
6881.000000	67.458248 
6880.000000	67.783761 
6879.000000	67.997884 
6878.000000	68.078160 
6877.000000	68.020653 
6876.000000	67.837190 
6875.000000	67.552375 
6874.000000	67.193198 
6873.000000	66.783499 
6872.000000	66.339945 
6871.000000	65.871787 
6870.000000	65.385508 
6869.000000	64.889216 
6868.000000	64.395928 
6867.000000	63.926792 
6866.000000	63.507580 
6865.000000	63.167953 
6864.000000	62.933278 
6863.000000	62.821674 
6862.000000	62.834906 
6861.000000	62.959980 
6860.000000	63.167715 
6859.000000	63.419389 
6858.000000	63.669967 
6857.000000	63.879489 
6856.000000	64.014339 
6855.000000	64.060115 
6854.000000	64.019989 
6853.000000	63.917064 
6852.000000	63.785600 
6851.000000	63.666677 
6850.000000	63.598465 
6849.000000	63.604760 
6848.000000	63.689565 
6847.000000	63.832616 
6846.000000	63.994836 
6845.000000	64.124941 
6844.000000	64.174842 
6843.000000	64.110851 
6842.000000	63.927197 
6841.000000	63.649487 
6840.000000	63.332986 
6839.000000	63.046884 
6838.000000	62.860965 
6837.000000	62.830519 
6836.000000	62.981438 
6835.000000	63.303637 
6834.000000	63.752508 
6833.000000	64.264059 
6832.000000	64.763569 
6831.000000	65.182423 
6830.000000	65.469574 
6829.000000	65.600347 
6828.000000	65.576720 
6827.000000	65.421795 
6826.000000	65.172648 
6825.000000	64.870166 
6824.000000	64.551424 
6823.000000	64.245295 
6822.000000	63.969421 
6821.000000	63.733029 
6820.000000	63.537263 
6819.000000	63.380217 
6818.000000	63.256907 
6817.000000	63.163495 
6816.000000	63.096714 
6815.000000	63.057684 
6814.000000	63.046860 
6813.000000	63.068604 
6812.000000	63.129639 
6811.000000	63.239288 
6810.000000	63.403534 
6809.000000	63.624405 
6808.000000	63.895916 
6807.000000	64.204883 
6806.000000	64.529299 
6805.000000	64.844870 
6804.000000	65.128469 
6803.000000	65.363907 
6802.000000	65.545201 
6801.000000	65.676259 
6800.000000	65.771198 
6799.000000	65.844750 
6798.000000	65.908551 
6797.000000	65.964913 
6796.000000	66.007542 
6795.000000	66.021227 
6794.000000	65.988302 
6793.000000	65.893244 
6792.000000	65.728569 
6791.000000	65.500307 
6790.000000	65.227127 
6789.000000	64.933633 
6788.000000	64.644670 
6787.000000	64.380574 
6786.000000	64.152407 
6785.000000	63.959646 
6784.000000	63.793206 
6783.000000	63.639712 
6782.000000	63.487720 
6781.000000	63.332533 
6780.000000	63.178515 
6779.000000	63.034296 
6778.000000	62.913417 
6777.000000	62.829089 
6776.000000	62.789344 
6775.000000	62.792110 
6774.000000	62.825536 
6773.000000	62.870168 
6772.000000	62.901854 
6771.000000	62.896847 
6770.000000	62.837886 
6769.000000	62.718439 
6768.000000	62.544918 
6767.000000	62.335491 
6766.000000	62.119579 
6765.000000	61.932587 
6764.000000	61.810684 
6763.000000	61.783695 
6762.000000	61.872005 
6761.000000	62.079930 
6760.000000	62.395715 
6759.000000	62.788558 
6758.000000	63.212370 
6757.000000	63.610768 
6756.000000	63.926792 
6755.000000	64.112949 
6754.000000	64.137601 
6753.000000	63.994026 
6752.000000	63.703417 
6751.000000	63.310050 
6750.000000	62.871527 
6749.000000	62.449359 
6748.000000	62.099647 
6747.000000	61.861395 
6746.000000	61.752843 
6745.000000	61.768794 
6744.000000	61.887574 
6743.000000	62.072563 
6742.000000	62.281680 
6741.000000	62.473535 
6740.000000	62.614345 
6739.000000	62.681984 
6738.000000	62.667417 
6737.000000	62.574458 
6736.000000	62.416815 
6735.000000	62.212491 
6734.000000	61.980700 
6733.000000	61.740064 
6732.000000	61.507654 
6731.000000	61.297750 
6730.000000	61.124300 
6729.000000	60.999703 
6728.000000	60.937356 
6727.000000	60.950183 
6726.000000	61.048984 
6725.000000	61.234784 
6724.000000	61.501216 
6723.000000	61.832356 
6722.000000	62.204337 
6721.000000	62.585163 
6720.000000	62.942147 
6719.000000	63.245201 
6718.000000	63.473653 
6717.000000	63.619399 
6716.000000	63.686633 
6715.000000	63.689374 
6714.000000	63.649654 
6713.000000	63.593125 
6712.000000	63.544607 
6711.000000	63.524651 
6710.000000	63.547897 
6709.000000	63.621640 
6708.000000	63.748192 
6707.000000	63.923239 
6706.000000	64.138507 
6705.000000	64.378762 
6704.000000	64.623212 
6703.000000	64.844298 
6702.000000	65.013527 
6701.000000	65.102267 
6700.000000	65.086841 
6699.000000	64.953136 
6698.000000	64.702701 
6697.000000	64.352393 
6696.000000	63.933515 
6695.000000	63.487076 
6694.000000	63.057923 
6693.000000	62.687706 
6692.000000	62.409949 
6691.000000	62.243556 
6690.000000	62.190604 
6689.000000	62.239074 
6688.000000	62.367391 
6687.000000	62.546014 
6686.000000	62.742376 
6685.000000	62.926292 
6684.000000	63.074350 
6683.000000	63.169646 
6682.000000	63.204574 
6681.000000	63.181853 
6680.000000	63.114380 
6679.000000	63.022685 
6678.000000	62.931585 
6677.000000	62.866473 
6676.000000	62.848091 
6675.000000	62.889862 
6674.000000	62.994384 
6673.000000	63.154792 
6672.000000	63.354253 
6671.000000	63.571643 
6670.000000	63.782405 
6669.000000	63.962745 
6668.000000	64.092731 
6667.000000	64.161109 
6666.000000	64.162826 
6665.000000	64.097499 
6664.000000	63.971257 
6663.000000	63.797450 
6662.000000	63.591289 
6661.000000	63.368582 
6660.000000	63.144826 
6659.000000	62.935161 
6658.000000	62.748694 
6657.000000	62.589025 
6656.000000	62.453699 
6655.000000	62.337398 
6654.000000	62.235021 
6653.000000	62.145256 
6652.000000	62.069845 
6651.000000	62.015104 
6650.000000	61.988830 
6649.000000	62.000322 
6648.000000	62.050867 
6647.000000	62.140226 
6646.000000	62.262964 
6645.000000	62.416005 
6644.000000	62.595438 
6643.000000	62.803792 
6642.000000	63.046574 
6641.000000	63.333082 
6640.000000	63.670492 
6639.000000	64.060688 
6638.000000	64.496040 
6637.000000	64.958214 
6636.000000	65.419435 
6635.000000	65.848350 
6634.000000	66.216468 
6633.000000	66.503834 
6632.000000	66.703438 
6631.000000	66.820430 
6630.000000	66.868925 
6629.000000	66.869258 
6628.000000	66.840505 
6627.000000	66.795563 
6626.000000	66.735982 
6625.000000	66.657114 
6624.000000	66.546845 
6623.000000	66.391062 
6622.000000	66.178393 
6621.000000	65.904903 
6620.000000	65.580010 
6619.000000	65.225458 
6618.000000	64.876413 
6617.000000	64.571523 
6616.000000	64.350223 
6615.000000	64.244985 
6614.000000	64.272403 
6613.000000	64.428234 
6612.000000	64.685940 
6611.000000	65.002012 
6610.000000	65.321111 
6609.000000	65.585184 
6608.000000	65.748167 
6607.000000	65.784645 
6606.000000	65.694952 
6605.000000	65.502667 
6604.000000	65.251851 
6603.000000	64.996075 
6602.000000	64.786052 
6601.000000	64.658641 
6600.000000	64.632606 
6599.000000	64.704537 
6598.000000	64.855432 
6597.000000	65.053176 
6596.000000	65.259957 
6595.000000	65.438747 
6594.000000	65.560412 
6593.000000	65.607118 
6592.000000	65.570855 
6591.000000	65.455293 
6590.000000	65.273499 
6589.000000	65.044450 
6588.000000	64.788603 
6587.000000	64.526295 
6586.000000	64.277553 
6585.000000	64.058637 
6584.000000	63.883066 
6583.000000	63.758325 
6582.000000	63.687324 
6581.000000	63.664674 
6580.000000	63.678026 
6579.000000	63.709068 
6578.000000	63.736772 
6577.000000	63.746738 
6576.000000	63.735103 
6575.000000	63.709378 
6574.000000	63.687372 
6573.000000	63.692617 
6572.000000	63.748764 
6571.000000	63.870978 
6570.000000	64.063215 
6569.000000	64.316582 
6568.000000	64.612007 
6567.000000	64.926195 
6566.000000	65.235161 
6565.000000	65.520381 
6564.000000	65.768432 
6563.000000	65.972495 
6562.000000	66.129016 
6561.000000	66.236186 
6560.000000	66.292476 
6559.000000	66.297292 
6558.000000	66.251993 
6557.000000	66.163754 
6556.000000	66.044378 
6555.000000	65.914440 
6554.000000	65.791606 
6553.000000	65.688490 
6552.000000	65.606975 
6551.000000	65.538954 
6550.000000	65.465998 
6549.000000	65.365290 
6548.000000	65.218114 
6547.000000	65.016341 
6546.000000	64.764857 
6545.000000	64.482879 
6544.000000	64.198303 
6543.000000	63.943696 
6542.000000	63.748407 
6541.000000	63.633394 
6540.000000	63.606286 
6539.000000	63.660287 
6538.000000	63.776350 
6537.000000	63.926911 
6536.000000	64.080309 
6535.000000	64.208459 
6534.000000	64.290261 
6533.000000	64.317440 
6532.000000	64.289641 
6531.000000	64.220738 
6530.000000	64.132642 
6529.000000	64.054179 
6528.000000	64.013028 
6527.000000	64.033222 
6526.000000	64.130210 
6525.000000	64.307904 
6524.000000	64.558196 
6523.000000	64.862108 
6522.000000	65.193295 
6521.000000	65.522646 
6520.000000	65.823197 
6519.000000	66.072320 
6518.000000	66.255402 
6517.000000	66.367363 
6516.000000	66.412806 
6515.000000	66.404223 
6514.000000	66.359114 
6513.000000	66.299819 
6512.000000	66.245770 
6511.000000	66.213130 
6510.000000	66.208100 
6509.000000	66.230988 
6508.000000	66.271662 
6507.000000	66.315102 
6506.000000	66.341948 
6505.000000	66.334939 
6504.000000	66.281056 
6503.000000	66.175246 
6502.000000	66.021394 
6501.000000	65.831303 
6500.000000	65.622663 
6499.000000	65.415167 
6498.000000	65.227460 
6497.000000	65.073871 
6496.000000	64.962911 
6495.000000	64.897155 
6494.000000	64.873862 
6493.000000	64.887046 
6492.000000	64.930295 
6491.000000	64.998221 
6490.000000	65.084576 
6489.000000	65.182852 
6488.000000	65.287184 
6487.000000	65.391182 
6486.000000	65.484881 
6485.000000	65.557289 
6484.000000	65.597796 
6483.000000	65.599417 
6482.000000	65.559625 
6481.000000	65.483999 
6480.000000	65.386104 
6479.000000	65.286040 
6478.000000	65.206408 
6477.000000	65.168571 
6476.000000	65.188169 
6475.000000	65.271234 
6474.000000	65.412473 
6473.000000	65.596675 
6472.000000	65.801644 
6471.000000	66.003942 
6470.000000	66.183638 
6469.000000	66.326832 
6468.000000	66.426563 
6467.000000	66.482949 
6466.000000	66.499614 
6465.000000	66.479611 
6464.000000	66.422486 
6463.000000	66.324996 
6462.000000	66.182160 
6461.000000	65.992140 
6460.000000	65.758085 
6459.000000	65.493106 
6458.000000	65.216565 
6457.000000	64.953947 
6456.000000	64.727997 
6455.000000	64.554762 
6454.000000	64.437532 
6453.000000	64.364910 
6452.000000	64.315199 
6451.000000	64.260530 
6450.000000	64.178681 
6449.000000	64.057946 
6448.000000	63.904643 
6447.000000	63.740277 
6446.000000	63.597941 
6445.000000	63.511300 
6444.000000	63.505983 
6443.000000	63.590526 
6442.000000	63.754487 
6441.000000	63.969850 
6440.000000	64.198350 
6439.000000	64.400410 
6438.000000	64.544057 
6437.000000	64.611816 
6436.000000	64.602613 
6435.000000	64.531040 
6434.000000	64.419555 
6433.000000	64.294242 
6432.000000	64.177846 
6431.000000	64.087271 
6430.000000	64.032340 
6429.000000	64.016294 
6428.000000	64.040136 
6427.000000	64.101791 
6426.000000	64.198470 
6425.000000	64.325881 
6424.000000	64.476919 
6423.000000	64.642381 
6422.000000	64.809632 
6421.000000	64.965224 
6420.000000	65.096116 
6419.000000	65.192365 
6418.000000	65.248727 
6417.000000	65.266394 
6416.000000	65.252518 
6415.000000	65.219807 
6414.000000	65.184307 
6413.000000	65.163516 
6412.000000	65.173053 
6411.000000	65.225601 
6410.000000	65.327382 
6409.000000	65.478181 
6408.000000	65.668511 
6407.000000	65.881919 
6406.000000	66.094732 
6405.000000	66.280722 
6404.000000	66.413593 
6403.000000	66.471886 
6402.000000	66.442608 
6401.000000	66.325926 
6400.000000	66.132807 
6399.000000	65.883851 
6398.000000	65.604615 
6397.000000	65.322637 
6396.000000	65.061402 
6395.000000	64.838790 
6394.000000	64.664292 
6393.000000	64.539933 
6392.000000	64.462113 
6391.000000	64.425086 
6390.000000	64.420795 
6389.000000	64.440393 
6388.000000	64.475131 
6387.000000	64.517068 
6386.000000	64.556884 
6385.000000	64.585471 
6384.000000	64.596056 
6383.000000	64.586997 
6382.000000	64.561533 
6381.000000	64.529681 
6380.000000	64.506936 
6379.000000	64.511609 
6378.000000	64.560198 
6377.000000	64.663147 
6376.000000	64.822173 
6375.000000	65.028214 
6374.000000	65.262579 
6373.000000	65.500402 
6372.000000	65.716600 
6371.000000	65.889215 
6370.000000	66.005086 
6369.000000	66.058874 
6368.000000	66.053581 
6367.000000	65.997385 
6366.000000	65.902090 
6365.000000	65.778756 
6364.000000	65.636610 
6363.000000	65.482187 
6362.000000	65.320944 
6361.000000	65.155959 
6360.000000	64.989590 
6359.000000	64.823937 
6358.000000	64.661884 
6357.000000	64.506506 
6356.000000	64.361739 
6355.000000	64.231133 
6354.000000	64.118504 
6353.000000	64.026665 
6352.000000	63.957858 
6351.000000	63.912534 
6350.000000	63.889956 
6349.000000	63.886380 
6348.000000	63.897252 
6347.000000	63.916563 
6346.000000	63.939070 
6345.000000	63.960957 
6344.000000	63.979840 
6343.000000	63.994097 
6342.000000	64.001965 
6341.000000	64.001774 
6340.000000	63.989543 
6339.000000	63.958573 
6338.000000	63.902997 
6337.000000	63.819980 
6336.000000	63.711977 
6335.000000	63.587665 
6334.000000	63.460922 
6333.000000	63.348364 
6332.000000	63.266468 
6331.000000	63.228273 
6330.000000	63.238692 
6329.000000	63.294768 
6328.000000	63.386583 
6327.000000	63.501453 
6326.000000	63.626384 
6325.000000	63.752746 
6324.000000	63.878226 
6323.000000	64.005708 
6322.000000	64.140367 
6321.000000	64.284610 
6320.000000	64.437055 
6319.000000	64.586520 
6318.000000	64.714288 
6317.000000	64.794754 
6316.000000	64.804959 
6315.000000	64.726734 
6314.000000	64.553904 
6313.000000	64.294409 
6312.000000	63.970637 
6311.000000	63.616967 
6310.000000	63.274383 
6309.000000	62.982487 
6308.000000	62.772107 
6307.000000	62.661719 
6306.000000	62.654995 
6305.000000	62.741088 
6304.000000	62.897944 
6303.000000	63.096356 
6302.000000	63.306522 
6301.000000	63.501763 
6300.000000	63.664078 
6299.000000	63.782048 
6298.000000	63.854861 
6297.000000	63.888001 
6296.000000	63.894748 
6295.000000	63.891530 
6294.000000	63.896465 
6293.000000	63.926863 
6292.000000	63.995170 
6291.000000	64.109873 
6290.000000	64.268612 
6289.000000	64.462614 
6288.000000	64.670515 
6287.000000	64.864706 
6286.000000	65.011286 
6285.000000	65.078496 
6284.000000	65.040516 
6283.000000	64.884400 
6282.000000	64.613938 
6281.000000	64.251208 
6280.000000	63.833260 
6279.000000	63.406896 
6278.000000	63.023042 
6277.000000	62.728857 
6276.000000	62.560415 
6275.000000	62.537670 
6274.000000	62.662959 
6273.000000	62.920951 
6272.000000	63.281226 
6271.000000	63.703751 
6270.000000	64.141130 
6269.000000	64.549231 
6268.000000	64.892053 
6267.000000	65.147733 
6266.000000	65.306782 
6265.000000	65.373992 
6264.000000	65.364885 
6263.000000	65.301084 
6262.000000	65.207076 
6261.000000	65.103578 
6260.000000	65.007328 
6259.000000	64.927220 
6258.000000	64.868378 
6257.000000	64.829421 
6256.000000	64.806652 
6255.000000	64.795041 
6254.000000	64.790916 
6253.000000	64.794898 
6252.000000	64.811992 
6251.000000	64.850211 
6250.000000	64.917397 
6249.000000	65.018820 
6248.000000	65.152740 
6247.000000	65.310406 
6246.000000	65.474033 
6245.000000	65.619301 
6244.000000	65.718507 
6243.000000	65.747427 
6242.000000	65.689849 
6241.000000	65.541887 
6240.000000	65.314102 
6239.000000	65.028572 
6238.000000	64.718270 
6237.000000	64.421057 
6236.000000	64.174675 
6235.000000	64.008641 
6234.000000	63.942265 
6233.000000	63.983106 
6232.000000	64.124584 
6231.000000	64.348769 
6230.000000	64.625525 
6229.000000	64.916968 
6228.000000	65.181350 
6227.000000	65.379333 
6226.000000	65.479850 
6225.000000	65.465283 
6224.000000	65.335512 
6223.000000	65.107941 
6222.000000	64.813590 
6221.000000	64.491891 
6220.000000	64.184355 
6219.000000	63.927340 
6218.000000	63.747525 
6217.000000	63.657665 
6216.000000	63.657855 
6215.000000	63.735723 
6214.000000	63.870382 
6213.000000	64.036655 
6212.000000	64.207339 
6211.000000	64.360570 
6210.000000	64.479541 
6209.000000	64.557695 
6208.000000	64.594817 
6207.000000	64.599561 
6206.000000	64.584779 
6205.000000	64.565777 
6204.000000	64.557266 
6203.000000	64.568996 
6202.000000	64.604520 
6201.000000	64.660620 
6200.000000	64.729356 
6199.000000	64.802002 
6198.000000	64.872479 
6197.000000	64.938783 
6196.000000	65.003967 
6195.000000	65.075278 
6194.000000	65.161681 
6193.000000	65.269732 
6192.000000	65.400767 
6191.000000	65.550541 
6190.000000	65.708422 
6189.000000	65.861630 
6188.000000	65.994882 
6187.000000	66.095447 
6186.000000	66.152620 
6185.000000	66.161918 
6184.000000	66.122364 
6183.000000	66.037058 
6182.000000	65.911746 
6181.000000	65.754938 
6180.000000	65.576910 
6179.000000	65.390515 
6178.000000	65.208959 
6177.000000	65.045785 
6176.000000	64.911293 
6175.000000	64.812064 
6174.000000	64.748239 
6173.000000	64.713883 
6172.000000	64.699053 
6171.000000	64.692425 
6170.000000	64.684653 
6169.000000	64.670348 
6168.000000	64.648294 
6167.000000	64.620089 
6166.000000	64.588832 
6165.000000	64.556312 
6164.000000	64.519500 
6163.000000	64.472103 
6162.000000	64.404845 
6161.000000	64.310884 
6160.000000	64.188671 
6159.000000	64.046096 
6158.000000	63.899445 
6157.000000	63.772368 
6156.000000	63.690352 
6155.000000	63.674449 
6154.000000	63.734674 
6153.000000	63.866949 
6152.000000	64.052748 
6151.000000	64.262461 
6150.000000	64.461755 
6149.000000	64.618325 
6148.000000	64.708280 
6147.000000	64.722800 
6146.000000	64.669251 
6145.000000	64.570665 
6144.000000	64.460563 
6143.000000	64.376902 
6142.000000	64.354085 
6141.000000	64.417815 
6140.000000	64.578866 
6139.000000	64.832258 
6138.000000	65.156698 
6137.000000	65.519404 
6136.000000	65.881061 
6135.000000	66.202402 
6134.000000	66.451549 
6133.000000	66.609430 
6132.000000	66.671848 
6131.000000	66.649341 
6130.000000	66.561841 
6129.000000	66.433644 
6128.000000	66.287708 
6127.000000	66.142916 
6126.000000	66.011643 
6125.000000	65.901708 
6124.000000	65.817117 
6123.000000	65.762734 
6122.000000	65.741086 
6121.000000	65.753340 
6120.000000	65.796303 
6119.000000	65.861773 
6118.000000	65.935969 
6117.000000	66.001224 
6116.000000	66.038703 
6115.000000	66.032266 
6114.000000	65.972900 
6113.000000	65.860462 
6112.000000	65.704083 
6111.000000	65.519189 
6110.000000	65.324306 
6109.000000	65.136623 
6108.000000	64.967274 
6107.000000	64.821767 
6106.000000	64.701390 
6105.000000	64.605212 
6104.000000	64.531207 
6103.000000	64.479565 
6102.000000	64.452171 
6101.000000	64.453315 
6100.000000	64.484381 
6099.000000	64.546585 
6098.000000	64.636635 
6097.000000	64.750528 
6096.000000	64.882016 
6095.000000	65.025329 
6094.000000	65.174722 
6093.000000	65.325903 
6092.000000	65.475440 
6091.000000	65.620493 
6090.000000	65.757322 
6089.000000	65.880417 
6088.000000	65.981817 
6087.000000	66.052198 
6086.000000	66.081738 
6085.000000	66.063332 
6084.000000	65.993785 
6083.000000	65.875935 
6082.000000	65.718650 
6081.000000	65.536570 
6080.000000	65.348124 
6079.000000	65.172100 
6078.000000	65.025758 
6077.000000	64.922642 
6076.000000	64.870858 
6075.000000	64.871025 
6074.000000	64.918637 
6073.000000	65.004968 
6072.000000	65.119791 
6071.000000	65.252494 
6070.000000	65.392971 
6069.000000	65.531778 
6068.000000	65.658378 
6067.000000	65.760946 
6066.000000	65.826606 
6065.000000	65.842986 
6064.000000	65.802335 
6063.000000	65.703964 
6062.000000	65.556359 
6061.000000	65.376234 
6060.000000	65.186691 
6059.000000	65.011978 
6058.000000	64.872002 
6057.000000	64.778304 
6056.000000	64.732146 
6055.000000	64.726090 
6054.000000	64.746022 
6053.000000	64.777493 
6052.000000	64.809298 
6051.000000	64.837694 
6050.000000	64.865756 
6049.000000	64.902186 
6048.000000	64.954996 
6047.000000	65.029859 
6046.000000	65.125274 
6045.000000	65.234065 
6044.000000	65.344142 
6043.000000	65.442562 
6042.000000	65.519833 
6041.000000	65.570926 
6040.000000	65.596795 
6039.000000	65.602397 
6038.000000	65.594887 
6037.000000	65.580034 
6036.000000	65.560507 
6035.000000	65.535497 
6034.000000	65.501379 
6033.000000	65.453553 
6032.000000	65.388441 
6031.000000	65.305948 
6030.000000	65.210390 
6029.000000	65.108704 
6028.000000	65.010595 
6027.000000	64.926052 
6026.000000	64.864253 
6025.000000	64.830946 
6024.000000	64.827942 
6023.000000	64.853358 
6022.000000	64.901113 
6021.000000	64.961957 
6020.000000	65.024924 
6019.000000	65.077686 
6018.000000	65.111398 
6017.000000	65.121173 
6016.000000	65.109610 
6015.000000	65.084886 
6014.000000	65.061450 
6013.000000	65.055918 
6012.000000	65.083384 
6011.000000	65.153050 
6010.000000	65.265035 
6009.000000	65.409755 
6008.000000	65.568780 
6007.000000	65.719366 
6006.000000	65.840172 
6005.000000	65.916800 
6004.000000	65.945005 
6003.000000	65.931677 
6002.000000	65.892744 
6001.000000	65.848326 
6000.000000	65.817856 
5999.000000	65.814018 
5998.000000	65.840339 
5997.000000	65.890002 
5996.000000	65.950679 
5995.000000	66.006231 
5994.000000	66.042470 
5993.000000	66.050100 
5992.000000	66.027450 
5991.000000	65.980291 
5990.000000	65.918946 
5989.000000	65.856051 
5988.000000	65.801978 
5987.000000	65.764474 
5986.000000	65.747427 
5985.000000	65.750074 
5984.000000	65.767884 
5983.000000	65.792918 
5982.000000	65.815472 
5981.000000	65.824317 
5980.000000	65.809202 
5979.000000	65.761828 
5978.000000	65.678930 
5977.000000	65.562725 
5976.000000	65.422368 
5975.000000	65.273046 
5974.000000	65.134286 
5973.000000	65.025496 
5972.000000	64.963197 
5971.000000	64.958047 
5970.000000	65.012264 
5969.000000	65.118885 
5968.000000	65.263271 
5967.000000	65.426182 
5966.000000	65.586423 
5965.000000	65.725040 
5964.000000	65.826630 
5963.000000	65.881514 
5962.000000	65.885162 
5961.000000	65.837740 
5960.000000	65.743589 
5959.000000	65.610170 
5958.000000	65.448474 
5957.000000	65.272378 
5956.000000	65.097618 
5955.000000	64.940500 
5954.000000	64.817190 
5953.000000	64.741420 
5952.000000	64.722084 
5951.000000	64.761257 
5950.000000	64.853334 
5949.000000	64.985251 
5948.000000	65.137386 
5947.000000	65.286874 
5946.000000	65.410542 
5945.000000	65.489482 
5944.000000	65.512156 
5943.000000	65.476393 
5942.000000	65.389013 
5941.000000	65.264225 
5940.000000	65.120959 
5939.000000	64.978432 
5938.000000	64.853167 
5937.000000	64.755868 
5936.000000	64.691209 
5935.000000	64.657664 
5934.000000	64.649510 
5933.000000	64.659714 
5932.000000	64.682555 
5931.000000	64.715313 
5930.000000	64.758396 
5929.000000	64.814472 
5928.000000	64.886426 
5927.000000	64.976596 
5926.000000	65.084457 
5925.000000	65.205883 
5924.000000	65.332269 
5923.000000	65.453839 
5922.000000	65.558910 
5921.000000	65.635561 
5920.000000	65.672397 
5919.000000	65.661334 
5918.000000	65.597939 
5917.000000	65.483427 
5916.000000	65.323948 
5915.000000	65.131163 
5914.000000	64.920353 
5913.000000	64.709591 
5912.000000	64.516425 
5911.000000	64.355111 
5910.000000	64.235615 
5909.000000	64.162540 
5908.000000	64.135503 
5907.000000	64.149117 
5906.000000	64.196348 
5905.000000	64.269208 
5904.000000	64.361453 
5903.000000	64.468336 
5902.000000	64.587473 
5901.000000	64.717793 
5900.000000	64.857888 
5899.000000	65.004897 
5898.000000	65.154838 
5897.000000	65.302157 
5896.000000	65.440773 
5895.000000	65.564250 
5894.000000	65.667271 
5893.000000	65.745568 
5892.000000	65.798234 
5891.000000	65.825533 
5890.000000	65.830826 
5889.000000	65.816688 
5888.000000	65.787506 
5887.000000	65.744233 
5886.000000	65.685391 
5885.000000	65.606284 
5884.000000	65.502476 
5883.000000	65.370750 
5882.000000	65.211367 
5881.000000	65.030884 
5880.000000	64.842987 
5879.000000	64.665818 
5878.000000	64.518332 
5877.000000	64.416074 
5876.000000	64.367365 
5875.000000	64.370703 
5874.000000	64.415311 
5873.000000	64.482569 
5872.000000	64.551258 
5871.000000	64.604043 
5870.000000	64.632248 
5869.000000	64.636111 
5868.000000	64.625382 
5867.000000	64.615464 
5866.000000	64.623236 
5865.000000	64.659571 
5864.000000	64.728021 
5863.000000	64.824199 
5862.000000	64.937520 
5861.000000	65.054512 
5860.000000	65.163207 
5859.000000	65.256834 
5858.000000	65.334773 
5857.000000	65.402007 
5856.000000	65.466451 
5855.000000	65.535736 
5854.000000	65.614008 
5853.000000	65.700721 
5852.000000	65.789222 
5851.000000	65.868926 
5850.000000	65.928006 
5849.000000	65.957570 
5848.000000	65.951895 
5847.000000	65.910029 
5846.000000	65.836024 
5845.000000	65.738034 
5844.000000	65.625500 
5843.000000	65.507364 
5842.000000	65.390992 
5841.000000	65.280818 
5840.000000	65.179491 
5839.000000	65.087342 
5838.000000	65.003466 
5837.000000	64.925789 
5836.000000	64.851856 
5835.000000	64.779591 
5834.000000	64.706754 
5833.000000	64.632368 
5832.000000	64.555716 
5831.000000	64.477920 
5830.000000	64.400529 
5829.000000	64.327239 
5828.000000	64.262652 
5827.000000	64.212369 
5826.000000	64.180517 
5825.000000	64.171171 
5824.000000	64.187264 
5823.000000	64.229917 
5822.000000	64.297604 
5821.000000	64.386057 
5820.000000	64.488053 
5819.000000	64.593720 
5818.000000	64.691376 
5817.000000	64.768099 
5816.000000	64.812278 
5815.000000	64.815235 
5814.000000	64.774274 
5813.000000	64.693212 
5812.000000	64.583206 
5811.000000	64.462113 
5810.000000	64.351367 
5809.000000	64.271759 
5808.000000	64.239263 
5807.000000	64.262914 
5806.000000	64.341330 
5805.000000	64.464116 
5804.000000	64.612054 
5803.000000	64.762425 
5802.000000	64.891338 
5801.000000	64.978194 
5800.000000	65.009522 
5799.000000	64.980697 
5798.000000	64.897203 
5797.000000	64.772558 
5796.000000	64.627003 
5795.000000	64.483428 
5794.000000	64.363789 
5793.000000	64.285135 
5792.000000	64.257335 
5791.000000	64.281606 
5790.000000	64.350581 
5789.000000	64.450263 
5788.000000	64.562726 
5787.000000	64.670205 
5786.000000	64.758396 
5785.000000	64.819002 
5784.000000	64.849853 
5783.000000	64.854311 
5782.000000	64.838552 
5781.000000	64.809608 
5780.000000	64.772844 
5779.000000	64.731621 
5778.000000	64.687776 
5777.000000	64.642596 
5776.000000	64.599156 
5775.000000	64.561629 
5774.000000	64.535379 
5773.000000	64.525699 
5772.000000	64.536452 
5771.000000	64.569067 
5770.000000	64.621829 
5769.000000	64.689755 
5768.000000	64.765286 
5767.000000	64.840435 
5766.000000	64.908504 
5765.000000	64.964842 
5764.000000	65.007543 
5763.000000	65.037941 
5762.000000	65.059494 
5761.000000	65.076422 
5760.000000	65.091967 
5759.000000	65.108609 
5758.000000	65.125918 
5757.000000	65.142178 
5756.000000	65.153527 
5755.000000	65.154695 
5754.000000	65.140795 
5753.000000	65.108752 
5752.000000	65.059590 
5751.000000	64.998173 
5750.000000	64.934325 
5749.000000	64.881086 
5748.000000	64.851951 
5747.000000	64.857959 
5746.000000	64.904236 
5745.000000	64.988732 
5744.000000	65.100979 
5743.000000	65.224170 
5742.000000	65.337324 
5741.000000	65.419769 
5740.000000	65.453362 
5739.000000	65.425872 
5738.000000	65.332174 
5737.000000	65.175366 
5736.000000	64.965629 
5735.000000	64.719915 
5734.000000	64.458870 
5733.000000	64.206194 
5732.000000	63.986492 
5731.000000	63.823270 
5730.000000	63.736176 
5729.000000	63.737845 
5728.000000	63.831758 
5727.000000	64.010167 
5726.000000	64.253282 
5725.000000	64.532732 
5724.000000	64.814496 
5723.000000	65.065431 
5722.000000	65.256953 
5721.000000	65.371584 
5720.000000	65.404176 
5719.000000	65.363526 
5718.000000	65.268993 
5717.000000	65.146756 
5716.000000	65.024399 
5715.000000	64.925432 
5714.000000	64.865708 
5713.000000	64.850521 
5712.000000	64.875459 
5711.000000	64.927959 
5710.000000	64.991688 
5709.000000	65.050816 
5708.000000	65.094137 
5707.000000	65.116333 
5706.000000	65.119075 
5705.000000	65.108680 
5704.000000	65.093803 
5703.000000	65.083003 
5702.000000	65.081024 
5701.000000	65.087151 
5700.000000	65.095257 
5699.000000	65.097427 
5698.000000	65.085005 
5697.000000	65.052247 
5696.000000	64.998030 
5695.000000	64.926528 
5694.000000	64.846634 
5693.000000	64.770483 
5692.000000	64.709448 
5691.000000	64.670825 
5690.000000	64.656829 
5689.000000	64.664340 
5688.000000	64.685106 
5687.000000	64.708018 
5686.000000	64.721751 
5685.000000	64.717435 
5684.000000	64.690232 
5683.000000	64.640188 
5682.000000	64.570140 
5681.000000	64.485740 
5680.000000	64.393615 
5679.000000	64.301395 
5678.000000	64.217019 
5677.000000	64.148616 
5676.000000	64.104104 
5675.000000	64.089846 
5674.000000	64.109778 
5673.000000	64.163923 
5672.000000	64.247417 
5671.000000	64.350914 
5670.000000	64.460563 
5669.000000	64.561414 
5668.000000	64.639973 
5667.000000	64.687085 
5666.000000	64.699697 
5665.000000	64.680552 
5664.000000	64.637565 
5663.000000	64.580059 
5662.000000	64.516496 
5661.000000	64.452886 
5660.000000	64.392399 
5659.000000	64.336466 
5658.000000	64.286208 
5657.000000	64.245176 
5656.000000	64.219570 
5655.000000	64.216542 
5654.000000	64.242315 
5653.000000	64.298701 
5652.000000	64.382219 
5651.000000	64.482665 
5650.000000	64.586567 
5649.000000	64.679312 
5648.000000	64.750242 
5647.000000	64.795231 
5646.000000	64.818000 
5645.000000	64.829778 
5644.000000	64.844179 
5643.000000	64.873552 
5642.000000	64.923763 
5641.000000	64.992403 
5640.000000	65.068936 
5639.000000	65.137791 
5638.000000	65.183758 
5637.000000	65.197277 
5636.000000	65.177869 
5635.000000	65.135097 
5634.000000	65.086483 
5633.000000	65.052747 
5632.000000	65.052032 
5631.000000	65.094780 
5630.000000	65.180969 
5629.000000	65.299916 
5628.000000	65.433454 
5627.000000	65.560269 
5626.000000	65.661573 
5625.000000	65.725040 
5624.000000	65.747237 
5623.000000	65.733456 
5622.000000	65.694332 
5621.000000	65.643191 
5620.000000	65.592241 
5619.000000	65.550327 
5618.000000	65.521574 
5617.000000	65.506219 
5616.000000	65.503287 
5615.000000	65.511631 
5614.000000	65.531039 
5613.000000	65.563273 
5612.000000	65.611314 
5611.000000	65.678071 
5610.000000	65.763592 
5609.000000	65.865230 
5608.000000	65.976667 
5607.000000	66.088795 
5606.000000	66.190814 
5605.000000	66.272068 
5604.000000	66.323757 
5603.000000	66.340255 
5602.000000	66.319894 
5601.000000	66.265273 
5600.000000	66.182565 
5599.000000	66.080784 
5598.000000	65.970206 
5597.000000	65.862154 
5596.000000	65.766453 
5595.000000	65.691137 
5594.000000	65.640163 
5593.000000	65.614318 
5592.000000	65.609908 
5591.000000	65.620279 
5590.000000	65.636444 
5589.000000	65.648436 
5588.000000	65.647768 
5587.000000	65.628242 
5586.000000	65.588092 
5585.000000	65.529322 
5584.000000	65.458011 
5583.000000	65.382242 
5582.000000	65.311551 
5581.000000	65.254926 
5580.000000	65.219211 
5579.000000	65.207529 
5578.000000	65.218615 
5577.000000	65.246725 
5576.000000	65.282440 
5575.000000	65.314555 
5574.000000	65.331506 
5573.000000	65.324211 
5572.000000	65.287494 
5571.000000	65.222406 
5570.000000	65.135049 
5569.000000	65.037107 
5568.000000	64.943170 
5567.000000	64.868927 
5566.000000	64.827728 
5565.000000	64.827919 
5564.000000	64.871644 
5563.000000	64.953327 
5562.000000	65.061283 
5561.000000	65.179109 
5560.000000	65.288972 
5559.000000	65.374898 
5558.000000	65.424966 
5557.000000	65.434122 
5556.000000	65.403819 
5555.000000	65.342712 
5554.000000	65.263962 
5553.000000	65.183329 
5552.000000	65.116119 
5551.000000	65.074849 
5550.000000	65.067529 
5549.000000	65.097784 
5548.000000	65.164780 
5547.000000	65.264630 
5546.000000	65.390563 
5545.000000	65.534305 
5544.000000	65.685510 
5543.000000	65.832591 
5542.000000	65.962481 
5541.000000	66.061520 
5540.000000	66.117238 
5539.000000	66.120028 
5538.000000	66.066431 
5537.000000	65.961360 
5536.000000	65.817761 
5535.000000	65.655708 
5534.000000	65.498065 
5533.000000	65.368533 
5532.000000	65.283799 
5531.000000	65.250968 
5530.000000	65.265464 
5529.000000	65.312623 
5528.000000	65.372323 
5527.000000	65.424990 
5526.000000	65.456175 
5525.000000	65.459609 
5524.000000	65.438485 
5523.000000	65.403223 
5522.000000	65.366506 
5521.000000	65.338468 
5520.000000	65.323615 
5519.000000	65.319252 
5518.000000	65.316677 
5517.000000	65.304684 
5516.000000	65.274095 
5515.000000	65.222072 
5514.000000	65.153169 
5513.000000	65.080308 
5512.000000	65.020585 
5511.000000	64.993000 
5510.000000	65.011596 
5509.000000	65.084123 
5508.000000	65.209054 
5507.000000	65.376353 
5506.000000	65.570187 
5505.000000	65.770339 
5504.000000	65.956640 
5503.000000	66.110253 
5502.000000	66.217160 
5501.000000	66.268110 
5500.000000	66.259670 
5499.000000	66.193652 
5498.000000	66.076612 
5497.000000	65.918517 
5496.000000	65.731716 
5495.000000	65.529751 
5494.000000	65.326237 
5493.000000	65.133523 
5492.000000	64.962220 
5491.000000	64.820098 
5490.000000	64.712810 
5489.000000	64.642930 
5488.000000	64.611864 
5487.000000	64.618182 
5486.000000	64.660596 
5485.000000	64.736413 
5484.000000	64.842677 
5483.000000	64.974141 
5482.000000	65.123605 
5481.000000	65.280985 
5480.000000	65.433311 
5479.000000	65.566396 
5478.000000	65.665316 
5477.000000	65.717363 
5476.000000	65.713572 
5475.000000	65.651202 
5474.000000	65.534639 
5473.000000	65.375590 
5472.000000	65.191292 
5471.000000	65.002465 
5470.000000	64.830064 
5469.000000	64.692378 
5468.000000	64.602422 
5467.000000	64.566278 
5466.000000	64.582300 
5465.000000	64.641976 
5464.000000	64.731550 
5463.000000	64.834904 
5462.000000	64.934873 
5461.000000	65.017485 
5460.000000	65.072250 
5459.000000	65.095400 
5458.000000	65.088987 
5457.000000	65.060997 
5456.000000	65.023040 
5455.000000	64.987421 
5454.000000	64.964485 
5453.000000	64.959788 
5452.000000	64.973998 
5451.000000	65.002465 
5450.000000	65.037512 
5449.000000	65.070557 
5448.000000	65.094900 
5447.000000	65.107512 
5446.000000	65.109729 
5445.000000	65.106177 
5444.000000	65.103006 
5443.000000	65.105819 
5442.000000	65.117383 
5441.000000	65.136671 
5440.000000	65.158748 
5439.000000	65.175509 
5438.000000	65.177416 
5437.000000	65.156650 
5436.000000	65.108704 
5435.000000	65.033102 
5434.000000	64.934372 
5433.000000	64.820814 
5432.000000	64.704155 
5431.000000	64.596557 
5430.000000	64.510369 
5429.000000	64.455485 
5428.000000	64.439010 
5427.000000	64.463877 
5426.000000	64.528799 
5425.000000	64.628171 
5424.000000	64.753103 
5423.000000	64.892196 
5422.000000	65.032815 
5421.000000	65.162181 
5420.000000	65.268993 
5419.000000	65.344452 
5418.000000	65.382933 
5417.000000	65.382361 
5416.000000	65.344381 
5415.000000	65.273952 
5414.000000	65.178298 
5413.000000	65.066289 
5412.000000	64.947152 
5411.000000	64.830327 
5410.000000	64.724516 
5409.000000	64.638400 
5408.000000	64.579892 
5407.000000	64.556550 
5406.000000	64.574575 
5405.000000	64.637970 
5404.000000	64.746689 
5403.000000	64.896011 
5402.000000	65.075492 
5401.000000	65.269827 
5400.000000	65.460491 
5399.000000	65.627956 
5398.000000	65.754914 
5397.000000	65.828847 
5396.000000	65.844368 
5395.000000	65.803575 
5394.000000	65.715813 
5393.000000	65.595364 
5392.000000	65.459489 
5391.000000	65.324544 
5390.000000	65.203666 
5389.000000	65.105032 
5388.000000	65.032052 
5387.000000	64.983463 
5386.000000	64.955520 
5385.000000	64.943361 
5384.000000	64.943385 
5383.000000	64.953970 
5382.000000	64.976143 
5381.000000	65.011882 
5380.000000	65.063190 
5379.000000	65.130257 
5378.000000	65.209722 
5377.000000	65.293765 
5376.000000	65.370607 
5375.000000	65.427207 
5374.000000	65.451335 
5373.000000	65.434837 
5372.000000	65.375137 
5371.000000	65.277338 
5370.000000	65.151906 
5369.000000	65.013170 
5368.000000	64.875364 
5367.000000	64.750003 
5366.000000	64.644241 
5365.000000	64.560627 
5364.000000	64.497661 
5363.000000	64.451575 
5362.000000	64.419579 
5361.000000	64.401507 
5360.000000	64.399576 
5359.000000	64.417791 
5358.000000	64.460158 
5357.000000	64.528751 
5356.000000	64.621067 
5355.000000	64.730191 
5354.000000	64.845371 
5353.000000	64.954853 
5352.000000	65.047669 
5351.000000	65.117216 
5350.000000	65.162348 
5349.000000	65.188527 
5348.000000	65.205383 
5347.000000	65.225458 
5346.000000	65.260457 
5345.000000	65.318512 
5344.000000	65.403366 
5343.000000	65.511369 
5342.000000	65.633964 
5341.000000	65.756916 
5340.000000	65.864944 
5339.000000	65.941667 
5338.000000	65.973782 
5337.000000	65.951848 
5336.000000	65.872669 
5335.000000	65.738582 
5334.000000	65.557456 
5333.000000	65.342020 
5332.000000	65.108489 
5331.000000	64.874958 
5330.000000	64.658951 
5329.000000	64.475107 
5328.000000	64.333271 
5327.000000	64.236259 
5326.000000	64.181566 
5325.000000	64.161586 
5324.000000	64.168071 
5323.000000	64.191603 
5322.000000	64.226913 
5321.000000	64.271712 
5320.000000	64.328122 
5319.000000	64.399766 
5318.000000	64.489126 
5317.000000	64.592862 
5316.000000	64.702582 
5315.000000	64.804887 
5314.000000	64.884519 
5313.000000	64.927792 
5312.000000	64.926648 
5311.000000	64.881920 
5310.000000	64.802026 
5309.000000	64.700889 
5308.000000	64.594221 
5307.000000	64.495849 
5306.000000	64.410924 
5305.000000	64.336895 
5304.000000	64.265179 
5303.000000	64.188790 
5302.000000	64.106726 
5301.000000	64.030623 
5300.000000	63.984870 
5299.000000	64.002442 
5298.000000	64.118075 
5297.000000	64.354062 
5296.000000	64.711642 
5295.000000	65.163135 
5294.000000	65.654110 
5293.000000	66.112709 
5292.000000	66.463375 
5291.000000	66.646480 
5290.000000	66.634178 
5289.000000	66.436648 
5288.000000	66.101694 
5287.000000	65.699839 
5286.000000	65.310883 
5285.000000	64.994502 
5284.000000	64.777827 
5283.000000	64.647436 
5282.000000	64.558243 
5281.000000	64.447665 
5280.000000	64.258575 
5279.000000	63.960003 
5278.000000	63.560032 
5277.000000	63.103914 
5276.000000	62.663578 
5275.000000	62.314748 
5274.000000	62.116861 
5273.000000	62.094283 
5272.000000	62.231445 
5271.000000	62.474417 
5270.000000	62.749838 
5269.000000	62.985086 
5268.000000	63.130092 
5267.000000	63.166165 
5266.000000	63.113808 
5265.000000	63.018560 
5264.000000	62.943530 
5263.000000	62.942242 
5262.000000	63.053750 
5261.000000	63.290166 
5260.000000	63.638830 
5259.000000	64.068388 
5258.000000	64.537215 
5257.000000	65.005826 
5256.000000	65.442323 
5255.000000	65.827775 
5254.000000	66.154313 
5253.000000	66.421389 
5252.000000	66.633605 
5251.000000	66.794800 
5250.000000	66.905593 
5249.000000	66.960597 
5248.000000	66.954040 
5247.000000	66.879391 
5246.000000	66.735672 
5245.000000	66.527342 
5244.000000	66.268014 
5243.000000	65.978574 
5242.000000	65.684461 
5241.000000	65.413713 
5240.000000	65.192461 
5239.000000	65.042495 
5238.000000	64.979052 
5237.000000	65.007233 
5236.000000	65.120577 
5235.000000	65.301609 
5234.000000	65.524387 
5233.000000	65.757322 
5232.000000	65.967035 
5231.000000	66.124796 
5230.000000	66.210007 
5229.000000	66.214728 
5228.000000	66.143536 
5227.000000	66.013813 
5226.000000	65.850973 
5225.000000	65.682172 
5224.000000	65.529417 
5223.000000	65.406370 
5222.000000	65.314888 
5221.000000	65.246033 
5220.000000	65.183019 
5219.000000	65.106892 
5218.000000	65.002775 
5217.000000	64.863991 
5216.000000	64.696168 
5215.000000	64.514160 
5214.000000	64.341497 
5213.000000	64.202022 
5212.000000	64.117193 
5211.000000	64.098811 
5210.000000	64.148926 
5209.000000	64.258289 
5208.000000	64.410305 
5207.000000	64.584255 
5206.000000	64.760422 
5205.000000	64.922690 
5204.000000	65.061926 
5203.000000	65.175366 
5202.000000	65.265488 
5201.000000	65.336799 
5200.000000	65.394854 
5199.000000	65.444111 
5198.000000	65.487766 
5197.000000	65.527653 
5196.000000	65.565681 
5195.000000	65.603756 
5194.000000	65.646147 
5193.000000	65.697050 
5192.000000	65.759205 
5191.000000	65.831732 
5190.000000	65.910863 
5189.000000	65.988397 
5188.000000	66.053915 
5187.000000	66.095161 
5186.000000	66.103005 
5185.000000	66.070365 
5184.000000	65.994691 
5183.000000	65.877628 
5182.000000	65.725803 
5181.000000	65.549802 
5180.000000	65.363073 
5179.000000	65.180659 
5178.000000	65.017271 
5177.000000	64.885711 
5176.000000	64.795565 
5175.000000	64.751315 
5174.000000	64.751577 
5173.000000	64.790892 
5172.000000	64.860701 
5171.000000	64.950442 
5170.000000	65.049171 
5169.000000	65.147757 
5168.000000	65.239548 
5167.000000	65.319371 
5166.000000	65.383672 
5165.000000	65.429854 
5164.000000	65.456295 
5163.000000	65.461993 
5162.000000	65.447378 
5161.000000	65.416359 
5160.000000	65.374851 
5159.000000	65.332627 
5158.000000	65.298175 
5157.000000	65.277886 
5156.000000	65.272784 
5155.000000	65.278553 
5154.000000	65.286374 
5153.000000	65.285253 
5152.000000	65.266466 
5151.000000	65.226697 
5150.000000	65.169310 
5149.000000	65.103602 
5148.000000	65.043139 
5147.000000	65.001893 
5146.000000	64.989495 
5145.000000	65.007925 
5144.000000	65.050768 
5143.000000	65.104341 
5142.000000	65.150356 
5141.000000	65.170764 
5140.000000	65.152049 
5139.000000	65.088891 
5138.000000	64.985108 
5137.000000	64.853763 
5136.000000	64.712738 
5135.000000	64.582800 
5134.000000	64.483237 
5133.000000	64.428544 
5132.000000	64.426350 
5131.000000	64.476013 
5130.000000	64.569592 
5129.000000	64.693641 
5128.000000	64.831328 
5127.000000	64.967012 
5126.000000	65.087866 
5125.000000	65.186738 
5124.000000	65.261554 
5123.000000	65.314888 
5122.000000	65.351223 
5121.000000	65.375590 
5120.000000	65.391802 
5119.000000	65.401935 
5118.000000	65.406703 
5117.000000	65.406656 
5116.000000	65.403032 
5115.000000	65.398454 
5114.000000	65.396571 
5113.000000	65.401601 
5112.000000	65.416765 
5111.000000	65.443086 
5110.000000	65.478372 
5109.000000	65.517663 
5108.000000	65.554070 
5107.000000	65.580987 
5106.000000	65.593099 
5105.000000	65.588688 
5104.000000	65.568780 
5103.000000	65.536713 
5102.000000	65.497112 
5101.000000	65.454530 
5100.000000	65.413188 
5099.000000	65.376567 
5098.000000	65.347480 
5097.000000	65.328097 
5096.000000	65.319895 
5095.000000	65.324163 
5094.000000	65.340185 
5093.000000	65.365266 
5092.000000	65.394473 
5091.000000	65.421533 
5090.000000	65.439391 
5089.000000	65.441989 
5088.000000	65.425968 
5087.000000	65.391492 
5086.000000	65.342664 
5085.000000	65.286493 
5084.000000	65.231561 
5083.000000	65.185713 
5082.000000	65.154314 
5081.000000	65.139102 
5080.000000	65.138602 
5079.000000	65.148305 
5078.000000	65.162563 
5077.000000	65.175247 
5076.000000	65.181541 
5075.000000	65.178155 
5074.000000	65.163397 
5073.000000	65.137791 
5072.000000	65.103149 
5071.000000	65.062928 
5070.000000	65.021133 
5069.000000	64.982438 
5068.000000	64.951062 
5067.000000	64.930748 
5066.000000	64.923858 
5065.000000	64.930534 
5064.000000	64.948654 
5063.000000	64.974021 
5062.000000	65.001320 
5061.000000	65.024900 
5060.000000	65.040111 
5059.000000	65.044617 
5058.000000	65.038323 
5057.000000	65.023016 
5056.000000	65.001869 
5055.000000	64.978289 
5054.000000	64.955377 
5053.000000	64.935374 
5052.000000	64.919352 
5051.000000	64.908051 
5050.000000	64.901208 
5049.000000	64.898443 
5048.000000	64.898467 
5047.000000	64.899992 
5046.000000	64.901280 
5045.000000	64.900255 
5044.000000	64.895105 
5043.000000	64.884567 
5042.000000	64.868640 
5041.000000	64.848709 
5040.000000	64.828109 
5039.000000	64.811420 
5038.000000	64.803910 
5037.000000	64.810442 
5036.000000	64.834666 
5035.000000	64.878249 
5034.000000	64.940381 
5033.000000	65.017795 
5032.000000	65.105676 
5031.000000	65.197730 
5030.000000	65.286707 
5029.000000	65.365099 
5028.000000	65.426039 
5027.000000	65.464401 
5026.000000	65.477299 
5025.000000	65.464925 
5024.000000	65.430378 
5023.000000	65.379834 
5022.000000	65.322232 
5021.000000	65.267252 
5020.000000	65.224242 
5019.000000	65.200161 
5018.000000	65.199065 
5017.000000	65.220737 
5016.000000	65.261197 
5015.000000	65.313434 
5014.000000	65.368986 
5013.000000	65.419507 
5012.000000	65.458297 
5011.000000	65.481710 
5010.000000	65.489745 
5009.000000	65.485858 
5008.000000	65.476274 
5007.000000	65.469121 
5006.000000	65.472865 
5005.000000	65.494990 
5004.000000	65.539550 
5003.000000	65.607070 
5002.000000	65.692305 
5001.000000	65.786194 
5000.000000	65.875029 
4999.000000	65.943789 
4998.000000	65.977764 
4997.000000	65.965795 
4996.000000	65.902638 
4995.000000	65.790414 
4994.000000	65.638637 
4993.000000	65.463137 
4992.000000	65.282845 
4991.000000	65.117216 
4990.000000	64.982104 
4989.000000	64.887571 
4988.000000	64.836335 
4987.000000	64.824366 
4986.000000	64.842200 
4985.000000	64.877700 
4984.000000	64.918828 
4983.000000	64.956235 
4982.000000	64.984226 
4981.000000	65.001153 
4980.000000	65.008902 
4979.000000	65.011882 
4978.000000	65.014791 
4977.000000	65.021586 
4976.000000	65.034937 
4975.000000	65.055823 
4974.000000	65.083932 
4973.000000	65.117335 
4972.000000	65.153861 
4971.000000	65.190124 
4970.000000	65.222573 
4969.000000	65.246891 
4968.000000	65.259194 
4967.000000	65.255737 
4966.000000	65.233945 
4965.000000	65.192890 
4964.000000	65.133690 
4963.000000	65.060114 
4962.000000	64.978456 
4961.000000	64.896583 
4960.000000	64.822578 
4959.000000	64.764094 
4958.000000	64.727282 
4957.000000	64.715194 
4956.000000	64.727210 
4955.000000	64.759707 
4954.000000	64.806604 
4953.000000	64.860010 
4952.000000	64.911699 
4951.000000	64.954185 
4950.000000	64.982056 
4949.000000	64.992189 
4948.000000	64.984130 
4947.000000	64.959812 
4946.000000	64.922714 
4945.000000	64.877128 
4944.000000	64.827466 
4943.000000	64.777731 
4942.000000	64.731121 
4941.000000	64.690327 
4940.000000	64.657187 
4939.000000	64.632868 
4938.000000	64.617967 
4937.000000	64.612436 
4936.000000	64.615845 
4935.000000	64.626908 
4934.000000	64.644527 
4933.000000	64.667344 
4932.000000	64.695119 
4931.000000	64.728212 
4930.000000	64.768457 
4929.000000	64.818215 
4928.000000	64.880084 
4927.000000	64.955615 
4926.000000	65.044260 
4925.000000	65.142703 
4924.000000	65.244841 
4923.000000	65.342712 
4922.000000	65.428519 
4921.000000	65.495896 
4920.000000	65.541386 
4919.000000	65.564489 
4918.000000	65.568494 
4917.000000	65.558242 
4916.000000	65.539813 
4915.000000	65.517807 
4914.000000	65.494847 
4913.000000	65.471172 
4912.000000	65.446186 
4911.000000	65.418410 
4910.000000	65.387463 
4909.000000	65.354156 
4908.000000	65.321516 
4907.000000	65.293025 
4906.000000	65.271496 
4905.000000	65.258049 
4904.000000	65.251398 
4903.000000	65.248441 
4902.000000	65.245008 
4901.000000	65.236854 
4900.000000	65.220499 
4899.000000	65.193414 
4898.000000	65.154623 
4897.000000	65.103220 
4896.000000	65.039157 
4895.000000	64.963030 
4894.000000	64.877176 
4893.000000	64.784860 
4892.000000	64.691686 
4891.000000	64.605474 
4890.000000	64.535689 
4889.000000	64.490938 
4888.000000	64.478135 
4887.000000	64.500045 
4886.000000	64.555263 
4885.000000	64.636850 
4884.000000	64.735198 
4883.000000	64.838981 
4882.000000	64.937901 
4881.000000	65.024590 
4880.000000	65.094470 
4879.000000	65.145468 
4878.000000	65.177512 
4877.000000	65.191483 
4876.000000	65.188765 
4875.000000	65.170717 
4874.000000	65.139651 
4873.000000	65.098524 
4872.000000	65.051054 
4871.000000	65.000987 
4870.000000	64.952039 
4869.000000	64.907002 
4868.000000	64.867329 
4867.000000	64.833235 
4866.000000	64.803886 
4865.000000	64.778447 
4864.000000	64.755916 
4863.000000	64.736580 
4862.000000	64.721536 
4861.000000	64.712929 
4860.000000	64.712452 
4859.000000	64.721727 
4858.000000	64.740633 
4857.000000	64.768481 
4856.000000	64.803433 
4855.000000	64.843797 
4854.000000	64.887785 
4853.000000	64.934062 
4852.000000	64.981770 
4851.000000	65.029478 
4850.000000	65.074872 
4849.000000	65.115094 
4848.000000	65.146946 
4847.000000	65.167236 
4846.000000	65.173602 
4845.000000	65.164923 
4844.000000	65.142083 
4843.000000	65.108180 
4842.000000	65.068244 
4841.000000	65.028190 
4840.000000	64.993834 
4839.000000	64.970469 
4838.000000	64.961123 
4837.000000	64.966058 
4836.000000	64.982533 
4835.000000	65.006017 
4834.000000	65.030884 
4833.000000	65.051555 
4832.000000	65.063714 
4831.000000	65.065193 
4830.000000	65.056228 
4829.000000	65.039038 
4828.000000	65.016865 
4827.000000	64.992928 
4826.000000	64.969253 
4825.000000	64.946246 
4824.000000	64.922666 
4823.000000	64.896321 
4822.000000	64.865159 
4821.000000	64.828372 
4820.000000	64.787244 
4819.000000	64.745140 
4818.000000	64.706754 
4817.000000	64.677190 
4816.000000	64.660644 
4815.000000	64.659857 
4814.000000	64.675354 
4813.000000	64.705944 
4812.000000	64.749026 
4811.000000	64.801406 
4810.000000	64.859628 
4809.000000	64.919877 
4808.000000	64.978909 
4807.000000	65.033221 
4806.000000	65.078902 
4805.000000	65.111923 
4804.000000	65.128660 
4803.000000	65.126490 
4802.000000	65.104508 
4801.000000	65.064358 
4800.000000	65.010476 
4799.000000	64.949727 
4798.000000	64.890503 
4797.000000	64.841485 
4796.000000	64.810228 
4795.000000	64.802122 
4794.000000	64.819359 
4793.000000	64.860868 
4792.000000	64.922523 
4791.000000	64.997768 
4790.000000	65.078854 
4789.000000	65.157866 
4788.000000	65.228319 
4787.000000	65.285730 
4786.000000	65.328621 
4785.000000	65.357923 
4784.000000	65.376806 
4783.000000	65.389728 
4782.000000	65.401077 
4781.000000	65.414571 
4780.000000	65.431976 
4779.000000	65.454030 
4778.000000	65.479588 
4777.000000	65.506649 
4776.000000	65.532684 
4775.000000	65.556168 
4774.000000	65.576148 
4773.000000	65.592455 
4772.000000	65.605258 
4771.000000	65.614914 
4770.000000	65.621423 
4769.000000	65.624213 
4768.000000	65.622568 
4767.000000	65.615773 
4766.000000	65.603947 
4765.000000	65.588092 
4764.000000	65.569496 
4763.000000	65.549349 
4762.000000	65.528726 
4761.000000	65.507793 
4760.000000	65.486288 
4759.000000	65.463256 
4758.000000	65.437555 
4757.000000	65.407824 
4756.000000	65.373277 
4755.000000	65.333533 
4754.000000	65.288591 
4753.000000	65.238928 
4752.000000	65.185451 
4751.000000	65.129375 
4750.000000	65.071916 
4749.000000	65.014386 
4748.000000	64.958190 
4747.000000	64.904713 
4746.000000	64.854836 
4745.000000	64.809918 
4744.000000	64.771509 
4743.000000	64.741802 
4742.000000	64.722919 
4741.000000	64.717698 
4740.000000	64.728665 
4739.000000	64.757871 
4738.000000	64.805817 
4737.000000	64.870548 
4736.000000	64.947319 
4735.000000	65.029191 
4734.000000	65.108084 
4733.000000	65.175986 
4732.000000	65.226912 
4731.000000	65.258264 
4730.000000	65.271258 
4729.000000	65.270400 
4728.000000	65.261912 
4727.000000	65.252733 
4726.000000	65.247750 
4725.000000	65.249443 
4724.000000	65.256166 
4723.000000	65.264248 
4722.000000	65.267586 
4721.000000	65.260124 
4720.000000	65.237212 
4719.000000	65.197181 
4718.000000	65.142321 
4717.000000	65.078186 
4716.000000	65.013337 
4715.000000	64.957261 
4714.000000	64.919018 
4713.000000	64.905619 
4712.000000	64.920973 
4711.000000	64.965391 
4710.000000	65.035843 
4709.000000	65.126585 
4708.000000	65.229964 
4707.000000	65.337419 
4706.000000	65.440177 
4705.000000	65.530300 
4704.000000	65.600967 
4703.000000	65.647459 
4702.000000	65.667796 
4701.000000	65.662574 
4700.000000	65.635371 
4699.000000	65.591621 
4698.000000	65.538859 
4697.000000	65.484189 
4696.000000	65.434575 
4695.000000	65.394473 
4694.000000	65.365958 
4693.000000	65.348148 
4692.000000	65.338253 
4691.000000	65.332341 
4690.000000	65.326690 
4689.000000	65.318655 
4688.000000	65.307259 
4687.000000	65.292954 
4686.000000	65.277194 
4685.000000	65.261864 
4684.000000	65.248966 
4683.000000	65.240192 
4682.000000	65.236997 
4681.000000	65.240669 
4680.000000	65.252256 
4679.000000	65.272498 
4678.000000	65.301418 
4677.000000	65.337705 
4676.000000	65.378713 
4675.000000	65.421009 
4674.000000	65.460491 
4673.000000	65.492773 
4672.000000	65.514302 
4671.000000	65.523457 
4670.000000	65.520358 
4669.000000	65.506982 
4668.000000	65.486359 
4667.000000	65.461587 
4666.000000	65.435409 
4665.000000	65.409970 
4664.000000	65.386772 
4663.000000	65.367102 
4662.000000	65.352368 
4661.000000	65.344333 
4660.000000	65.344715 
4659.000000	65.354800 
4658.000000	65.374469 
4657.000000	65.402293 
4656.000000	65.435504 
4655.000000	65.470504 
4654.000000	65.503978 
4653.000000	65.533304 
4652.000000	65.557146 
4651.000000	65.575170 
4650.000000	65.588045 
4649.000000	65.596294 
4648.000000	65.599679 
4647.000000	65.597128 
4646.000000	65.586590 
4645.000000	65.566492 
4644.000000	65.536761 
4643.000000	65.499353 
4642.000000	65.458655 
4641.000000	65.420413 
4640.000000	65.390682 
4639.000000	65.373921 
4638.000000	65.371608 
4637.000000	65.381932 
4636.000000	65.400314 
4635.000000	65.420389 
4634.000000	65.435934 
4633.000000	65.442609 
4632.000000	65.439128 
4631.000000	65.427303 
4630.000000	65.411472 
4629.000000	65.397095 
4628.000000	65.389180 
4627.000000	65.391302 
4626.000000	65.404486 
4625.000000	65.427637 
4624.000000	65.457439 
4623.000000	65.489888 
4622.000000	65.520477 
4621.000000	65.545105 
4620.000000	65.560531 
4619.000000	65.564131 
4618.000000	65.554881 
4617.000000	65.533566 
4616.000000	65.502691 
4615.000000	65.466523 
4614.000000	65.429711 
4613.000000	65.397024 
4612.000000	65.371108 
4611.000000	65.352630 
4610.000000	65.339064 
4609.000000	65.325760 
4608.000000	65.306830 
4607.000000	65.276956 
4606.000000	65.233707 
4605.000000	65.178728 
4604.000000	65.118122 
4603.000000	65.061330 
4602.000000	65.019392 
4601.000000	65.002298 
4600.000000	65.016365 
4599.000000	65.062212 
4598.000000	65.134763 
4597.000000	65.223479 
4596.000000	65.315222 
4595.000000	65.396142 
4594.000000	65.454554 
4593.000000	65.482950 
4592.000000	65.478992 
4591.000000	65.445637 
4590.000000	65.389871 
4589.000000	65.320825 
4588.000000	65.248322 
4587.000000	65.179872 
4586.000000	65.120553 
4585.000000	65.071105 
4584.000000	65.029883 
4583.000000	64.992642 
4582.000000	64.954471 
4581.000000	64.911150 
4580.000000	64.860773 
4579.000000	64.804029 
4578.000000	64.744496 
4577.000000	64.687538 
4576.000000	64.639329 
4575.000000	64.605212 
4574.000000	64.588642 
4573.000000	64.589905 
4572.000000	64.606595 
4571.000000	64.633607 
4570.000000	64.665079 
4569.000000	64.695215 
4568.000000	64.720153 
4567.000000	64.737892 
4566.000000	64.748930 
4565.000000	64.755153 
4564.000000	64.759325 
4563.000000	64.764237 
4562.000000	64.771580 
4561.000000	64.781546 
4560.000000	64.793086 
4559.000000	64.804506 
4558.000000	64.814281 
4557.000000	64.821863 
4556.000000	64.827823 
4555.000000	64.833664 
4554.000000	64.841413 
4553.000000	64.852762 
4552.000000	64.867925 
4551.000000	64.885115 
4550.000000	64.900779 
4549.000000	64.910459 
4548.000000	64.910149 
4547.000000	64.897704 
4546.000000	64.873886 
4545.000000	64.842653 
4544.000000	64.810419 
4543.000000	64.784741 
4542.000000	64.772462 
4541.000000	64.778041 
4540.000000	64.802432 
4539.000000	64.842629 
4538.000000	64.892315 
4537.000000	64.943099 
4536.000000	64.986467 
4535.000000	65.015101 
4534.000000	65.024471 
4533.000000	65.013599 
4532.000000	64.984822 
4531.000000	64.943313 
4530.000000	64.895629 
4529.000000	64.848637 
4528.000000	64.808130 
4527.000000	64.777779 
4526.000000	64.758682 
4525.000000	64.749622 
4524.000000	64.747786 
4523.000000	64.749073 
4522.000000	64.749073 
4521.000000	64.743804 
4520.000000	64.730525 
4519.000000	64.707899 
4518.000000	64.676451 
4517.000000	64.638137 
4516.000000	64.596104 
4515.000000	64.554262 
4514.000000	64.516568 
4513.000000	64.485955 
4512.000000	64.464402 
4511.000000	64.452362 
4510.000000	64.449357 
4509.000000	64.453935 
4508.000000	64.464497 
4507.000000	64.479494 
4506.000000	64.497566 
4505.000000	64.517307 
4504.000000	64.536762 
4503.000000	64.553356 
4502.000000	64.563608 
4501.000000	64.563751 
4500.000000	64.550232 
4499.000000	64.520621 
4498.000000	64.474391 
4497.000000	64.413452 
4496.000000	64.342594 
4495.000000	64.269161 
4494.000000	64.201855 
4493.000000	64.149641 
4492.000000	64.119887 
4491.000000	64.117074 
4490.000000	64.141559 
4489.000000	64.189815 
4488.000000	64.254450 
4487.000000	64.326429 
4486.000000	64.395952 
4485.000000	64.455366 
4484.000000	64.500141 
4483.000000	64.529490 
4482.000000	64.545392 
4481.000000	64.551734 
4480.000000	64.553046 
4479.000000	64.552617 
4478.000000	64.552211 
4477.000000	64.550828 
4476.000000	64.546203 
4475.000000	64.534807 
4474.000000	64.513683 
4473.000000	64.481329 
4472.000000	64.438772 
4471.000000	64.389562 
4470.000000	64.339041 
4469.000000	64.293384 
4468.000000	64.257979 
4467.000000	64.235281 
4466.000000	64.224505 
4465.000000	64.221382 
4464.000000	64.220261 
4463.000000	64.215898 
4462.000000	64.206171 
4461.000000	64.192175 
4460.000000	64.179086 
4459.000000	64.175057 
4458.000000	64.188408 
4457.000000	64.224600 
4456.000000	64.283752 
4455.000000	64.360523 
4454.000000	64.443802 
4453.000000	64.518857 
4452.000000	64.570999 
4451.000000	64.589715 
4450.000000	64.571070 
4449.000000	64.518523 
4448.000000	64.442825 
4447.000000	64.359331 
4446.000000	64.284825 
4445.000000	64.233374 
4444.000000	64.214897 
4443.000000	64.233088 
4442.000000	64.285969 
4441.000000	64.366173 
4440.000000	64.460396 
4439.000000	64.551472 
4438.000000	64.622592 
4437.000000	64.659476 
4436.000000	64.651226 
4435.000000	64.592933 
4434.000000	64.486861 
4433.000000	64.341616 
4432.000000	64.171910 
4431.000000	63.994431 
4430.000000	63.824272 
4429.000000	63.672828 
4428.000000	63.548064 
4427.000000	63.452148 
4426.000000	63.384461 
4425.000000	63.339591 
4424.000000	63.306784 
4423.000000	63.275599 
4422.000000	63.243699 
4421.000000	63.205409 
4420.000000	63.144445 
4419.000000	63.057351 
4418.000000	62.958192 
4417.000000	62.863492 
4416.000000	62.790322 
4415.000000	62.754178 
4414.000000	62.766933 
4413.000000	62.853693 
4412.000000	63.041496 
4411.000000	63.356399 
4410.000000	63.802719 
4409.000000	64.346814 
4408.000000	64.920425 
4407.000000	65.408945 
4406.000000	65.698623 
4405.000000	65.732884 
4404.000000	65.508079 
4403.000000	65.098500 
4402.000000	64.607191 
4401.000000	64.100861 
4400.000000	63.644576 
4399.000000	63.216662 
4398.000000	62.861633 
4397.000000	62.693977 
4396.000000	62.942481 
4395.000000	63.929963 
4394.000000	65.945005 
4393.000000	69.146537 
4392.000000	73.444890 
4391.000000	78.465151 
4390.000000	83.617591 
4389.000000	88.207244 
4388.000000	91.606688 
4387.000000	93.388175 
4386.000000	93.398571 
4385.000000	91.771173 
4384.000000	88.870453 
4383.000000	85.188341 
4382.000000	81.237077 
4381.000000	77.437949 
4380.000000	74.092936 
4379.000000	71.334934 
4378.000000	69.194650 
4377.000000	67.603540 
4376.000000	66.484093 
4375.000000	65.751981 
4374.000000	65.332388 
4373.000000	65.170764 
4372.000000	65.172028 
4371.000000	65.263199 
4370.000000	65.356898 
4369.000000	65.401268 
4368.000000	65.368366 
4367.000000	65.266156 
4366.000000	65.124607 
4365.000000	64.977741 
4364.000000	64.842319 
4363.000000	64.728951 
4362.000000	64.638996 
4361.000000	64.570021 
4360.000000	64.518547 
4359.000000	64.488911 
4358.000000	64.491605 
4357.000000	64.523363 
4356.000000	64.572548 
4355.000000	64.629149 
4354.000000	64.684009 
4353.000000	64.734220 
4352.000000	64.780569 
4351.000000	64.815020 
4350.000000	64.830064 
4349.000000	64.831161 
4348.000000	64.825820 
4347.000000	64.813423 
4346.000000	64.793467 
4345.000000	64.772415 
4344.000000	64.754366 
4343.000000	64.738464 
4342.000000	64.721775 
4341.000000	64.701008 
4340.000000	64.672470 
4339.000000	64.633655 
4338.000000	64.584493 
4337.000000	64.527750 
4336.000000	64.468288 
4335.000000	64.412069 
4334.000000	64.364647 
4333.000000	64.330124 
4332.000000	64.310574 
4331.000000	64.305973 
4330.000000	64.314723 
4329.000000	64.333915 
4328.000000	64.359855 
4327.000000	64.388823 
4326.000000	64.416670 
4325.000000	64.440679 
4324.000000	64.458799 
4323.000000	64.471292 
4322.000000	64.479494 
4321.000000	64.486408 
4320.000000	64.495825 
4319.000000	64.511680 
4318.000000	64.536952 
4317.000000	64.573144 
4316.000000	64.620089 
4315.000000	64.675784 
4314.000000	64.737057 
4313.000000	64.800024 
4312.000000	64.861035 
4311.000000	64.916563 
4310.000000	64.963769 
4309.000000	64.999389 
4308.000000	65.019941 
4307.000000	65.021610 
4306.000000	65.001034 
4305.000000	64.956235 
4304.000000	64.887547 
4303.000000	64.799046 
4302.000000	64.698433 
4301.000000	64.596176 
4300.000000	64.503836 
4299.000000	64.431858 
4298.000000	64.387679 
4297.000000	64.374232 
4296.000000	64.389610 
4295.000000	64.427208 
4294.000000	64.477825 
4293.000000	64.531588 
4292.000000	64.580035 
4291.000000	64.616990 
4290.000000	64.639663 
4289.000000	64.647483 
4288.000000	64.642167 
4287.000000	64.625835 
4286.000000	64.601325 
4285.000000	64.571189 
4284.000000	64.538431 
4283.000000	64.506435 
4282.000000	64.478874 
4281.000000	64.459466 
4280.000000	64.451313 
4279.000000	64.456176 
4278.000000	64.473724 
4277.000000	64.501380 
4276.000000	64.534497 
4275.000000	64.567089 
4274.000000	64.592909 
4273.000000	64.606666 
4272.000000	64.605069 
4271.000000	64.587688 
4270.000000	64.556503 
4269.000000	64.515805 
4268.000000	64.471197 
4267.000000	64.428710 
4266.000000	64.393711 
4265.000000	64.370465 
4264.000000	64.361548 
4263.000000	64.367890 
4262.000000	64.389038 
4261.000000	64.423108 
4260.000000	64.467191 
4259.000000	64.518046 
4258.000000	64.572334 
4257.000000	64.627170 
4256.000000	64.679932 
4255.000000	64.728784 
4254.000000	64.772295 
4253.000000	64.809775 
4252.000000	64.841032 
4251.000000	64.866185 
4250.000000	64.885282 
4249.000000	64.898586 
4248.000000	64.906048 
4247.000000	64.907574 
4246.000000	64.902567 
4245.000000	64.890646 
4244.000000	64.871454 
4243.000000	64.845228 
4242.000000	64.812827 
4241.000000	64.776062 
4240.000000	64.737582 
4239.000000	64.700460 
4238.000000	64.668202 
4237.000000	64.644098 
4236.000000	64.630913 
4235.000000	64.630007 
4234.000000	64.641666 
4233.000000	64.664435 
4232.000000	64.695978 
4231.000000	64.733314 
4230.000000	64.773225 
4229.000000	64.812445 
4228.000000	64.848494 
4227.000000	64.879846 
4226.000000	64.905619 
4225.000000	64.925360 
4224.000000	64.938831 
4223.000000	64.945793 
4222.000000	64.946079 
4221.000000	64.939594 
4220.000000	64.926552 
4219.000000	64.907884 
4218.000000	64.885330 
4217.000000	64.861631 
4216.000000	64.840054 
4215.000000	64.824223 
4214.000000	64.817261 
4213.000000	64.821410 
4212.000000	64.837455 
4211.000000	64.864516 
4210.000000	64.900159 
4209.000000	64.940309 
4208.000000	64.979791 
4207.000000	65.012764 
4206.000000	65.034031 
4205.000000	65.039181 
4204.000000	65.025615 
4203.000000	64.993000 
4202.000000	64.943528 
4201.000000	64.882040 
4200.000000	64.815425 
4199.000000	64.751672 
4198.000000	64.698600 
4197.000000	64.663171 
4196.000000	64.649939 
4195.000000	64.660453 
4194.000000	64.692687 
4193.000000	64.741563 
4192.000000	64.799690 
4191.000000	64.858412 
4190.000000	64.909863 
4189.000000	64.947390 
4188.000000	64.967536 
4187.000000	64.969706 
4186.000000	64.956617 
4185.000000	64.932703 
4184.000000	64.904022 
4183.000000	64.876723 
4182.000000	64.856076 
4181.000000	64.846038 
4180.000000	64.848375 
4179.000000	64.863204 
4178.000000	64.888286 
4177.000000	64.919781 
4176.000000	64.952516 
4175.000000	64.980983 
4174.000000	65.000486 
4173.000000	65.007829 
4172.000000	65.002226 
4171.000000	64.985156 
4170.000000	64.960002 
4169.000000	64.931178 
4168.000000	64.903426 
4167.000000	64.880871 
4166.000000	64.866161 
4165.000000	64.860391 
4164.000000	64.863300 
4163.000000	64.873719 
4162.000000	64.890241 
4161.000000	64.911627 
4160.000000	64.936685 
4159.000000	64.964747 
4158.000000	64.995265 
4157.000000	65.027856 
4156.000000	65.061330 
4155.000000	65.094518 
4154.000000	65.126180 
4153.000000	65.155291 
4152.000000	65.181422 
4151.000000	65.204048 
4150.000000	65.222716 
4149.000000	65.236735 
4148.000000	65.245532 
4147.000000	65.248751 
4146.000000	65.246534 
4145.000000	65.239858 
4144.000000	65.230441 
4143.000000	65.220570 
4142.000000	65.212464 
4141.000000	65.207815 
4140.000000	65.207481 
4139.000000	65.211153 
4138.000000	65.217494 
4137.000000	65.224838 
4136.000000	65.231084 
4135.000000	65.234208 
4134.000000	65.232396 
4133.000000	65.224456 
4132.000000	65.209913 
4131.000000	65.188908 
4130.000000	65.162587 
4129.000000	65.132713 
4128.000000	65.102124 
4127.000000	65.074276 
4126.000000	65.052962 
4125.000000	65.041613 
4124.000000	65.042400 
4123.000000	65.055799 
4122.000000	65.079951 
4121.000000	65.110921 
4120.000000	65.143704 
4119.000000	65.173244 
4118.000000	65.195441 
4117.000000	65.208101 
4116.000000	65.211391 
4115.000000	65.207767 
4114.000000	65.200924 
4113.000000	65.195250 
4112.000000	65.194439 
4111.000000	65.201139 
4110.000000	65.216279 
4109.000000	65.239214 
4108.000000	65.268349 
4107.000000	65.301299 
4106.000000	65.335655 
4105.000000	65.369272 
4104.000000	65.400481 
4103.000000	65.428233 
4102.000000	65.451812 
4101.000000	65.471220 
4100.000000	65.487027 
4099.000000	65.500187 
4098.000000	65.512180 
4097.000000	65.524101 
4096.000000	65.536522 
4095.000000	65.548896 
4094.000000	65.559768 
4093.000000	65.567064 
4092.000000	65.568518 
4091.000000	65.562486 
4090.000000	65.548467 
4089.000000	65.527558 
4088.000000	65.502166 
4087.000000	65.475654 
4086.000000	65.451192 
4085.000000	65.431070 
4084.000000	65.415668 
4083.000000	65.403842 
4082.000000	65.392947 
4081.000000	65.379500 
4080.000000	65.360665 
4079.000000	65.334725 
4078.000000	65.302014 
4077.000000	65.264940 
4076.000000	65.227389 
4075.000000	65.193462 
4074.000000	65.167188 
4073.000000	65.151333 
4072.000000	65.147042 
4071.000000	65.153431 
4070.000000	65.168142 
4069.000000	65.187811 
4068.000000	65.208697 
4067.000000	65.227198 
4066.000000	65.240454 
4065.000000	65.246534 
4064.000000	65.244603 
4063.000000	65.234994 
4062.000000	65.219521 
4061.000000	65.201449 
4060.000000	65.184855 
4059.000000	65.174341 
4058.000000	65.174269 
4057.000000	65.187668 
4056.000000	65.215802 
4055.000000	65.257382 
4054.000000	65.308594 
4053.000000	65.363597 
4052.000000	65.415477 
4051.000000	65.457701 
4050.000000	65.484976 
4049.000000	65.494537 
4048.000000	65.486669 
4047.000000	65.464520 
4046.000000	65.433478 
4045.000000	65.400075 
4044.000000	65.370869 
4043.000000	65.350890 
4042.000000	65.343332 
4041.000000	65.348458 
4040.000000	65.364098 
4039.000000	65.385842 
4038.000000	65.408086 
4037.000000	65.424966 
4036.000000	65.431785 
4035.000000	65.425658 
4034.000000	65.406250 
4033.000000	65.375733 
4032.000000	65.338325 
4031.000000	65.299129 
4030.000000	65.263199 
4029.000000	65.234375 
4028.000000	65.214633 
4027.000000	65.204262 
4026.000000	65.201878 
4025.000000	65.205168 
4024.000000	65.211772 
4023.000000	65.220141 
4022.000000	65.229439 
4021.000000	65.239453 
4020.000000	65.249991 
4019.000000	65.260481 
4018.000000	65.269351 
4017.000000	65.273904 
4016.000000	65.271091 
4015.000000	65.258264 
4014.000000	65.234518 
4013.000000	65.201258 
4012.000000	65.162587 
4011.000000	65.124630 
4010.000000	65.094685 
4009.000000	65.079402 
4008.000000	65.083503 
4007.000000	65.108275 
4006.000000	65.151381 
4005.000000	65.206766 
4004.000000	65.265917 
4003.000000	65.319514 
4002.000000	65.359282 
4001.000000	65.379762 
4000.000000	65.378975 
3999.000000	65.358710 
3998.000000	65.324115 
3997.000000	65.282082 
3996.000000	65.239715 
3995.000000	65.202617 
3994.000000	65.174531 
3993.000000	65.156555 
3992.000000	65.147662 
3991.000000	65.145325 
3990.000000	65.146732 
3989.000000	65.149521 
3988.000000	65.152454 
3987.000000	65.155291 
3986.000000	65.158343 
3985.000000	65.162277 
3984.000000	65.167474 
3983.000000	65.173888 
3982.000000	65.180850 
3981.000000	65.187883 
3980.000000	65.194630 
3979.000000	65.201449 
3978.000000	65.209150 
3977.000000	65.218758 
3976.000000	65.230917 
3975.000000	65.245532 
3974.000000	65.261578 
3973.000000	65.277600 
3972.000000	65.291857 
3971.000000	65.303182 
3970.000000	65.311169 
3969.000000	65.316581 
3968.000000	65.320968 
3967.000000	65.326380 
3966.000000	65.334200 
3965.000000	65.344762 
3964.000000	65.356707 
3963.000000	65.367627 
3962.000000	65.374326 
3961.000000	65.373635 
3960.000000	65.363502 
3959.000000	65.343642 
3958.000000	65.315794 
3957.000000	65.283322 
3956.000000	65.250349 
3955.000000	65.220713 
3954.000000	65.197300 
3953.000000	65.181684 
3952.000000	65.173459 
3951.000000	65.170788 
3950.000000	65.171265 
3949.000000	65.172767 
3948.000000	65.173816 
3947.000000	65.174412 
3946.000000	65.175890 
3945.000000	65.180730 
3944.000000	65.191531 
3943.000000	65.210461 
3942.000000	65.238142 
3941.000000	65.273594 
3940.000000	65.314030 
3939.000000	65.355610 
3938.000000	65.394353 
3937.000000	65.426850 
3936.000000	65.451121 
3935.000000	65.466403 
3934.000000	65.473532 
3933.000000	65.473866 
3932.000000	65.468883 
3931.000000	65.459370 
3930.000000	65.445065 
3929.000000	65.424799 
3928.000000	65.397047 
3927.000000	65.360140 
3926.000000	65.313315 
3925.000000	65.257310 
3924.000000	65.194916 
3923.000000	65.130448 
3922.000000	65.069651 
3921.000000	65.018415 
3920.000000	64.982366 
3919.000000	64.965438 
3918.000000	64.969468 
3917.000000	64.993500 
3916.000000	65.033960 
3915.000000	65.085101 
3914.000000	65.140032 
3913.000000	65.191292 
3912.000000	65.232443 
3911.000000	65.258598 
3910.000000	65.267324 
3909.000000	65.258407 
3908.000000	65.234088 
3907.000000	65.198636 
3906.000000	65.157246 
3905.000000	65.115261 
3904.000000	65.077567 
3903.000000	65.048074 
3902.000000	65.029406 
3901.000000	65.022897 
3900.000000	65.028452 
3899.000000	65.044975 
3898.000000	65.070486 
3897.000000	65.102291 
3896.000000	65.136957 
3895.000000	65.170788 
3894.000000	65.199875 
3893.000000	65.221238 
3892.000000	65.232539 
3891.000000	65.233206 
3890.000000	65.224766 
3889.000000	65.210461 
3888.000000	65.194821 
3887.000000	65.182256 
3886.000000	65.176796 
3885.000000	65.180230 
3884.000000	65.191984 
3883.000000	65.208816 
3882.000000	65.225815 
3881.000000	65.237617 
3880.000000	65.240073 
3879.000000	65.231251 
3878.000000	65.212225 
3877.000000	65.186786 
3876.000000	65.160393 
3875.000000	65.138816 
3874.000000	65.126299 
3873.000000	65.124630 
3872.000000	65.132522 
3871.000000	65.146207 
3870.000000	65.160655 
3869.000000	65.171051 
3868.000000	65.174412 
3867.000000	65.170168 
3866.000000	65.160202 
3865.000000	65.148162 
3864.000000	65.138530 
3863.000000	65.134477 
3862.000000	65.137839 
3861.000000	65.148115 
3860.000000	65.163373 
3859.000000	65.180826 
3858.000000	65.198040 
3857.000000	65.213489 
3856.000000	65.227198 
3855.000000	65.240526 
3854.000000	65.255451 
3853.000000	65.273475 
3852.000000	65.294957 
3851.000000	65.318655 
3850.000000	65.341877 
3849.000000	65.361094 
3848.000000	65.372633 
3847.000000	65.373563 
3846.000000	65.362358 
3845.000000	65.339064 
3844.000000	65.305233 
3843.000000	65.263462 
3842.000000	65.217113 
3841.000000	65.170001 
3840.000000	65.125727 
3839.000000	65.087723 
3838.000000	65.058994 
3837.000000	65.041899 
3836.000000	65.037918 
3835.000000	65.047621 
3834.000000	65.070295 
3833.000000	65.104341 
3832.000000	65.146875 
3831.000000	65.194487 
3830.000000	65.243315 
3829.000000	65.289664 
3828.000000	65.330457 
3827.000000	65.363121 
3826.000000	65.385818 
3825.000000	65.397286 
3824.000000	65.396761 
3823.000000	65.383958 
3822.000000	65.359044 
3821.000000	65.322852 
3820.000000	65.277147 
3819.000000	65.224599 
3818.000000	65.168571 
3817.000000	65.113186 
3816.000000	65.062642 
3815.000000	65.020632 
3814.000000	64.990067 
3813.000000	64.972448 
3812.000000	64.968085 
3811.000000	64.975666 
3810.000000	64.993095 
3809.000000	65.017342 
3808.000000	65.045619 
3807.000000	65.075159 
3806.000000	65.103816 
3805.000000	65.129899 
3804.000000	65.152597 
3803.000000	65.171551 
3802.000000	65.187048 
3801.000000	65.199589 
3800.000000	65.209984 
3799.000000	65.219163 
3798.000000	65.227794 
3797.000000	65.236258 
3796.000000	65.244531 
3795.000000	65.252327 
3794.000000	65.259194 
3793.000000	65.264797 
3792.000000	65.269303 
3791.000000	65.273690 
3790.000000	65.279650 
3789.000000	65.289163 
3788.000000	65.303826 
3787.000000	65.324068 
3786.000000	65.349173 
3785.000000	65.376782 
3784.000000	65.403079 
3783.000000	65.423679 
3782.000000	65.434741 
3781.000000	65.433812 
3780.000000	65.420532 
3779.000000	65.396499 
3778.000000	65.365290 
3777.000000	65.331244 
3776.000000	65.299129 
3775.000000	65.272426 
3774.000000	65.252852 
3773.000000	65.240144 
3772.000000	65.232849 
3771.000000	65.228438 
3770.000000	65.224242 
3769.000000	65.217947 
3768.000000	65.208339 
3767.000000	65.195250 
3766.000000	65.179562 
3765.000000	65.163135 
3764.000000	65.148687 
3763.000000	65.139079 
3762.000000	65.137124 
3761.000000	65.145254 
3760.000000	65.164780 
3759.000000	65.195918 
3758.000000	65.236854 
3757.000000	65.284299 
3756.000000	65.333223 
3755.000000	65.377926 
3754.000000	65.412569 
3753.000000	65.432071 
3752.000000	65.433073 
3751.000000	65.414667 
3750.000000	65.378355 
3749.000000	65.327739 
3748.000000	65.267872 
3747.000000	65.204763 
3746.000000	65.144228 
3745.000000	65.091252 
3744.000000	65.049576 
3743.000000	65.021419 
3742.000000	65.007543 
3741.000000	65.007257 
3740.000000	65.018415 
3739.000000	65.037989 
3738.000000	65.062117 
3737.000000	65.087056 
3736.000000	65.108871 
3735.000000	65.124869 
3734.000000	65.133380 
3733.000000	65.134572 
3732.000000	65.130138 
3731.000000	65.123009 
3730.000000	65.116596 
3729.000000	65.114259 
3728.000000	65.118432 
3727.000000	65.130448 
3726.000000	65.150260 
3725.000000	65.176773 
3724.000000	65.208315 
3723.000000	65.242648 
3722.000000	65.277767 
3721.000000	65.311646 
3720.000000	65.342640 
3719.000000	65.368866 
3718.000000	65.388321 
3717.000000	65.398931 
3716.000000	65.399122 
3715.000000	65.387797 
3714.000000	65.364909 
3713.000000	65.331888 
3712.000000	65.291786 
3711.000000	65.248441 
3710.000000	65.206217 
3709.000000	65.169167 
3708.000000	65.140509 
3707.000000	65.122342 
3706.000000	65.115332 
3705.000000	65.118908 
3704.000000	65.131545 
3703.000000	65.151238 
3702.000000	65.175890 
3701.000000	65.203022 
3700.000000	65.230846 
3699.000000	65.258026 
3698.000000	65.284037 
3697.000000	65.308713 
3696.000000	65.332245 
3695.000000	65.354752 
3694.000000	65.376186 
3693.000000	65.396046 
3692.000000	65.413165 
3691.000000	65.426230 
3690.000000	65.433692 
3689.000000	65.434503 
3688.000000	65.428423 
3687.000000	65.416383 
3686.000000	65.400409 
3685.000000	65.383481 
3684.000000	65.369009 
3683.000000	65.359950 
3682.000000	65.358424 
3681.000000	65.364980 
3680.000000	65.378451 
3679.000000	65.395975 
3678.000000	65.413808 
3677.000000	65.428018 
3676.000000	65.434932 
3675.000000	65.432047 
3674.000000	65.418410 
3673.000000	65.394997 
3672.000000	65.364313 
3671.000000	65.330123 
3670.000000	65.296554 
3669.000000	65.267682 
3668.000000	65.247082 
3667.000000	65.237188 
3666.000000	65.238904 
3665.000000	65.251708 
3664.000000	65.273833 
3663.000000	65.302419 
3662.000000	65.333819 
3661.000000	65.364193 
3660.000000	65.390014 
3659.000000	65.408396 
3658.000000	65.417599 
3657.000000	65.417170 
3656.000000	65.408277 
3655.000000	65.393471 
3654.000000	65.376234 
3653.000000	65.360522 
3652.000000	65.349912 
3651.000000	65.347504 
3650.000000	65.354609 
3649.000000	65.370917 
3648.000000	65.394210 
3647.000000	65.420961 
3646.000000	65.446949 
3645.000000	65.468144 
3644.000000	65.481543 
3643.000000	65.485644 
3642.000000	65.480661 
3641.000000	65.468215 
3640.000000	65.451049 
3639.000000	65.432524 
3638.000000	65.415477 
3637.000000	65.401959 
3636.000000	65.392899 
3635.000000	65.388274 
3634.000000	65.387034 
3633.000000	65.387463 
3632.000000	65.387582 
3631.000000	65.385651 
3630.000000	65.380454 
3629.000000	65.371823 
3628.000000	65.360188 
3627.000000	65.346717 
3626.000000	65.333342 
3625.000000	65.322089 
3624.000000	65.314722 
3623.000000	65.312314 
3622.000000	65.315270 
3621.000000	65.322899 
3620.000000	65.333628 
3619.000000	65.345335 
3618.000000	65.355825 
3617.000000	65.363383 
3616.000000	65.367150 
3615.000000	65.367436 
3614.000000	65.365600 
3613.000000	65.363883 
3612.000000	65.364551 
3611.000000	65.369534 
3610.000000	65.379714 
3609.000000	65.394926 
3608.000000	65.413737 
3607.000000	65.433716 
3606.000000	65.452098 
3605.000000	65.466213 
3604.000000	65.474200 
3603.000000	65.475201 
3602.000000	65.469264 
3601.000000	65.457320 
3600.000000	65.440511 
3599.000000	65.419912 
3598.000000	65.396142 
3597.000000	65.369582 
3596.000000	65.340328 
3595.000000	65.308928 
3594.000000	65.276336 
3593.000000	65.244340 
3592.000000	65.215158 
3591.000000	65.191054 
3590.000000	65.174055 
3589.000000	65.164995 
3588.000000	65.163922 
3587.000000	65.169477 
3586.000000	65.179991 
3585.000000	65.193295 
3584.000000	65.207695 
3583.000000	65.222167 
3582.000000	65.236377 
3581.000000	65.250492 
3580.000000	65.264582 
3579.000000	65.278196 
3578.000000	65.290212 
3577.000000	65.298986 
3576.000000	65.302801 
3575.000000	65.300321 
3574.000000	65.291333 
3573.000000	65.276718 
3572.000000	65.258121 
3571.000000	65.237641 
3570.000000	65.217161 
3569.000000	65.198159 
3568.000000	65.181279 
3567.000000	65.166640 
3566.000000	65.154051 
3565.000000	65.143537 
3564.000000	65.135288 
3563.000000	65.129995 
3562.000000	65.128397 
3561.000000	65.131258 
3560.000000	65.138816 
3559.000000	65.150785 
3558.000000	65.166115 
3557.000000	65.183615 
3556.000000	65.201878 
3555.000000	65.219902 
3554.000000	65.236973 
3553.000000	65.252757 
3552.000000	65.267300 
3551.000000	65.280580 
3550.000000	65.292334 
3549.000000	65.302085 
3548.000000	65.309405 
3547.000000	65.314126 
3546.000000	65.316438 
3545.000000	65.316891 
3544.000000	65.316152 
3543.000000	65.315103 
3542.000000	65.313959 
3541.000000	65.312361 
3540.000000	65.309119 
3539.000000	65.302848 
3538.000000	65.292119 
3537.000000	65.276098 
3536.000000	65.254712 
3535.000000	65.229105 
3534.000000	65.201187 
3533.000000	65.173697 
3532.000000	65.149021 
3531.000000	65.128636 
3530.000000	65.112638 
3529.000000	65.099573 
3528.000000	65.087032 
3527.000000	65.072464 
3526.000000	65.053963 
3525.000000	65.031027 
3524.000000	65.005135 
3523.000000	64.979529 
3522.000000	64.957880 
3521.000000	64.943742 
3520.000000	64.939475 
3519.000000	64.945840 
3518.000000	64.962005 
3517.000000	64.985799 
3516.000000	65.014505 
3515.000000	65.045356 
3514.000000	65.076184 
3513.000000	65.104866 
3512.000000	65.129685 
3511.000000	65.148305 
3510.000000	65.158224 
3509.000000	65.156817 
3508.000000	65.141820 
3507.000000	65.112519 
3506.000000	65.070199 
3505.000000	65.018773 
3504.000000	64.964580 
3503.000000	64.915466 
3502.000000	64.879226 
3501.000000	64.862418 
3500.000000	64.868950 
3499.000000	64.899945 
3498.000000	64.953517 
3497.000000	65.025711 
3496.000000	65.111112 
3495.000000	65.203952 
3494.000000	65.298342 
3493.000000	65.388560 
3492.000000	65.469288 
3491.000000	65.535545 
3490.000000	65.582919 
3489.000000	65.608072 
3488.000000	65.609145 
3487.000000	65.586853 
3486.000000	65.544366 
3485.000000	65.487933 
3484.000000	65.425395 
3483.000000	65.365934 
3482.000000	65.317559 
3481.000000	65.286636 
3480.000000	65.276050 
3479.000000	65.284872 
3478.000000	65.308761 
3477.000000	65.341258 
3476.000000	65.374946 
3475.000000	65.403151 
3474.000000	65.421247 
3473.000000	65.427112 
3472.000000	65.421438 
3471.000000	65.406847 
3470.000000	65.387105 
3469.000000	65.365958 
3468.000000	65.346407 
3467.000000	65.330052 
3466.000000	65.317058 
3465.000000	65.306234 
3464.000000	65.295767 
3463.000000	65.283942 
3462.000000	65.269255 
3461.000000	65.251350 
3460.000000	65.230917 
3459.000000	65.210413 
3458.000000	65.192723 
3457.000000	65.181565 
3456.000000	65.180611 
3455.000000	65.193009 
3454.000000	65.220332 
3453.000000	65.261840 
3452.000000	65.314459 
3451.000000	65.372681 
3450.000000	65.429687 
3449.000000	65.478038 
3448.000000	65.511178 
3447.000000	65.524649 
3446.000000	65.517044 
3445.000000	65.490031 
3444.000000	65.447926 
3443.000000	65.396833 
3442.000000	65.343284 
3441.000000	65.293288 
3440.000000	65.251517 
3439.000000	65.220928 
3438.000000	65.202736 
3437.000000	65.196752 
3436.000000	65.201711 
3435.000000	65.215754 
3434.000000	65.236639 
3433.000000	65.261673 
3432.000000	65.288066 
3431.000000	65.312528 
3430.000000	65.331721 
3429.000000	65.342450 
3428.000000	65.342283 
3427.000000	65.329980 
3426.000000	65.305995 
3425.000000	65.272355 
3424.000000	65.232515 
3423.000000	65.190887 
3422.000000	65.152215 
3421.000000	65.120840 
3420.000000	65.099787 
3419.000000	65.090560 
3418.000000	65.092897 
3417.000000	65.105056 
3416.000000	65.124082 
3415.000000	65.146398 
3414.000000	65.168261 
3413.000000	65.186452 
3412.000000	65.198516 
3411.000000	65.203070 
3410.000000	65.199661 
3409.000000	65.188670 
3408.000000	65.171456 
3407.000000	65.150189 
3406.000000	65.127396 
3405.000000	65.105843 
3404.000000	65.088319 
3403.000000	65.077090 
3402.000000	65.073800 
3401.000000	65.078973 
3400.000000	65.091824 
3399.000000	65.110254 
3398.000000	65.131306 
3397.000000	65.151715 
3396.000000	65.168356 
3395.000000	65.179038 
3394.000000	65.182900 
3393.000000	65.180873 
3392.000000	65.175127 
3391.000000	65.168786 
3390.000000	65.164804 
3389.000000	65.165519 
3388.000000	65.172052 
3387.000000	65.184044 
3386.000000	65.199732 
3385.000000	65.216708 
3384.000000	65.232443 
3383.000000	65.245342 
3382.000000	65.254759 
3381.000000	65.261530 
3380.000000	65.266776 
3379.000000	65.272045 
3378.000000	65.277886 
3377.000000	65.283942 
3376.000000	65.288615 
3375.000000	65.289545 
3374.000000	65.284252 
3373.000000	65.271186 
3372.000000	65.250110 
3371.000000	65.222573 
3370.000000	65.191531 
3369.000000	65.160775 
3368.000000	65.134191 
3367.000000	65.114641 
3366.000000	65.103673 
3365.000000	65.100932 
3364.000000	65.104842 
3363.000000	65.113115 
3362.000000	65.123319 
3361.000000	65.133500 
3360.000000	65.142369 
3359.000000	65.149331 
3358.000000	65.154194 
3357.000000	65.156960 
3356.000000	65.157437 
3355.000000	65.155363 
3354.000000	65.150523 
3353.000000	65.142750 
3352.000000	65.132045 
3351.000000	65.118694 
3350.000000	65.103340 
3349.000000	65.087151 
3348.000000	65.071511 
3347.000000	65.057969 
3346.000000	65.048003 
3345.000000	65.042638 
3344.000000	65.042495 
3343.000000	65.047430 
3342.000000	65.056467 
3341.000000	65.068101 
3340.000000	65.080308 
3339.000000	65.090942 
3338.000000	65.098166 
3337.000000	65.100812 
3336.000000	65.098381 
3335.000000	65.091443 
3334.000000	65.081429 
3333.000000	65.070462 
3332.000000	65.061092 
3331.000000	65.055751 
3330.000000	65.056443 
3329.000000	65.064716 
3328.000000	65.081334 
3327.000000	65.106105 
3326.000000	65.138006 
3325.000000	65.175056 
3324.000000	65.214419 
3323.000000	65.252828 
3322.000000	65.286707 
3321.000000	65.312743 
3320.000000	65.328240 
3319.000000	65.331816 
3318.000000	65.323400 
3317.000000	65.304398 
3316.000000	65.277504 
3315.000000	65.246534 
3314.000000	65.215754 
3313.000000	65.189170 
3312.000000	65.170145 
3311.000000	65.160703 
3310.000000	65.161347 
3309.000000	65.170884 
3308.000000	65.186691 
3307.000000	65.205264 
3306.000000	65.222835 
3305.000000	65.236234 
3304.000000	65.243101 
3303.000000	65.242505 
3302.000000	65.234851 
3301.000000	65.221619 
3300.000000	65.204977 
3299.000000	65.187573 
3298.000000	65.171837 
3297.000000	65.160059 
3296.000000	65.153765 
3295.000000	65.153670 
3294.000000	65.159940 
3293.000000	65.171861 
3292.000000	65.187978 
3291.000000	65.206336 
3290.000000	65.224838 
3289.000000	65.241432 
3288.000000	65.254426 
3287.000000	65.262699 
3286.000000	65.265750 
3285.000000	65.263986 
3284.000000	65.258526 
3283.000000	65.250921 
3282.000000	65.243029 
3281.000000	65.236711 
3280.000000	65.233778 
3279.000000	65.235710 
3278.000000	65.243387 
3277.000000	65.257287 
3276.000000	65.277123 
3275.000000	65.301823 
3274.000000	65.329575 
3273.000000	65.357780 
3272.000000	65.383291 
3271.000000	65.402770 
3270.000000	65.413331 
3269.000000	65.412831 
3268.000000	65.400528 
3267.000000	65.377497 
3266.000000	65.346550 
3265.000000	65.311861 
3264.000000	65.278005 
3263.000000	65.249323 
3262.000000	65.228891 
3261.000000	65.217900 
3260.000000	65.215992 
3259.000000	65.221476 
3258.000000	65.231919 
3257.000000	65.244674 
3256.000000	65.257692 
3255.000000	65.269684 
3254.000000	65.280175 
3253.000000	65.289187 
3252.000000	65.297460 
3251.000000	65.305805 
3250.000000	65.315008 
3249.000000	65.325260 
3248.000000	65.336298 
3247.000000	65.347123 
3246.000000	65.356302 
3245.000000	65.362071 
3244.000000	65.362691 
3243.000000	65.356731 
3242.000000	65.343689 
3241.000000	65.324234 
3240.000000	65.300297 
3239.000000	65.274524 
3238.000000	65.250110 
3237.000000	65.229654 
3236.000000	65.214586 
3235.000000	65.204834 
3234.000000	65.198922 
3233.000000	65.194439 
3232.000000	65.188980 
3231.000000	65.180826 
3230.000000	65.169596 
3229.000000	65.156030 
3228.000000	65.141701 
3227.000000	65.128207 
3226.000000	65.116715 
3225.000000	65.107488 
3224.000000	65.100359 
3223.000000	65.094590 
3222.000000	65.090060 
3221.000000	65.087509 
3220.000000	65.088939 
3219.000000	65.097045 
3218.000000	65.114283 
3217.000000	65.141844 
3216.000000	65.178966 
3215.000000	65.222382 
3214.000000	65.267014 
3213.000000	65.307307 
3212.000000	65.338063 
3211.000000	65.356302 
3210.000000	65.361452 
3209.000000	65.355420 
3208.000000	65.341877 
3207.000000	65.325140 
3206.000000	65.309119 
3205.000000	65.296244 
3204.000000	65.287446 
3203.000000	65.282273 
3202.000000	65.279603 
3201.000000	65.278172 
3200.000000	65.277004 
3199.000000	65.275859 
3198.000000	65.274596 
3197.000000	65.273237 
3196.000000	65.271091 
3195.000000	65.267133 
3194.000000	65.260195 
3193.000000	65.249657 
3192.000000	65.235590 
3191.000000	65.219020 
3190.000000	65.201950 
3189.000000	65.186977 
3188.000000	65.176391 
3187.000000	65.172028 
3186.000000	65.174698 
3185.000000	65.184402 
3184.000000	65.200090 
3183.000000	65.220165 
3182.000000	65.242838 
3181.000000	65.266203 
3180.000000	65.288519 
3179.000000	65.308332 
3178.000000	65.324449 
3177.000000	65.336203 
3176.000000	65.343189 
3175.000000	65.345621 
3174.000000	65.344047 
3173.000000	65.339517 
3172.000000	65.333151 
3171.000000	65.325546 
3170.000000	65.316390 
3169.000000	65.304565 
3168.000000	65.288400 
3167.000000	65.266346 
3166.000000	65.237569 
3165.000000	65.202713 
3164.000000	65.163850 
3163.000000	65.124225 
3162.000000	65.087699 
3161.000000	65.057563 
3160.000000	65.036463 
3159.000000	65.025305 
3158.000000	65.023565 
3157.000000	65.029478 
3156.000000	65.040540 
3155.000000	65.054202 
3154.000000	65.068244 
3153.000000	65.081167 
3152.000000	65.092301 
3151.000000	65.101504 
3150.000000	65.108990 
3149.000000	65.115141 
3148.000000	65.120577 
3147.000000	65.126109 
3146.000000	65.132784 
3145.000000	65.141701 
3144.000000	65.153670 
3143.000000	65.169000 
3142.000000	65.187287 
3141.000000	65.207576 
3140.000000	65.228438 
3139.000000	65.248560 
3138.000000	65.267133 
3137.000000	65.283894 
3136.000000	65.299129 
3135.000000	65.313577 
3134.000000	65.328049 
3133.000000	65.342879 
3132.000000	65.357875 
3131.000000	65.372109 
3130.000000	65.384650 
3129.000000	65.394377 
3128.000000	65.400505 
3127.000000	65.402817 
3126.000000	65.401959 
3125.000000	65.399050 
3124.000000	65.395474 
3123.000000	65.392470 
3122.000000	65.390825 
3121.000000	65.390992 
3120.000000	65.393042 
3119.000000	65.396809 
3118.000000	65.401887 
3117.000000	65.407466 
3116.000000	65.412545 
3115.000000	65.415644 
3114.000000	65.414953 
3113.000000	65.408730 
3112.000000	65.395665 
3111.000000	65.375232 
3110.000000	65.348291 
3109.000000	65.317296 
3108.000000	65.286111 
3107.000000	65.259194 
3106.000000	65.240979 
3105.000000	65.234851 
3104.000000	65.242362 
3103.000000	65.262675 
3102.000000	65.292787 
3101.000000	65.328145 
3100.000000	65.363764 
3099.000000	65.394902 
3098.000000	65.418505 
3097.000000	65.433216 
3096.000000	65.440011 
3095.000000	65.441226 
3094.000000	65.440106 
3093.000000	65.439772 
3092.000000	65.442681 
3091.000000	65.449953 
3090.000000	65.461325 
3089.000000	65.475416 
3088.000000	65.490078 
3087.000000	65.503048 
3086.000000	65.512299 
3085.000000	65.516352 
3084.000000	65.514564 
3083.000000	65.507102 
3082.000000	65.494561 
3081.000000	65.478086 
3080.000000	65.458965 
3079.000000	65.438747 
3078.000000	65.418624 
3077.000000	65.399622 
3076.000000	65.382623 
3075.000000	65.368294 
3074.000000	65.356969 
3073.000000	65.348958 
3072.000000	65.344381 
3071.000000	65.343475 
3070.000000	65.346479 
3069.000000	65.353608 
3068.000000	65.364551 
3067.000000	65.378642 
3066.000000	65.394711 
3065.000000	65.411090 
3064.000000	65.425682 
3063.000000	65.436530 
3062.000000	65.442419 
3061.000000	65.443038 
3060.000000	65.439152 
3059.000000	65.432572 
3058.000000	65.425705 
3057.000000	65.420889 
3056.000000	65.420007 
3055.000000	65.423822 
3054.000000	65.431904 
3053.000000	65.442848 
3052.000000	65.454578 
3051.000000	65.465116 
3050.000000	65.472960 
3049.000000	65.477538 
3048.000000	65.478968 
3047.000000	65.477824 
3046.000000	65.474748 
3045.000000	65.470170 
3044.000000	65.464091 
3043.000000	65.455937 
3042.000000	65.444922 
3041.000000	65.430450 
3040.000000	65.412449 
3039.000000	65.391492 
3038.000000	65.368676 
3037.000000	65.345668 
3036.000000	65.324163 
3035.000000	65.305638 
3034.000000	65.291023 
3033.000000	65.280628 
3032.000000	65.274143 
3031.000000	65.271043 
3030.000000	65.270447 
3029.000000	65.271568 
3028.000000	65.273451 
3027.000000	65.275573 
3026.000000	65.277266 
3025.000000	65.278410 
3024.000000	65.279126 
3023.000000	65.280175 
3022.000000	65.282511 
3021.000000	65.287446 
3020.000000	65.295958 
3019.000000	65.308499 
3018.000000	65.324640 
3017.000000	65.342974 
3016.000000	65.361404 
3015.000000	65.377545 
3014.000000	65.389180 
3013.000000	65.394902 
3012.000000	65.394377 
3011.000000	65.388584 
3010.000000	65.379381 
3009.000000	65.368914 
3008.000000	65.359091 
3007.000000	65.351223 
3006.000000	65.345525 
3005.000000	65.341162 
3004.000000	65.336728 
3003.000000	65.330767 
3002.000000	65.322184 
3001.000000	65.310597 
3000.000000	65.296530 
2999.000000	65.281009 
2998.000000	65.265631 
2997.000000	65.251946 
2996.000000	65.241241 
2995.000000	65.234088 
2994.000000	65.230417 
2993.000000	65.229582 
2992.000000	65.230345 
2991.000000	65.231251 
2990.000000	65.231180 
2989.000000	65.229177 
2988.000000	65.224981 
2987.000000	65.218591 
2986.000000	65.210628 
2985.000000	65.202188 
2984.000000	65.194344 
2983.000000	65.188074 
2982.000000	65.184164 
2981.000000	65.183019 
2980.000000	65.184712 
2979.000000	65.188646 
2978.000000	65.194010 
2977.000000	65.199756 
2976.000000	65.204858 
2975.000000	65.208530 
2974.000000	65.210056 
2973.000000	65.209174 
2972.000000	65.205907 
2971.000000	65.200591 
2970.000000	65.193843 
2969.000000	65.186429 
2968.000000	65.179157 
2967.000000	65.172457 
2966.000000	65.166401 
2965.000000	65.160226 
2964.000000	65.153121 
2963.000000	65.144014 
2962.000000	65.131950 
2961.000000	65.116286 
2960.000000	65.097069 
2959.000000	65.074920 
2958.000000	65.051031 
2957.000000	65.026831 
2956.000000	65.003705 
2955.000000	64.982938 
2954.000000	64.965701 
2953.000000	64.952826 
2952.000000	64.944982 
2951.000000	64.942550 
2950.000000	64.945816 
2949.000000	64.954280 
2948.000000	64.967203 
2947.000000	64.982867 
2946.000000	64.999413 
2945.000000	65.014362 
2944.000000	65.025734 
2943.000000	65.032386 
2942.000000	65.034413 
2941.000000	65.033411 
2940.000000	65.032029 
2939.000000	65.033268 
2938.000000	65.039539 
2937.000000	65.052390 
2936.000000	65.071105 
2935.000000	65.093135 
2934.000000	65.114307 
2933.000000	65.129995 
2932.000000	65.135860 
2931.000000	65.128993 
2930.000000	65.108728 
2929.000000	65.076684 
2928.000000	65.036416 
2927.000000	64.992618 
2926.000000	64.950156 
2925.000000	64.912939 
2924.000000	64.883375 
2923.000000	64.862275 
2922.000000	64.848875 
2921.000000	64.841628 
2920.000000	64.838743 
2919.000000	64.838957 
2918.000000	64.841580 
2917.000000	64.847135 
2916.000000	64.856529 
2915.000000	64.871382 
2914.000000	64.892530 
2913.000000	64.920377 
2912.000000	64.954352 
2911.000000	64.992928 
2910.000000	65.033864 
2909.000000	65.074348 
2908.000000	65.111470 
2907.000000	65.142583 
2906.000000	65.165829 
2905.000000	65.179991 
2904.000000	65.184760 
2903.000000	65.180611 
2902.000000	65.168833 
2901.000000	65.151047 
2900.000000	65.129327 
2899.000000	65.105772 
2898.000000	65.082240 
2897.000000	65.060234 
2896.000000	65.040683 
2895.000000	65.024137 
2894.000000	65.010666 
2893.000000	65.000009 
2892.000000	64.991831 
2891.000000	64.985585 
2890.000000	64.980912 
2889.000000	64.977407 
2888.000000	64.975023 
2887.000000	64.973497 
2886.000000	64.973211 
2885.000000	64.974641 
2884.000000	64.978861 
2883.000000	64.986801 
2882.000000	64.999580 
2881.000000	65.018081 
2880.000000	65.042471 
2879.000000	65.071964 
2878.000000	65.104937 
2877.000000	65.139150 
2876.000000	65.172052 
2875.000000	65.201044 
2874.000000	65.224337 
2873.000000	65.241003 
2872.000000	65.251374 
2871.000000	65.256667 
2870.000000	65.258741 
2869.000000	65.259099 
2868.000000	65.259075 
2867.000000	65.258860 
2866.000000	65.257811 
2865.000000	65.254092 
2864.000000	65.246152 
2863.000000	65.232539 
2862.000000	65.212559 
2861.000000	65.186572 
2860.000000	65.156078 
2859.000000	65.123271 
2858.000000	65.090656 
2857.000000	65.060448 
2856.000000	65.034031 
2855.000000	65.012049 
2854.000000	64.994072 
2853.000000	64.979314 
2852.000000	64.966821 
2851.000000	64.956355 
2850.000000	64.948415 
2849.000000	64.944314 
2848.000000	64.945697 
2847.000000	64.954042 
2846.000000	64.970278 
2845.000000	64.993906 
2844.000000	65.023255 
2843.000000	65.055751 
2842.000000	65.088486 
2841.000000	65.118956 
2840.000000	65.145444 
2839.000000	65.167522 
2838.000000	65.185737 
2837.000000	65.201497 
2836.000000	65.216112 
2835.000000	65.230584 
2834.000000	65.244889 
2833.000000	65.258383 
2832.000000	65.269708 
2831.000000	65.277457 
2830.000000	65.280532 
2829.000000	65.278959 
2828.000000	65.273356 
2827.000000	65.265107 
2826.000000	65.255784 
2825.000000	65.246939 
2824.000000	65.239644 
2823.000000	65.234351 
2822.000000	65.231180 
2821.000000	65.229892 
2820.000000	65.230321 
2819.000000	65.232491 
2818.000000	65.236496 
2817.000000	65.242576 
2816.000000	65.250849 
2815.000000	65.261077 
2814.000000	65.272569 
2813.000000	65.284109 
2812.000000	65.294218 
2811.000000	65.301465 
2810.000000	65.304660 
2809.000000	65.303277 
2808.000000	65.297651 
2807.000000	65.289020 
2806.000000	65.278959 
2805.000000	65.269446 
2804.000000	65.262389 
2803.000000	65.259099 
2802.000000	65.260124 
2801.000000	65.264964 
2800.000000	65.272402 
2799.000000	65.280485 
2798.000000	65.287113 
2797.000000	65.290284 
2796.000000	65.288805 
2795.000000	65.282440 
2794.000000	65.271806 
2793.000000	65.258407 
2792.000000	65.244221 
2791.000000	65.231180 
2790.000000	65.220880 
2789.000000	65.214204 
2788.000000	65.211510 
2787.000000	65.212368 
2786.000000	65.216064 
2785.000000	65.221619 
2784.000000	65.228247 
2783.000000	65.235352 
2782.000000	65.242576 
2781.000000	65.249490 
2780.000000	65.255641 
2779.000000	65.260624 
2778.000000	65.263986 
2777.000000	65.265345 
2776.000000	65.264701 
2775.000000	65.262532 
2774.000000	65.259528 
2773.000000	65.256524 
2772.000000	65.254211 
2771.000000	65.253114 
2770.000000	65.253281 
2769.000000	65.254354 
2768.000000	65.255641 
2767.000000	65.256404 
2766.000000	65.255737 
2765.000000	65.252900 
2764.000000	65.247344 
2763.000000	65.238857 
2762.000000	65.227532 
2761.000000	65.213823 
2760.000000	65.198540 
2759.000000	65.182924 
2758.000000	65.168428 
2757.000000	65.156769 
2756.000000	65.149521 
2755.000000	65.148115 
2754.000000	65.153431 
2753.000000	65.165686 
2752.000000	65.184187 
2751.000000	65.207529 
2750.000000	65.233540 
2749.000000	65.259838 
2748.000000	65.283989 
2747.000000	65.303993 
2746.000000	65.318560 
2745.000000	65.327382 
2744.000000	65.330886 
2743.000000	65.330457 
2742.000000	65.327954 
2741.000000	65.325498 
2740.000000	65.324974 
2739.000000	65.327906 
2738.000000	65.335035 
2737.000000	65.346336 
2736.000000	65.361142 
2735.000000	65.378165 
2734.000000	65.395784 
2733.000000	65.412425 
2732.000000	65.426707 
2731.000000	65.437698 
2730.000000	65.444946 
2729.000000	65.448355 
2728.000000	65.448498 
2727.000000	65.446162 
2726.000000	65.442323 
2725.000000	65.437984 
2724.000000	65.433621 
2723.000000	65.429544 
2722.000000	65.425419 
2721.000000	65.420484 
2720.000000	65.413737 
2719.000000	65.404319 
2718.000000	65.391516 
2717.000000	65.375065 
2716.000000	65.355324 
2715.000000	65.333437 
2714.000000	65.310835 
2713.000000	65.289139 
2712.000000	65.269827 
2711.000000	65.254163 
2710.000000	65.242838 
2709.000000	65.236067 
2708.000000	65.233731 
2707.000000	65.235376 
2706.000000	65.240359 
2705.000000	65.247917 
2704.000000	65.257120 
2703.000000	65.267014 
2702.000000	65.276360 
2701.000000	65.284180 
2700.000000	65.289568 
2699.000000	65.292143 
2698.000000	65.292072 
2697.000000	65.289902 
2696.000000	65.286731 
2695.000000	65.283536 
2694.000000	65.281319 
2693.000000	65.280365 
2692.000000	65.280318 
2691.000000	65.280175 
2690.000000	65.278840 
2689.000000	65.275406 
2688.000000	65.269541 
2687.000000	65.261745 
2686.000000	65.253329 
2685.000000	65.246081 
2684.000000	65.241599 
2683.000000	65.240979 
2682.000000	65.244460 
2681.000000	65.251255 
2680.000000	65.259718 
2679.000000	65.267944 
2678.000000	65.274333 
2677.000000	65.277791 
2676.000000	65.278148 
2675.000000	65.275979 
2674.000000	65.272235 
2673.000000	65.267992 
2672.000000	65.264081 
2671.000000	65.260720 
2670.000000	65.257787 
2669.000000	65.255045 
2668.000000	65.252280 
2667.000000	65.249705 
2666.000000	65.247583 
2665.000000	65.246295 
2664.000000	65.245985 
2663.000000	65.246510 
2662.000000	65.247488 
2661.000000	65.248298 
2660.000000	65.248656 
2659.000000	65.248703 
2658.000000	65.249085 
2657.000000	65.250992 
2656.000000	65.255641 
2655.000000	65.263843 
2654.000000	65.275692 
2653.000000	65.290164 
2652.000000	65.305185 
2651.000000	65.318131 
2650.000000	65.326476 
2649.000000	65.328288 
2648.000000	65.322971 
2647.000000	65.310978 
2646.000000	65.294170 
2645.000000	65.275025 
2644.000000	65.255856 
2643.000000	65.238761 
2642.000000	65.225028 
2641.000000	65.215492 
2640.000000	65.210366 
2639.000000	65.209722 
2638.000000	65.213680 
2637.000000	65.222573 
2636.000000	65.236878 
2635.000000	65.256834 
2634.000000	65.282297 
2633.000000	65.312361 
2632.000000	65.345215 
2631.000000	65.378165 
2630.000000	65.408039 
2629.000000	65.431785 
2628.000000	65.446853 
2627.000000	65.451836 
2626.000000	65.446448 
2625.000000	65.431928 
2624.000000	65.410423 
2623.000000	65.384793 
2622.000000	65.357446 
2621.000000	65.330696 
2620.000000	65.305805 
2619.000000	65.283155 
2618.000000	65.262484 
2617.000000	65.243268 
2616.000000	65.225243 
2615.000000	65.208601 
2614.000000	65.194320 
2613.000000	65.183782 
2612.000000	65.178394 
2611.000000	65.179085 
2610.000000	65.185737 
2609.000000	65.197086 
2608.000000	65.210890 
2607.000000	65.224385 
2606.000000	65.235018 
2605.000000	65.240883 
2604.000000	65.241408 
2603.000000	65.237379 
2602.000000	65.230655 
2601.000000	65.223813 
2600.000000	65.219330 
2599.000000	65.219163 
2598.000000	65.224242 
2597.000000	65.234208 
2596.000000	65.247988 
2595.000000	65.263867 
2594.000000	65.280055 
2593.000000	65.295100 
2592.000000	65.307831 
2591.000000	65.317535 
2590.000000	65.323948 
2589.000000	65.327000 
2588.000000	65.326809 
2587.000000	65.323472 
2586.000000	65.317463 
2585.000000	65.309309 
2584.000000	65.299868 
2583.000000	65.289998 
2582.000000	65.281033 
2581.000000	65.274095 
2580.000000	65.270328 
2579.000000	65.270495 
2578.000000	65.274834 
2577.000000	65.283203 
2576.000000	65.294790 
2575.000000	65.308237 
2574.000000	65.321850 
2573.000000	65.333914 
2572.000000	65.342688 
2571.000000	65.346813 
2570.000000	65.345335 
2569.000000	65.338015 
2568.000000	65.325307 
2567.000000	65.308475 
2566.000000	65.289020 
2565.000000	65.268874 
2564.000000	65.249967 
2563.000000	65.233898 
2562.000000	65.221881 
2561.000000	65.214681 
2560.000000	65.212488 
2559.000000	65.214967 
2558.000000	65.221548 
2557.000000	65.231513 
2556.000000	65.244174 
2555.000000	65.258765 
2554.000000	65.274715 
2553.000000	65.291571 
2552.000000	65.309000 
2551.000000	65.326452 
2550.000000	65.343403 
2549.000000	65.359115 
2548.000000	65.372705 
2547.000000	65.383124 
2546.000000	65.389227 
2545.000000	65.390014 
2544.000000	65.384817 
2543.000000	65.373826 
2542.000000	65.358138 
2541.000000	65.339899 
2540.000000	65.322113 
2539.000000	65.307831 
2538.000000	65.299868 
2537.000000	65.299940 
2536.000000	65.308451 
2535.000000	65.324091 
2534.000000	65.344190 
2533.000000	65.365147 
2532.000000	65.383410 
2531.000000	65.395855 
2530.000000	65.400671 
2529.000000	65.397334 
2528.000000	65.386557 
2527.000000	65.369915 
2526.000000	65.349411 
2525.000000	65.327072 
2524.000000	65.304660 
2523.000000	65.284061 
2522.000000	65.267181 
2521.000000	65.255975 
2520.000000	65.252137 
2519.000000	65.256786 
2518.000000	65.270042 
2517.000000	65.290594 
2516.000000	65.315794 
2515.000000	65.342044 
2514.000000	65.365815 
2513.000000	65.384030 
2512.000000	65.395140 
2511.000000	65.399265 
2510.000000	65.398192 
2509.000000	65.394854 
2508.000000	65.392398 
2507.000000	65.393066 
2506.000000	65.397739 
2505.000000	65.405893 
2504.000000	65.415501 
2503.000000	65.424036 
2502.000000	65.428924 
2501.000000	65.428614 
2500.000000	65.422558 
2499.000000	65.411376 
2498.000000	65.396332 
2497.000000	65.378999 
2496.000000	65.360784 
2495.000000	65.342617 
2494.000000	65.325093 
2493.000000	65.308570 
2492.000000	65.293383 
2491.000000	65.279912 
2490.000000	65.268731 
2489.000000	65.260601 
2488.000000	65.256023 
2487.000000	65.255284 
2486.000000	65.257811 
2485.000000	65.262913 
2484.000000	65.269613 
2483.000000	65.277099 
2482.000000	65.284633 
2481.000000	65.291905 
2480.000000	65.299081 
2479.000000	65.306544 
2478.000000	65.314531 
2477.000000	65.323281 
2476.000000	65.332770 
2475.000000	65.342831 
2474.000000	65.353274 
2473.000000	65.363860 
2472.000000	65.374302 
2471.000000	65.384459 
2470.000000	65.394210 
2469.000000	65.403294 
2468.000000	65.411353 
2467.000000	65.418004 
2466.000000	65.422844 
2465.000000	65.425539 
2464.000000	65.425920 
2463.000000	65.424156 
2462.000000	65.420603 
2461.000000	65.415692 
2460.000000	65.409898 
2459.000000	65.403509 
2458.000000	65.396475 
2457.000000	65.388655 
2456.000000	65.379881 
2455.000000	65.370035 
2454.000000	65.359354 
2453.000000	65.348434 
2452.000000	65.338253 
2451.000000	65.329766 
2450.000000	65.324044 
2449.000000	65.321922 
2448.000000	65.323829 
2447.000000	65.329766 
2446.000000	65.339565 
2445.000000	65.352797 
2444.000000	65.369129 
2443.000000	65.388131 
2442.000000	65.409517 
2441.000000	65.432929 
2440.000000	65.457606 
2439.000000	65.482306 
2438.000000	65.505480 
2437.000000	65.525197 
2436.000000	65.539622 
2435.000000	65.547084 
2434.000000	65.546679 
2433.000000	65.538120 
2432.000000	65.522217 
2431.000000	65.500307 
2430.000000	65.474390 
2429.000000	65.446543 
2428.000000	65.418958 
2427.000000	65.393495 
2426.000000	65.371513 
2425.000000	65.353965 
2424.000000	65.341544 
2423.000000	65.334582 
2422.000000	65.333390 
2421.000000	65.337944 
2420.000000	65.347838 
2419.000000	65.362095 
2418.000000	65.378975 
2417.000000	65.396094 
2416.000000	65.410685 
2415.000000	65.420079 
2414.000000	65.422272 
2413.000000	65.416336 
2412.000000	65.402531 
2411.000000	65.382289 
2410.000000	65.357780 
2409.000000	65.331506 
2408.000000	65.305781 
2407.000000	65.282416 
2406.000000	65.262651 
2405.000000	65.247154 
2404.000000	65.236163 
2403.000000	65.229725 
2402.000000	65.227890 
2401.000000	65.230512 
2400.000000	65.237259 
2399.000000	65.247273 
2398.000000	65.259242 
2397.000000	65.271353 
2396.000000	65.281701 
2395.000000	65.288424 
2394.000000	65.290427 
2393.000000	65.287566 
2392.000000	65.280699 
2391.000000	65.271329 
2390.000000	65.261459 
2389.000000	65.253043 
2388.000000	65.247678 
2387.000000	65.246319 
2386.000000	65.249061 
2385.000000	65.255284 
2384.000000	65.263962 
2383.000000	65.274000 
2382.000000	65.284180 
2381.000000	65.293574 
2380.000000	65.301513 
2379.000000	65.307831 
2378.000000	65.312552 
2377.000000	65.315937 
2376.000000	65.318250 
2375.000000	65.319871 
2374.000000	65.321183 
2373.000000	65.322637 
2372.000000	65.324330 
2371.000000	65.326356 
2370.000000	65.328931 
2369.000000	65.332317 
2368.000000	65.336799 
2367.000000	65.342712 
2366.000000	65.350532 
2365.000000	65.360331 
2364.000000	65.371847 
2363.000000	65.384173 
2362.000000	65.395903 
2361.000000	65.405368 
2360.000000	65.410828 
2359.000000	65.410900 
2358.000000	65.404796 
2357.000000	65.392732 
2356.000000	65.375852 
2355.000000	65.356135 
2354.000000	65.335941 
2353.000000	65.317606 
2352.000000	65.303349 
2351.000000	65.294623 
2350.000000	65.292167 
2349.000000	65.296173 
2348.000000	65.306401 
2347.000000	65.322041 
2346.000000	65.342235 
2345.000000	65.365910 
2344.000000	65.391778 
2343.000000	65.418171 
2342.000000	65.443396 
2341.000000	65.465664 
2340.000000	65.483403 
2339.000000	65.495276 
2338.000000	65.500402 
2337.000000	65.498685 
2336.000000	65.490508 
2335.000000	65.476942 
2334.000000	65.459418 
2333.000000	65.439462 
2332.000000	65.418744 
2331.000000	65.398812 
2330.000000	65.381145 
2329.000000	65.366721 
2328.000000	65.356469 
2327.000000	65.350770 
2326.000000	65.349435 
2325.000000	65.351867 
2324.000000	65.356826 
2323.000000	65.362739 
2322.000000	65.367984 
2321.000000	65.371251 
2320.000000	65.371537 
2319.000000	65.368294 
2318.000000	65.361523 
2317.000000	65.351486 
2316.000000	65.338540 
2315.000000	65.322923 
2314.000000	65.304851 
2313.000000	65.284633 
2312.000000	65.262699 
2311.000000	65.240097 
2310.000000	65.218591 
2309.000000	65.200614 
2308.000000	65.188956 
2307.000000	65.186238 
2306.000000	65.194511 
2305.000000	65.214467 
2304.000000	65.245175 
2303.000000	65.284204 
2302.000000	65.327835 
2301.000000	65.371870 
2300.000000	65.411853 
2299.000000	65.444183 
2298.000000	65.466213 
2297.000000	65.476870 
2296.000000	65.476226 
2295.000000	65.465354 
2294.000000	65.446114 
2293.000000	65.420722 
2292.000000	65.391469 
2291.000000	65.360665 
2290.000000	65.330314 
2289.000000	65.302586 
2288.000000	65.279459 
2287.000000	65.262842 
2286.000000	65.254378 
2285.000000	65.255165 
2284.000000	65.265583 
2283.000000	65.285110 
2282.000000	65.312099 
2281.000000	65.344119 
2280.000000	65.377879 
2279.000000	65.409755 
2278.000000	65.436387 
2277.000000	65.454936 
2276.000000	65.463685 
2275.000000	65.462040 
2274.000000	65.450811 
2273.000000	65.431690 
2272.000000	65.407228 
2271.000000	65.380215 
2270.000000	65.353322 
2269.000000	65.328764 
2268.000000	65.308260 
2267.000000	65.292882 
2266.000000	65.283131 
2265.000000	65.279006 
2264.000000	65.280175 
2263.000000	65.285921 
2262.000000	65.295267 
2261.000000	65.307044 
2260.000000	65.319800 
2259.000000	65.332055 
2258.000000	65.342450 
2257.000000	65.349912 
2256.000000	65.353989 
2255.000000	65.354752 
2254.000000	65.352940 
2253.000000	65.349745 
2252.000000	65.346455 
2251.000000	65.344214 
2250.000000	65.343737 
2249.000000	65.345311 
2248.000000	65.348792 
2247.000000	65.353679 
2246.000000	65.359568 
2245.000000	65.366363 
2244.000000	65.374231 
2243.000000	65.383601 
2242.000000	65.394949 
2241.000000	65.408325 
2240.000000	65.423226 
2239.000000	65.438556 
2238.000000	65.452623 
2237.000000	65.463328 
2236.000000	65.468764 
2235.000000	65.467667 
2234.000000	65.459585 
2233.000000	65.445017 
2232.000000	65.425229 
2231.000000	65.402078 
2230.000000	65.377664 
2229.000000	65.353989 
2228.000000	65.332818 
2227.000000	65.315485 
2226.000000	65.303063 
2225.000000	65.296363 
2224.000000	65.295934 
2223.000000	65.301799 
2222.000000	65.313386 
2221.000000	65.329194 
2220.000000	65.347051 
2219.000000	65.364122 
2218.000000	65.377330 
2217.000000	65.384149 
2216.000000	65.382862 
2215.000000	65.373325 
2214.000000	65.356659 
2213.000000	65.335321 
2212.000000	65.312457 
2211.000000	65.291237 
2210.000000	65.274333 
2209.000000	65.263199 
2208.000000	65.258169 
2207.000000	65.258121 
2206.000000	65.261244 
2205.000000	65.265202 
2204.000000	65.268015 
2203.000000	65.268111 
2202.000000	65.264797 
2201.000000	65.258312 
2200.000000	65.249705 
2199.000000	65.240573 
2198.000000	65.232753 
2197.000000	65.228152 
2196.000000	65.228414 
2195.000000	65.234708 
2194.000000	65.247368 
2193.000000	65.266060 
2192.000000	65.289783 
2191.000000	65.316987 
2190.000000	65.345740 
2189.000000	65.373945 
2188.000000	65.399503 
2187.000000	65.420579 
2186.000000	65.435624 
2185.000000	65.443587 
2184.000000	65.443849 
2183.000000	65.436840 
2182.000000	65.423679 
2181.000000	65.406179 
2180.000000	65.386795 
2179.000000	65.368437 
2178.000000	65.353941 
2177.000000	65.345573 
2176.000000	65.344738 
2175.000000	65.351748 
2174.000000	65.365672 
2173.000000	65.384626 
2172.000000	65.406179 
2171.000000	65.427947 
2170.000000	65.447831 
2169.000000	65.464591 
2168.000000	65.477681 
2167.000000	65.487217 
2166.000000	65.493726 
2165.000000	65.497851 
2164.000000	65.500211 
2163.000000	65.501117 
2162.000000	65.500783 
2161.000000	65.498948 
2160.000000	65.495419 
2159.000000	65.489554 
2158.000000	65.480756 
2157.000000	65.468239 
2156.000000	65.451455 
2155.000000	65.429878 
2154.000000	65.403413 
2153.000000	65.372657 
2152.000000	65.338802 
2151.000000	65.304040 
2150.000000	65.271091 
2149.000000	65.242838 
2148.000000	65.222024 
2147.000000	65.210604 
2146.000000	65.209531 
2145.000000	65.218448 
2144.000000	65.235757 
2143.000000	65.259051 
2142.000000	65.285253 
2141.000000	65.311360 
2140.000000	65.334820 
2139.000000	65.353751 
2138.000000	65.367054 
2137.000000	65.374541 
2136.000000	65.376830 
2135.000000	65.374994 
2134.000000	65.370249 
2133.000000	65.363836 
2132.000000	65.356588 
2131.000000	65.349197 
2130.000000	65.341806 
2129.000000	65.334272 
2128.000000	65.326261 
2127.000000	65.317583 
2126.000000	65.308117 
2125.000000	65.297913 
2124.000000	65.287542 
2123.000000	65.277791 
2122.000000	65.269804 
2121.000000	65.264606 
2120.000000	65.263223 
2119.000000	65.266323 
2118.000000	65.274167 
2117.000000	65.286302 
2116.000000	65.301918 
2115.000000	65.319705 
2114.000000	65.338206 
2113.000000	65.355873 
2112.000000	65.371227 
2111.000000	65.382981 
2110.000000	65.390253 
2109.000000	65.392446 
2108.000000	65.389490 
2107.000000	65.381503 
2106.000000	65.369033 
2105.000000	65.352773 
2104.000000	65.333914 
2103.000000	65.313887 
2102.000000	65.294361 
2101.000000	65.277266 
2100.000000	65.264320 
2099.000000	65.256857 
2098.000000	65.255475 
2097.000000	65.259838 
2096.000000	65.268826 
2095.000000	65.280675 
2094.000000	65.293478 
2093.000000	65.305399 
2092.000000	65.315103 
2091.000000	65.321826 
2090.000000	65.325427 
2089.000000	65.326237 
2088.000000	65.324926 
2087.000000	65.322160 
2086.000000	65.318679 
2085.000000	65.315103 
2084.000000	65.311980 
2083.000000	65.310049 
2082.000000	65.310001 
2081.000000	65.312504 
2080.000000	65.317988 
2079.000000	65.326523 
2078.000000	65.337681 
2077.000000	65.350389 
2076.000000	65.363240 
2075.000000	65.374851 
2074.000000	65.383958 
2073.000000	65.389800 
2072.000000	65.391802 
2071.000000	65.389990 
2070.000000	65.384483 
2069.000000	65.375733 
2068.000000	65.364599 
2067.000000	65.352296 
2066.000000	65.340518 
2065.000000	65.331196 
2064.000000	65.326285 
2063.000000	65.327310 
2062.000000	65.334844 
2061.000000	65.348434 
2060.000000	65.366387 
2059.000000	65.386104 
2058.000000	65.404558 
2057.000000	65.418887 
2056.000000	65.427088 
2055.000000	65.428400 
2054.000000	65.423464 
2053.000000	65.413784 
2052.000000	65.401434 
2051.000000	65.388202 
2050.000000	65.375447 
2049.000000	65.363669 
2048.000000	65.353035 
2047.000000	65.343284 
2046.000000	65.334272 
2045.000000	65.326023 
2044.000000	65.318870 
2043.000000	65.313291 
2042.000000	65.309453 
2041.000000	65.307331 
2040.000000	65.306639 
2039.000000	65.306901 
2038.000000	65.307617 
2037.000000	65.308523 
2036.000000	65.309762 
2035.000000	65.311765 
2034.000000	65.315127 
2033.000000	65.320277 
2032.000000	65.327262 
2031.000000	65.335631 
2030.000000	65.344429 
2029.000000	65.352606 
2028.000000	65.359139 
2027.000000	65.363669 
2026.000000	65.366053 
2025.000000	65.366768 
2024.000000	65.366387 
2023.000000	65.365242 
2022.000000	65.363478 
2021.000000	65.360665 
2020.000000	65.356230 
2019.000000	65.349721 
2018.000000	65.341067 
2017.000000	65.330886 
2016.000000	65.320301 
2015.000000	65.311026 
2014.000000	65.304827 
2013.000000	65.302944 
2012.000000	65.305900 
2011.000000	65.313100 
2010.000000	65.322995 
2009.000000	65.333414 
2008.000000	65.342140 
2007.000000	65.347433 
2006.000000	65.348172 
2005.000000	65.344309 
2004.000000	65.336632 
2003.000000	65.326404 
2002.000000	65.315079 
2001.000000	65.303897 
2000.000000	65.293622 
1999.000000	65.284585 
1998.000000	65.276885 
1997.000000	65.270590 
1996.000000	65.265774 
1995.000000	65.262746 
1994.000000	65.261793 
1993.000000	65.263247 
1992.000000	65.267014 
1991.000000	65.272974 
1990.000000	65.280437 
1989.000000	65.288734 
1988.000000	65.297198 
1987.000000	65.305233 
1986.000000	65.312457 
1985.000000	65.318703 
1984.000000	65.324020 
1983.000000	65.328693 
1982.000000	65.333008 
1981.000000	65.337347 
1980.000000	65.341925 
1979.000000	65.346670 
1978.000000	65.351152 
1977.000000	65.354847 
1976.000000	65.356874 
1975.000000	65.356421 
1974.000000	65.352630 
1973.000000	65.345001 
1972.000000	65.333652 
1971.000000	65.319156 
1970.000000	65.302753 
1969.000000	65.286016 
1968.000000	65.271043 
1967.000000	65.259814 
1966.000000	65.253973 
1965.000000	65.254354 
1964.000000	65.260863 
1963.000000	65.272521 
1962.000000	65.287446 
1961.000000	65.303254 
1960.000000	65.317392 
1959.000000	65.327763 
1958.000000	65.333008 
1957.000000	65.332794 
1956.000000	65.327954 
1955.000000	65.320324 
1954.000000	65.312290 
1953.000000	65.306258 
1952.000000	65.304374 
1951.000000	65.308070 
1950.000000	65.317821 
1949.000000	65.333151 
1948.000000	65.352797 
1947.000000	65.374779 
1946.000000	65.397214 
1945.000000	65.417981 
1944.000000	65.435385 
1943.000000	65.448045 
1942.000000	65.455031 
1941.000000	65.455794 
1940.000000	65.450215 
1939.000000	65.438675 
1938.000000	65.422177 
1937.000000	65.402102 
1936.000000	65.380167 
1935.000000	65.358400 
1934.000000	65.338754 
1933.000000	65.322685 
1932.000000	65.311098 
1931.000000	65.303850 
1930.000000	65.300250 
1929.000000	65.298843 
1928.000000	65.298271 
1927.000000	65.297269 
1926.000000	65.295410 
1925.000000	65.293264 
1924.000000	65.292286 
1923.000000	65.294384 
1922.000000	65.301299 
1921.000000	65.314006 
1920.000000	65.332078 
1919.000000	65.353775 
1918.000000	65.376257 
1917.000000	65.396022 
1916.000000	65.409994 
1915.000000	65.416002 
1914.000000	65.413403 
1913.000000	65.403270 
1912.000000	65.387845 
1911.000000	65.370082 
1910.000000	65.352964 
1909.000000	65.338683 
1908.000000	65.328383 
1907.000000	65.322208 
1906.000000	65.319347 
1905.000000	65.318632 
1904.000000	65.318894 
1903.000000	65.319490 
1902.000000	65.320181 
1901.000000	65.321111 
1900.000000	65.322422 
1899.000000	65.324306 
1898.000000	65.326642 
1897.000000	65.329122 
1896.000000	65.331220 
1895.000000	65.332484 
1894.000000	65.332508 
1893.000000	65.331292 
1892.000000	65.328979 
1891.000000	65.325951 
1890.000000	65.322828 
1889.000000	65.320134 
1888.000000	65.318417 
1887.000000	65.317916 
1886.000000	65.318632 
1885.000000	65.320301 
1884.000000	65.322399 
1883.000000	65.324449 
1882.000000	65.325880 
1881.000000	65.326285 
1880.000000	65.325498 
1879.000000	65.323591 
1878.000000	65.320754 
1877.000000	65.317487 
1876.000000	65.314435 
1875.000000	65.312075 
1874.000000	65.310716 
1873.000000	65.310478 
1872.000000	65.311098 
1871.000000	65.312051 
1870.000000	65.312504 
1869.000000	65.311503 
1868.000000	65.308237 
1867.000000	65.301847 
1866.000000	65.292239 
1865.000000	65.279507 
1864.000000	65.264844 
1863.000000	65.249919 
1862.000000	65.236973 
1861.000000	65.228366 
1860.000000	65.226101 
1859.000000	65.231323 
1858.000000	65.244030 
1857.000000	65.262770 
1856.000000	65.285038 
1855.000000	65.307593 
1854.000000	65.327215 
1853.000000	65.341305 
1852.000000	65.348696 
1851.000000	65.349817 
1850.000000	65.346503 
1849.000000	65.341496 
1848.000000	65.337729 
1847.000000	65.337371 
1846.000000	65.341520 
1845.000000	65.349555 
1844.000000	65.359687 
1843.000000	65.369081 
1842.000000	65.375041 
1841.000000	65.375518 
1840.000000	65.369629 
1839.000000	65.357804 
1838.000000	65.341615 
1837.000000	65.323424 
1836.000000	65.305733 
1835.000000	65.290594 
1834.000000	65.279388 
1833.000000	65.272426 
1832.000000	65.269398 
1831.000000	65.269231 
1830.000000	65.270805 
1829.000000	65.272974 
1828.000000	65.274810 
1827.000000	65.275692 
1826.000000	65.275335 
1825.000000	65.273809 
1824.000000	65.271496 
1823.000000	65.269088 
1822.000000	65.267372 
1821.000000	65.267348 
1820.000000	65.270209 
1819.000000	65.276813 
1818.000000	65.287661 
1817.000000	65.302467 
1816.000000	65.320038 
1815.000000	65.338492 
1814.000000	65.355539 
1813.000000	65.368914 
1812.000000	65.376758 
1811.000000	65.378189 
1810.000000	65.373396 
1809.000000	65.363335 
1808.000000	65.349793 
1807.000000	65.334677 
1806.000000	65.320062 
1805.000000	65.307664 
1804.000000	65.298724 
1803.000000	65.294170 
1802.000000	65.294337 
1801.000000	65.299105 
1800.000000	65.307760 
1799.000000	65.319156 
1798.000000	65.331864 
1797.000000	65.344285 
1796.000000	65.355014 
1795.000000	65.362811 
1794.000000	65.367007 
1793.000000	65.367364 
1792.000000	65.364360 
1791.000000	65.358996 
1790.000000	65.352773 
1789.000000	65.347337 
1788.000000	65.344166 
1787.000000	65.344262 
1786.000000	65.347981 
1785.000000	65.354847 
1784.000000	65.363645 
1783.000000	65.372848 
1782.000000	65.381121 
1781.000000	65.387511 
1780.000000	65.391635 
1779.000000	65.393757 
1778.000000	65.394496 
1777.000000	65.394496 
1776.000000	65.394330 
1775.000000	65.393924 
1774.000000	65.392875 
1773.000000	65.390658 
1772.000000	65.386795 
1771.000000	65.381240 
1770.000000	65.374588 
1769.000000	65.367794 
1768.000000	65.362071 
1767.000000	65.358495 
1766.000000	65.357756 
1765.000000	65.359640 
1764.000000	65.363144 
1763.000000	65.366983 
1762.000000	65.369629 
1761.000000	65.369892 
1760.000000	65.366959 
1759.000000	65.360593 
1758.000000	65.351033 
1757.000000	65.338730 
1756.000000	65.324139 
1755.000000	65.307641 
1754.000000	65.289735 
1753.000000	65.271091 
1752.000000	65.252733 
1751.000000	65.236067 
1750.000000	65.222716 
1749.000000	65.214467 
1748.000000	65.212512 
1747.000000	65.217161 
1746.000000	65.227413 
1745.000000	65.241026 
1744.000000	65.254855 
1743.000000	65.265417 
1742.000000	65.269589 
1741.000000	65.265321 
1740.000000	65.252017 
1739.000000	65.230798 
1738.000000	65.203976 
1737.000000	65.174627 
1736.000000	65.145802 
1735.000000	65.120077 
1734.000000	65.099096 
1733.000000	65.083456 
1732.000000	65.072989 
1731.000000	65.067291 
1730.000000	65.065956 
1729.000000	65.069127 
1728.000000	65.077114 
1727.000000	65.090703 
1726.000000	65.110397 
1725.000000	65.136337 
1724.000000	65.167546 
1723.000000	65.202140 
1722.000000	65.237569 
1721.000000	65.270829 
1720.000000	65.299010 
1719.000000	65.319871 
1718.000000	65.332293 
1717.000000	65.336227 
1716.000000	65.332698 
1715.000000	65.323352 
1714.000000	65.310287 
1713.000000	65.295290 
1712.000000	65.279865 
1711.000000	65.264892 
1710.000000	65.250730 
1709.000000	65.237474 
1708.000000	65.225338 
1707.000000	65.214633 
1706.000000	65.206074 
1705.000000	65.200686 
1704.000000	65.199589 
1703.000000	65.203619 
1702.000000	65.213203 
1701.000000	65.227699 
1700.000000	65.245795 
1699.000000	65.265345 
1698.000000	65.284037 
1697.000000	65.299844 
1696.000000	65.311455 
1695.000000	65.318584 
1694.000000	65.321993 
1693.000000	65.323090 
1692.000000	65.323615 
1691.000000	65.324831 
1690.000000	65.327286 
1689.000000	65.330696 
1688.000000	65.333628 
1687.000000	65.334296 
1686.000000	65.331077 
1685.000000	65.322852 
1684.000000	65.309619 
1683.000000	65.292215 
1682.000000	65.272355 
1681.000000	65.252041 
1680.000000	65.233063 
1679.000000	65.216827 
1678.000000	65.204191 
1677.000000	65.195345 
1676.000000	65.190172 
1675.000000	65.188288 
1674.000000	65.188956 
1673.000000	65.191602 
1672.000000	65.195393 
1671.000000	65.199780 
1670.000000	65.204310 
1669.000000	65.208816 
1668.000000	65.213298 
1667.000000	65.218019 
1666.000000	65.223503 
1665.000000	65.230083 
1664.000000	65.237855 
1663.000000	65.246343 
1662.000000	65.254664 
1661.000000	65.261435 
1660.000000	65.265154 
1659.000000	65.264534 
1658.000000	65.258884 
1657.000000	65.248250 
1656.000000	65.233826 
1655.000000	65.217280 
1654.000000	65.200781 
1653.000000	65.186452 
1652.000000	65.176296 
1651.000000	65.171647 
1650.000000	65.173125 
1649.000000	65.180850 
1648.000000	65.194201 
1647.000000	65.211725 
1646.000000	65.231418 
1645.000000	65.250730 
1644.000000	65.267157 
1643.000000	65.278220 
1642.000000	65.282249 
1641.000000	65.278387 
1640.000000	65.267062 
1639.000000	65.249824 
1638.000000	65.229153 
1637.000000	65.207862 
1636.000000	65.188527 
1635.000000	65.173149 
1634.000000	65.162634 
1633.000000	65.156912 
1632.000000	65.155291 
1631.000000	65.156745 
1630.000000	65.160489 
1629.000000	65.166258 
1628.000000	65.174341 
1627.000000	65.185308 
1626.000000	65.199708 
1625.000000	65.217566 
1624.000000	65.238142 
1623.000000	65.259909 
1622.000000	65.280938 
1621.000000	65.299010 
1620.000000	65.312480 
1619.000000	65.320229 
1618.000000	65.322375 
1617.000000	65.319490 
1616.000000	65.312814 
1615.000000	65.303397 
1614.000000	65.292119 
1613.000000	65.279197 
1612.000000	65.264606 
1611.000000	65.248250 
1610.000000	65.230369 
1609.000000	65.211963 
1608.000000	65.194725 
1607.000000	65.181016 
1606.000000	65.173220 
1605.000000	65.173101 
1604.000000	65.181255 
1603.000000	65.196871 
1602.000000	65.217757 
1601.000000	65.240645 
1600.000000	65.261816 
1599.000000	65.277862 
1598.000000	65.286350 
1597.000000	65.286183 
1596.000000	65.277862 
1595.000000	65.262818 
1594.000000	65.243506 
1593.000000	65.222525 
1592.000000	65.202546 
1591.000000	65.185761 
1590.000000	65.173768 
1589.000000	65.167760 
1588.000000	65.167927 
1587.000000	65.174055 
1586.000000	65.184950 
1585.000000	65.198826 
1584.000000	65.213179 
1583.000000	65.225243 
1582.000000	65.232491 
1581.000000	65.233135 
1580.000000	65.226793 
1579.000000	65.214419 
1578.000000	65.198016 
1577.000000	65.180063 
1576.000000	65.162944 
1575.000000	65.148448 
1574.000000	65.137219 
1573.000000	65.128827 
1572.000000	65.122056 
1571.000000	65.115475 
1570.000000	65.107846 
1569.000000	65.098619 
1568.000000	65.088176 
1567.000000	65.077733 
1566.000000	65.069007 
1565.000000	65.063667 
1564.000000	65.062832 
1563.000000	65.066552 
1562.000000	65.073323 
1561.000000	65.080595 
1560.000000	65.085458 
1559.000000	65.085268 
1558.000000	65.078544 
1557.000000	65.065550 
1556.000000	65.048241 
1555.000000	65.029859 
1554.000000	65.014052 
1553.000000	65.003871 
1552.000000	65.000915 
1551.000000	65.005064 
1550.000000	65.014338 
1549.000000	65.025496 
1548.000000	65.035009 
1547.000000	65.039730 
1546.000000	65.037870 
1545.000000	65.029215 
1544.000000	65.015554 
1543.000000	64.999747 
1542.000000	64.985537 
1541.000000	64.976429 
1540.000000	64.975237 
1539.000000	64.983415 
1538.000000	65.000629 
1537.000000	65.025234 
1536.000000	65.054416 
1535.000000	65.084862 
1534.000000	65.113186 
1533.000000	65.136671 
1532.000000	65.153670 
1531.000000	65.163588 
1530.000000	65.166997 
1529.000000	65.165257 
1528.000000	65.160441 
1527.000000	65.154623 
1526.000000	65.149641 
1525.000000	65.146613 
1524.000000	65.146088 
1523.000000	65.147972 
1522.000000	65.151691 
1521.000000	65.156316 
1520.000000	65.161204 
1519.000000	65.166068 
1518.000000	65.170907 
1517.000000	65.176105 
1516.000000	65.182209 
1515.000000	65.189719 
1514.000000	65.198612 
1513.000000	65.208697 
1512.000000	65.219378 
1511.000000	65.230035 
1510.000000	65.240216 
1509.000000	65.249586 
1508.000000	65.258288 
1507.000000	65.266561 
1506.000000	65.274786 
1505.000000	65.283060 
1504.000000	65.291380 
1503.000000	65.299129 
1502.000000	65.305256 
1501.000000	65.308308 
1500.000000	65.306854 
1499.000000	65.299487 
1498.000000	65.285396 
1497.000000	65.264534 
1496.000000	65.237665 
1495.000000	65.206408 
1494.000000	65.173172 
1493.000000	65.140342 
1492.000000	65.110301 
1491.000000	65.084838 
1490.000000	65.065121 
1489.000000	65.051555 
1488.000000	65.044164 
1487.000000	65.042376 
1486.000000	65.045428 
1485.000000	65.052247 
1484.000000	65.061736 
1483.000000	65.072441 
1482.000000	65.082788 
1481.000000	65.091228 
1480.000000	65.096521 
1479.000000	65.097546 
1478.000000	65.093922 
1477.000000	65.086030 
1476.000000	65.075039 
1475.000000	65.062832 
1474.000000	65.051722 
1473.000000	65.043926 
1472.000000	65.041422 
1471.000000	65.045356 
1470.000000	65.055871 
1469.000000	65.071892 
1468.000000	65.091443 
1467.000000	65.112066 
1466.000000	65.131163 
1465.000000	65.146327 
1464.000000	65.156149 
1463.000000	65.160202 
1462.000000	65.158867 
1461.000000	65.153145 
1460.000000	65.144515 
1459.000000	65.134501 
1458.000000	65.124154 
1457.000000	65.113925 
1456.000000	65.103793 
1455.000000	65.093421 
1454.000000	65.082502 
1453.000000	65.070986 
1452.000000	65.059256 
1451.000000	65.048265 
1450.000000	65.039277 
1449.000000	65.033721 
1448.000000	65.032625 
1447.000000	65.036439 
1446.000000	65.044879 
1445.000000	65.056777 
1444.000000	65.070295 
1443.000000	65.083646 
1442.000000	65.095186 
1441.000000	65.103936 
1440.000000	65.109753 
1439.000000	65.113592 
1438.000000	65.117192 
1437.000000	65.122485 
1436.000000	65.131282 
1435.000000	65.144562 
1434.000000	65.162110 
1433.000000	65.182614 
1432.000000	65.203452 
1431.000000	65.221405 
1430.000000	65.233159 
1429.000000	65.236234 
1428.000000	65.229535 
1427.000000	65.213537 
1426.000000	65.190458 
1425.000000	65.163755 
1424.000000	65.137529 
1423.000000	65.115594 
1422.000000	65.100717 
1421.000000	65.094137 
1420.000000	65.095019 
1419.000000	65.100932 
1418.000000	65.108203 
1417.000000	65.113067 
1416.000000	65.112352 
1415.000000	65.104317 
1414.000000	65.088915 
1413.000000	65.068125 
1412.000000	65.045237 
1411.000000	65.024375 
1410.000000	65.009403 
1409.000000	65.003228 
1408.000000	65.007257 
1407.000000	65.021133 
1406.000000	65.043115 
1405.000000	65.070056 
1404.000000	65.098381 
1403.000000	65.124487 
1402.000000	65.145301 
1401.000000	65.158629 
1400.000000	65.163064 
1399.000000	65.158534 
1398.000000	65.145587 
1397.000000	65.125751 
1396.000000	65.101289 
1395.000000	65.075087 
1394.000000	65.050268 
1393.000000	65.029811 
1392.000000	65.016174 
1391.000000	65.010833 
1390.000000	65.014243 
1389.000000	65.025496 
1388.000000	65.042543 
1387.000000	65.062665 
1386.000000	65.082931 
1385.000000	65.100693 
1384.000000	65.114235 
1383.000000	65.122723 
1382.000000	65.126442 
1381.000000	65.126466 
1380.000000	65.124392 
1379.000000	65.121698 
1378.000000	65.119647 
1377.000000	65.118980 
1376.000000	65.119814 
1375.000000	65.121889 
1374.000000	65.124535 
1373.000000	65.126824 
1372.000000	65.127754 
1371.000000	65.126466 
1370.000000	65.122342 
1369.000000	65.115237 
1368.000000	65.105557 
1367.000000	65.094208 
1366.000000	65.082645 
1365.000000	65.072488 
1364.000000	65.065622 
1363.000000	65.063714 
1362.000000	65.067982 
1361.000000	65.078878 
1360.000000	65.096020 
1359.000000	65.118122 
1358.000000	65.143036 
1357.000000	65.168166 
1356.000000	65.190649 
1355.000000	65.208005 
1354.000000	65.218544 
1353.000000	65.221762 
1352.000000	65.218400 
1351.000000	65.210342 
1350.000000	65.200352 
1349.000000	65.191268 
1348.000000	65.185713 
1347.000000	65.184950 
1346.000000	65.188956 
1345.000000	65.196156 
1344.000000	65.204000 
1343.000000	65.209603 
1342.000000	65.210461 
1341.000000	65.205264 
1340.000000	65.194296 
1339.000000	65.179514 
1338.000000	65.163660 
1337.000000	65.149784 
1336.000000	65.140438 
1335.000000	65.136837 
1334.000000	65.138649 
1333.000000	65.144085 
1332.000000	65.150570 
1331.000000	65.155482 
1330.000000	65.157079 
1329.000000	65.154647 
1328.000000	65.148878 
1327.000000	65.141296 
1326.000000	65.133833 
1325.000000	65.127992 
1324.000000	65.124583 
1323.000000	65.123581 
1322.000000	65.124344 
1321.000000	65.126037 
1320.000000	65.128064 
1319.000000	65.130305 
1318.000000	65.133309 
1317.000000	65.137887 
1316.000000	65.144896 
1315.000000	65.154647 
1314.000000	65.166783 
1313.000000	65.180039 
1312.000000	65.192556 
1311.000000	65.202569 
1310.000000	65.208506 
1309.000000	65.209627 
1308.000000	65.205979 
1307.000000	65.198326 
1306.000000	65.187954 
1305.000000	65.176248 
1304.000000	65.164518 
1303.000000	65.153598 
1302.000000	65.144014 
1301.000000	65.136051 
1300.000000	65.129899 
1299.000000	65.125513 
1298.000000	65.123033 
1297.000000	65.122413 
1296.000000	65.123629 
1295.000000	65.126156 
1294.000000	65.129303 
1293.000000	65.131807 
1292.000000	65.132069 
1291.000000	65.128326 
1290.000000	65.119123 
1289.000000	65.103602 
1288.000000	65.081834 
1287.000000	65.054965 
1286.000000	65.025138 
1285.000000	64.995145 
1284.000000	64.968252 
1283.000000	64.947271 
1282.000000	64.934253 
1281.000000	64.929914 
1280.000000	64.933705 
1279.000000	64.943885 
1278.000000	64.957880 
1277.000000	64.972877 
1276.000000	64.986538 
1275.000000	64.997267 
1274.000000	65.004658 
1273.000000	65.009260 
1272.000000	65.012311 
1271.000000	65.015387 
1270.000000	65.020036 
1269.000000	65.027213 
1268.000000	65.037274 
1267.000000	65.050101 
1266.000000	65.064907 
1265.000000	65.080642 
1264.000000	65.095973 
1263.000000	65.109753 
1262.000000	65.120887 
1261.000000	65.128421 
1260.000000	65.131640 
1259.000000	65.130090 
1258.000000	65.123605 
1257.000000	65.112257 
1256.000000	65.096807 
1255.000000	65.078544 
1254.000000	65.059375 
1253.000000	65.041661 
1252.000000	65.027904 
1251.000000	65.020275 
1250.000000	65.020394 
1249.000000	65.028667 
1248.000000	65.044260 
1247.000000	65.065050 
1246.000000	65.088152 
1245.000000	65.110397 
1244.000000	65.128779 
1243.000000	65.141129 
1242.000000	65.146350 
1241.000000	65.144634 
1240.000000	65.137195 
1239.000000	65.125679 
1238.000000	65.112066 
1237.000000	65.098023 
1236.000000	65.084624 
1235.000000	65.072584 
1234.000000	65.062475 
1233.000000	65.054535 
1232.000000	65.049266 
1231.000000	65.046954 
1230.000000	65.047907 
1229.000000	65.051984 
1228.000000	65.058374 
1227.000000	65.065526 
1226.000000	65.071368 
1225.000000	65.073609 
1224.000000	65.070295 
1223.000000	65.060162 
1222.000000	65.043258 
1221.000000	65.020895 
1220.000000	64.995741 
1219.000000	64.971137 
1218.000000	64.950633 
1217.000000	64.937186 
1216.000000	64.932608 
1215.000000	64.937329 
1214.000000	64.950203 
1213.000000	64.968752 
1212.000000	64.989519 
1211.000000	65.008926 
1210.000000	65.023612 
1209.000000	65.031123 
1208.000000	65.030193 
1207.000000	65.020823 
1206.000000	65.004515 
1205.000000	64.983558 
1204.000000	64.960813 
1203.000000	64.938998 
1202.000000	64.920473 
1201.000000	64.906859 
1200.000000	64.898920 
1199.000000	64.896559 
1198.000000	64.899039 
1197.000000	64.905142 
1196.000000	64.913487 
1195.000000	64.922690 
1194.000000	64.931559 
1193.000000	64.939165 
1192.000000	64.944839 
1191.000000	64.948177 
1190.000000	64.949059 
1189.000000	64.947700 
1188.000000	64.944529 
1187.000000	64.940381 
1186.000000	64.936327 
1185.000000	64.933466 
1184.000000	64.932656 
1183.000000	64.934372 
1182.000000	64.938712 
1181.000000	64.945292 
1180.000000	64.953494 
1179.000000	64.962458 
1178.000000	64.971303 
1177.000000	64.979243 
1176.000000	64.985728 
1175.000000	64.990353 
1174.000000	64.992976 
1173.000000	64.993572 
1172.000000	64.992332 
1171.000000	64.989566 
1170.000000	64.985918 
1169.000000	64.982175 
1168.000000	64.979195 
1167.000000	64.977550 
1166.000000	64.977478 
1165.000000	64.978432 
1164.000000	64.979362 
1163.000000	64.978551 
1162.000000	64.974665 
1161.000000	64.967083 
1160.000000	64.956355 
1159.000000	64.944458 
1158.000000	64.933991 
1157.000000	64.927935 
1156.000000	64.928340 
1155.000000	64.935803 
1154.000000	64.949178 
1153.000000	64.965558 
1152.000000	64.981102 
1151.000000	64.991903 
1150.000000	64.995217 
1149.000000	64.989995 
1148.000000	64.977240 
1147.000000	64.959716 
1146.000000	64.941096 
1145.000000	64.924812 
1144.000000	64.913415 
1143.000000	64.907717 
1142.000000	64.907026 
1141.000000	64.909267 
1140.000000	64.911937 
1139.000000	64.912629 
1138.000000	64.909720 
1137.000000	64.902687 
1136.000000	64.891886 
1135.000000	64.878678 
1134.000000	64.864778 
1133.000000	64.851880 
1132.000000	64.841651 
1131.000000	64.834952 
1130.000000	64.831995 
1129.000000	64.832282 
1128.000000	64.834880 
1127.000000	64.838552 
1126.000000	64.842057 
1125.000000	64.844441 
1124.000000	64.845252 
1123.000000	64.844560 
1122.000000	64.842963 
1121.000000	64.841389 
1120.000000	64.840888 
1119.000000	64.842343 
1118.000000	64.846038 
1117.000000	64.851713 
1116.000000	64.858412 
1115.000000	64.864778 
1114.000000	64.869236 
1113.000000	64.870452 
1112.000000	64.867806 
1111.000000	64.861083 
1110.000000	64.851021 
1109.000000	64.838838 
1108.000000	64.826202 
1107.000000	64.814853 
1106.000000	64.806318 
1105.000000	64.801621 
1104.000000	64.801049 
1103.000000	64.804315 
1102.000000	64.810347 
1101.000000	64.817929 
1100.000000	64.825749 
1099.000000	64.832758 
1098.000000	64.838600 
1097.000000	64.843416 
1096.000000	64.847946 
1095.000000	64.853072 
1094.000000	64.859700 
1093.000000	64.868211 
1092.000000	64.878654 
1091.000000	64.890503 
1090.000000	64.902806 
1089.000000	64.914393 
1088.000000	64.924335 
1087.000000	64.932107 
1086.000000	64.937615 
1085.000000	64.941263 
1084.000000	64.943957 
1083.000000	64.946556 
1082.000000	64.949798 
1081.000000	64.954018 
1080.000000	64.959001 
1079.000000	64.964199 
1078.000000	64.968991 
1077.000000	64.972877 
1076.000000	64.975357 
1075.000000	64.976525 
1074.000000	64.977121 
1073.000000	64.978528 
1072.000000	64.982199 
1071.000000	64.989376 
1070.000000	65.000557 
1069.000000	65.015101 
1068.000000	65.031242 
1067.000000	65.045905 
1066.000000	65.055394 
1065.000000	65.056324 
1064.000000	65.046310 
1063.000000	65.024518 
1062.000000	64.991903 
1061.000000	64.950847 
1060.000000	64.904975 
1059.000000	64.857888 
1058.000000	64.813351 
1057.000000	64.774155 
1056.000000	64.742946 
1055.000000	64.721345 
1054.000000	64.711356 
1053.000000	64.715003 
1052.000000	64.734768 
1051.000000	64.772105 
1050.000000	64.827251 
1049.000000	64.898180 
1048.000000	64.980173 
1047.000000	65.065741 
1046.000000	65.145897 
1045.000000	65.211558 
1044.000000	65.255093 
1043.000000	65.272164 
1042.000000	65.261769 
1041.000000	65.226721 
1040.000000	65.172576 
1039.000000	65.106701 
1038.000000	65.036869 
1037.000000	64.969921 
1036.000000	64.911389 
1035.000000	64.864802 
1034.000000	64.831876 
1033.000000	64.812350 
1032.000000	64.804840 
1031.000000	64.806652 
1030.000000	64.813995 
1029.000000	64.822769 
1028.000000	64.828395 
1027.000000	64.827299 
1026.000000	64.816570 
1025.000000	64.795422 
1024.000000	64.764857 
1023.000000	64.728021 
1022.000000	64.689350 
1021.000000	64.653992 
1020.000000	64.626336 
1019.000000	64.609694 
1018.000000	64.605760 
1017.000000	64.614319 
1016.000000	64.633107 
1015.000000	64.658880 
1014.000000	64.688205 
1013.000000	64.717674 
1012.000000	64.744186 
1011.000000	64.765477 
1010.000000	64.780163 
1009.000000	64.787697 
1008.000000	64.788627 
1007.000000	64.784169 
1006.000000	64.776325 
1005.000000	64.768195 
1004.000000	64.762806 
1003.000000	64.762496 
1002.000000	64.768457 
1001.000000	64.780521 
1000.000000	64.797019 
999.000000	 64.815139 
998.000000	 64.831519 
997.000000	 64.843297 
996.000000	 64.848184 
995.000000	 64.845013 
994.000000	 64.833617 
993.000000	 64.814782 
992.000000	 64.789676 
991.000000	 64.759373 
990.000000	 64.725089 
989.000000	 64.688062 
988.000000	 64.650130 
987.000000	 64.613628 
986.000000	 64.581441 
985.000000	 64.556741 
984.000000	 64.542174 
983.000000	 64.539432 
982.000000	 64.548397 
981.000000	 64.567303 
980.000000	 64.593124 
979.000000	 64.622402 
978.000000	 64.652013 
977.000000	 64.679765 
976.000000	 64.704704 
975.000000	 64.727091 
974.000000	 64.747428 
973.000000	 64.766502 
972.000000	 64.784693 
971.000000	 64.802098 
970.000000	 64.818334 
969.000000	 64.833116 
968.000000	 64.846754 
967.000000	 64.859867 
966.000000	 64.873671 
965.000000	 64.889121 
964.000000	 64.906620 
963.000000	 64.925003 
962.000000	 64.941811 
961.000000	 64.953422 
960.000000	 64.956259 
959.000000	 64.947819 
958.000000	 64.927768 
957.000000	 64.898800 
956.000000	 64.866375 
955.000000	 64.837789 
954.000000	 64.820408 
953.000000	 64.819884 
952.000000	 64.838528 
951.000000	 64.874410 
950.000000	 64.921283 
949.000000	 64.970064 
948.000000	 65.010523 
947.000000	 65.033650 
946.000000	 65.033531 
945.000000	 65.008974 
944.000000	 64.963293 
943.000000	 64.903163 
942.000000	 64.836835 
941.000000	 64.772439 
940.000000	 64.715766 
939.000000	 64.669489 
938.000000	 64.633011 
937.000000	 64.603781 
936.000000	 64.577913 
935.000000	 64.551973 
934.000000	 64.523410 
933.000000	 64.491415 
932.000000	 64.456295 
931.000000	 64.419054 
930.000000	 64.380931 
929.000000	 64.343047 
928.000000	 64.306449 
927.000000	 64.272141 
926.000000	 64.241194 
925.000000	 64.214944 
924.000000	 64.195179 
923.000000	 64.183473 
922.000000	 64.180588 
921.000000	 64.186000 
920.000000	 64.197731 
919.000000	 64.212346 
918.000000	 64.225554 
917.000000	 64.232873 
916.000000	 64.230871 
915.000000	 64.217329 
914.000000	 64.191818 
913.000000	 64.155650 
912.000000	 64.111733 
911.000000	 64.063620 
910.000000	 64.014601 
909.000000	 63.967967 
908.000000	 63.926649 
907.000000	 63.892841 
906.000000	 63.867950 
905.000000	 63.853383 
904.000000	 63.850498 
903.000000	 63.860750 
902.000000	 63.885474 
901.000000	 63.925337 
900.000000	 63.980078 
899.000000	 64.047598 
898.000000	 64.123821 
897.000000	 64.202976 
896.000000	 64.278531 
895.000000	 64.343738 
894.000000	 64.393115 
893.000000	 64.423680 
892.000000	 64.435195 
891.000000	 64.430570 
890.000000	 64.414811 
889.000000	 64.394378 
888.000000	 64.375734 
887.000000	 64.364290 
886.000000	 64.363646 
885.000000	 64.375066 
884.000000	 64.398217 
883.000000	 64.431548 
882.000000	 64.473271 
881.000000	 64.521813 
880.000000	 64.575791 
879.000000	 64.633870 
878.000000	 64.694356 
877.000000	 64.755177 
876.000000	 64.813709 
875.000000	 64.866828 
874.000000	 64.911508 
873.000000	 64.945101 
872.000000	 64.966130 
871.000000	 64.974236 
870.000000	 64.970421 
869.000000	 64.956569 
868.000000	 64.935994 
867.000000	 64.911651 
866.000000	 64.886426 
865.000000	 64.861512 
864.000000	 64.837169 
863.000000	 64.811825 
862.000000	 64.782953 
861.000000	 64.747834 
860.000000	 64.704656 
859.000000	 64.653563 
858.000000	 64.596843 
857.000000	 64.539337 
856.000000	 64.487552 
855.000000	 64.448547 
854.000000	 64.427685 
853.000000	 64.427757 
852.000000	 64.447855 
851.000000	 64.483070 
850.000000	 64.525270 
849.000000	 64.565467 
848.000000	 64.595556 
847.000000	 64.610004 
846.000000	 64.606451 
845.000000	 64.586043 
844.000000	 64.552736 
843.000000	 64.511275 
842.000000	 64.466834 
841.000000	 64.423727 
840.000000	 64.385318 
839.000000	 64.354133 
838.000000	 64.332008 
837.000000	 64.320516 
836.000000	 64.320588 
835.000000	 64.333033 
834.000000	 64.357328 
833.000000	 64.391183 
832.000000	 64.430546 
831.000000	 64.469790 
830.000000	 64.502453 
829.000000	 64.522123 
828.000000	 64.523911 
827.000000	 64.505648 
826.000000	 64.467692 
825.000000	 64.412999 
824.000000	 64.346623 
823.000000	 64.274954 
822.000000	 64.204287 
821.000000	 64.140105 
820.000000	 64.086556 
819.000000	 64.046192 
818.000000	 64.019775 
817.000000	 64.006757 
816.000000	 64.005231 
815.000000	 64.012837 
814.000000	 64.026737 
813.000000	 64.044737 
812.000000	 64.064669 
811.000000	 64.085197 
810.000000	 64.105105 
809.000000	 64.123821 
808.000000	 64.141035 
807.000000	 64.156365 
806.000000	 64.169239 
805.000000	 64.179110 
804.000000	 64.185237 
803.000000	 64.187455 
802.000000	 64.186477 
801.000000	 64.183855 
800.000000	 64.181852 
799.000000	 64.182996 
798.000000	 64.189338 
797.000000	 64.201974 
796.000000	 64.220595 
795.000000	 64.243865 
794.000000	 64.269709 
793.000000	 64.295840 
792.000000	 64.320182 
791.000000	 64.341044 
790.000000	 64.357352 
789.000000	 64.368581 
788.000000	 64.374899 
787.000000	 64.377021 
786.000000	 64.376068 
785.000000	 64.373826 
784.000000	 64.371776 
783.000000	 64.371490 
782.000000	 64.373302 
781.000000	 64.376735 
780.000000	 64.380002 
779.000000	 64.380574 
778.000000	 64.375710 
777.000000	 64.363002 
776.000000	 64.341688 
775.000000	 64.312744 
774.000000	 64.279198 
773.000000	 64.245390 
772.000000	 64.215779 
771.000000	 64.193916 
770.000000	 64.180874 
769.000000	 64.175128 
768.000000	 64.172410 
767.000000	 64.166760 
766.000000	 64.152169 
765.000000	 64.124393 
764.000000	 64.082217 
763.000000	 64.028191 
762.000000	 63.968181 
761.000000	 63.910079 
760.000000	 63.862037 
759.000000	 63.830542 
758.000000	 63.818693 
757.000000	 63.825702 
756.000000	 63.847255 
755.000000	 63.876628 
754.000000	 63.906311 
753.000000	 63.929986 
752.000000	 63.943505 
751.000000	 63.945889 
750.000000	 63.938593 
749.000000	 63.925361 
748.000000	 63.910460 
747.000000	 63.898110 
746.000000	 63.891053 
745.000000	 63.890647 
744.000000	 63.896965 
743.000000	 63.909101 
742.000000	 63.925862 
741.000000	 63.946056 
740.000000	 63.968801 
739.000000	 63.993501 
738.000000	 64.019680 
737.000000	 64.046525 
736.000000	 64.072585 
735.000000	 64.096093 
734.000000	 64.115142 
733.000000	 64.127993 
732.000000	 64.133429 
731.000000	 64.131426 
730.000000	 64.122533 
729.000000	 64.108157 
728.000000	 64.089846 
727.000000	 64.069557 
726.000000	 64.048743 
725.000000	 64.028692 
724.000000	 64.009785 
723.000000	 63.992071 
722.000000	 63.974547 
721.000000	 63.955712 
720.000000	 63.933348 
719.000000	 63.905048 
718.000000	 63.869118 
717.000000	 63.825106 
716.000000	 63.774323 
715.000000	 63.719820 
714.000000	 63.666391 
713.000000	 63.619732 
712.000000	 63.584923 
711.000000	 63.565492 
710.000000	 63.562726 
709.000000	 63.575124 
708.000000	 63.598299 
707.000000	 63.626313 
706.000000	 63.652849 
705.000000	 63.672733 
704.000000	 63.682651 
703.000000	 63.681769 
702.000000	 63.671350 
701.000000	 63.654494 
700.000000	 63.634514 
699.000000	 63.614749 
698.000000	 63.597583 
697.000000	 63.584327 
696.000000	 63.575530 
695.000000	 63.570570 
694.000000	 63.568305 
693.000000	 63.567090 
692.000000	 63.565158 
691.000000	 63.560676 
690.000000	 63.551855 
689.000000	 63.537240 
688.000000	 63.515782 
687.000000	 63.486909 
686.000000	 63.450479 
685.000000	 63.407158 
684.000000	 63.358545 
683.000000	 63.306856 
682.000000	 63.254904 
681.000000	 63.205766 
680.000000	 63.162565 
679.000000	 63.127708 
678.000000	 63.102960 
677.000000	 63.088965 
676.000000	 63.085389 
675.000000	 63.090753 
674.000000	 63.103008 
673.000000	 63.119411 
672.000000	 63.137507 
671.000000	 63.155078 
670.000000	 63.170719 
669.000000	 63.183546 
668.000000	 63.193249 
667.000000	 63.199353 
666.000000	 63.201642 
665.000000	 63.200068 
664.000000	 63.195466 
663.000000	 63.189458 
662.000000	 63.184618 
661.000000	 63.183760 
660.000000	 63.188576 
659.000000	 63.198947 
658.000000	 63.212728 
657.000000	 63.226056 
656.000000	 63.234066 
655.000000	 63.232278 
654.000000	 63.218498 
653.000000	 63.193273 
652.000000	 63.159871 
651.000000	 63.123512 
650.000000	 63.090038 
649.000000	 63.064622 
648.000000	 63.050460 
647.000000	 63.048601 
646.000000	 63.057708 
645.000000	 63.074898 
644.000000	 63.097214 
643.000000	 63.121557 
642.000000	 63.145446 
641.000000	 63.166904 
640.000000	 63.184070 
639.000000	 63.195204 
638.000000	 63.198089 
637.000000	 63.191795 
636.000000	 63.176846 
635.000000	 63.156509 
634.000000	 63.136339 
633.000000	 63.124036 
632.000000	 63.127613 
631.000000	 63.153290 
630.000000	 63.203620 
629.000000	 63.276386 
628.000000	 63.364195 
627.000000	 63.456082 
626.000000	 63.539099 
625.000000	 63.601517 
624.000000	 63.634586 
623.000000	 63.635134 
622.000000	 63.604712 
621.000000	 63.549017 
620.000000	 63.475751 
619.000000	 63.393211 
618.000000	 63.308095 
617.000000	 63.225102 
616.000000	 63.146328 
615.000000	 63.072800 
614.000000	 63.004779 
613.000000	 62.942910 
612.000000	 62.888455 
611.000000	 62.843132 
610.000000	 62.808728 
609.000000	 62.786269 
608.000000	 62.775397 
607.000000	 62.773752 
606.000000	 62.777805 
605.000000	 62.783432 
604.000000	 62.786483 
603.000000	 62.783885 
602.000000	 62.774705 
601.000000	 62.760734 
600.000000	 62.745046 
599.000000	 62.732291 
598.000000	 62.727522 
597.000000	 62.735342 
596.000000	 62.758612 
595.000000	 62.797546 
594.000000	 62.849545 
593.000000	 62.909054 
592.000000	 62.969112 
591.000000	 63.021898 
590.000000	 63.060402 
589.000000	 63.080072 
588.000000	 63.079667 
587.000000	 63.061642 
586.000000	 63.031315 
585.000000	 62.996125 
584.000000	 62.963938 
583.000000	 62.941169 
582.000000	 62.931370 
581.000000	 62.934350 
580.000000	 62.946438 
579.000000	 62.960648 
578.000000	 62.968373 
577.000000	 62.960767 
576.000000	 62.931036 
575.000000	 62.875294 
574.000000	 62.794518 
573.000000	 62.693834 
572.000000	 62.583231 
571.000000	 62.475228 
570.000000	 62.383866 
569.000000	 62.321925 
568.000000	 62.298917 
567.000000	 62.319564 
566.000000	 62.381958 
565.000000	 62.477636 
564.000000	 62.592577 
563.000000	 62.709546 
562.000000	 62.811207 
561.000000	 62.882375 
560.000000	 62.913727 
559.000000	 62.903356 
558.000000	 62.856674 
557.000000	 62.784743 
556.000000	 62.701439 
555.000000	 62.620067 
554.000000	 62.550592 
553.000000	 62.497949 
552.000000	 62.461709 
551.000000	 62.437701 
550.000000	 62.420606 
549.000000	 62.406897 
548.000000	 62.396216 
547.000000	 62.391853 
546.000000	 62.399935 
545.000000	 62.426352 
544.000000	 62.473654 
543.000000	 62.538766 
542.000000	 62.612581 
541.000000	 62.681412 
540.000000	 62.729859 
539.000000	 62.744712 
538.000000	 62.719225 
537.000000	 62.654066 
536.000000	 62.557458 
535.000000	 62.443113 
534.000000	 62.326884 
533.000000	 62.223720 
532.000000	 62.144875 
531.000000	 62.095808 
530.000000	 62.075853 
529.000000	 62.079524 
528.000000	 62.098956 
527.000000	 62.125468 
526.000000	 62.152147 
525.000000	 62.175846 
524.000000	 62.197899 
523.000000	 62.222862 
522.000000	 62.256908 
521.000000	 62.305641 
520.000000	 62.372159 
519.000000	 62.455534 
518.000000	 62.550449 
517.000000	 62.649321 
516.000000	 62.742781 
515.000000	 62.822675 
514.000000	 62.882399 
513.000000	 62.918758 
512.000000	 62.931299 
511.000000	 62.922215 
510.000000	 62.895464 
509.000000	 62.856650 
508.000000	 62.810730 
507.000000	 62.762880 
506.000000	 62.715506 
505.000000	 62.669205 
504.000000	 62.621855 
503.000000	 62.570595 
502.000000	 62.511706 
501.000000	 62.442231 
500.000000	 62.360787 
499.000000	 62.268137 
498.000000	 62.166786 
497.000000	 62.060832 
496.000000	 61.953711 
495.000000	 61.848139 
494.000000	 61.747145 
493.000000	 61.653780 
492.000000	 61.570072 
491.000000	 61.497402 
490.000000	 61.437320 
489.000000	 61.390757 
488.000000	 61.356329 
487.000000	 61.331796 
486.000000	 61.313772 
485.000000	 61.299252 
484.000000	 61.285114 
483.000000	 61.270284 
482.000000	 61.255240 
481.000000	 61.242842 
480.000000	 61.236643 
479.000000	 61.240911 
478.000000	 61.259198 
477.000000	 61.292338 
476.000000	 61.338376 
475.000000	 61.389899 
474.000000	 61.434936 
473.000000	 61.459255 
472.000000	 61.449432 
471.000000	 61.394667 
470.000000	 61.289072 
469.000000	 61.133766 
468.000000	 60.936164 
467.000000	 60.707926 
466.000000	 60.462784 
465.000000	 60.213112 
464.000000	 59.969806 
463.000000	 59.742045 
462.000000	 59.538364 
461.000000	 59.366583 
460.000000	 59.234690 
459.000000	 59.150266 
458.000000	 59.118318 
457.000000	 59.137868 
456.000000	 59.202027 
455.000000	 59.296274 
454.000000	 59.402179 
453.000000	 59.496927 
452.000000	 59.563040 
451.000000	 59.590387 
450.000000	 59.581708 
449.000000	 59.550261 
448.000000	 59.519481 
447.000000	 59.515762 
446.000000	 59.561705 
445.000000	 59.668588 
444.000000	 59.830522 
443.000000	 60.023903 
442.000000	 60.212588 
441.000000	 60.355234 
440.000000	 60.414671 
439.000000	 60.366535 
438.000000	 60.206556 
437.000000	 59.950256 
436.000000	 59.628796 
435.000000	 59.280753 
434.000000	 58.945703 
433.000000	 58.653306 
432.000000	 58.419489 
431.000000	 58.243274 
430.000000	 58.112740 
429.000000	 58.007597 
428.000000	 57.907223 
427.000000	 57.795929 
426.000000	 57.669615 
425.000000	 57.530760 
424.000000	 57.379508 
423.000000	 57.223343 
422.000000	 57.073831 
421.000000	 56.944060 
420.000000	 56.844758 
419.000000	 56.786441 
418.000000	 56.776428 
417.000000	 56.821775 
416.000000	 56.927013 
415.000000	 57.083201 
414.000000	 57.270503 
413.000000	 57.465839 
412.000000	 57.647418 
411.000000	 57.796502 
410.000000	 57.901740 
409.000000	 57.966947 
408.000000	 58.001279 
407.000000	 58.016681 
406.000000	 58.018755 
405.000000	 57.995915 
404.000000	 57.936906 
403.000000	 57.811999 
402.000000	 57.628512 
401.000000	 57.431483 
400.000000	 57.323455 
399.000000	 57.437515 
398.000000	 57.922053 
397.000000	 58.903622 
396.000000	 60.430717 
395.000000	 62.449836 
394.000000	 64.776968 
393.000000	 67.122888 
392.000000	 69.137740 
391.000000	 70.485448 
390.000000	 70.901966 
389.000000	 70.258355 
388.000000	 68.593502 
387.000000	 66.110777 
386.000000	 63.145709 
385.000000	 60.095930 
384.000000	 57.340836 
383.000000	 55.166578 
382.000000	 53.756952 
381.000000	 53.134202 
380.000000	 53.200793 
379.000000	 53.729486 
378.000000	 54.436206 
377.000000	 55.013775 
376.000000	 55.169177 
375.000000	 54.702639 
374.000000	 53.515768 
373.000000	 51.662588 
372.000000	 49.321627 
371.000000	 46.768403 
370.000000	 44.291019 

