PE IR       SPECTRUM    SPECTRUM    ASCII       PEDS        1.60        
  -1
C-1AEF~1.ASC
17/05/02
12:17:20.00
17/05/02
12:17:20.00
tln
$C-4040-8_t0017$<tbV0>[-7.5,-3.0,8.0,0.0,22,1,0]
370.000000
64









2002,4.07    
MIRTGS : RIGHTBACK : INTERNAL 2
MIR : ON : INTERNAL 2
OPTKBR

0.200000
8
8.000000
FILLER
RATIO
SPECTRUM
UNLOCKED 256

DOUBLE
64
COMBINED
1
0
0


1.000000
RATIO


1
0
TRUE
51149
0
LEFT NOT FITTED RIGHT NOT FITTED 0
NONE
NONE
15600
12.000000
4.427000
51148
TRUE
1 0 8 72 0 0 0 0 

15798.010000






#HDR
-1
-1
#GR
CM-1
%T
0.00002384185791015625
0.0
7800.000000
-1.000000
7431
8
85.746288
46.251058
#DATA
7800.000000	73.489522 
7799.000000	73.712635 
7798.000000	73.628258 
7797.000000	73.297739 
7796.000000	72.829127 
7795.000000	72.351717 
7794.000000	71.990180 
7793.000000	71.834373 
7792.000000	71.913456 
7791.000000	72.184276 
7790.000000	72.543716 
7789.000000	72.845125 
7788.000000	72.924208 
7787.000000	72.635316 
7786.000000	71.879506 
7785.000000	70.636248 
7784.000000	68.964719 
7783.000000	67.008543 
7782.000000	64.965844 
7781.000000	63.060474 
7780.000000	61.502766 
7779.000000	60.445547 
7778.000000	59.961724 
7777.000000	60.025143 
7776.000000	60.517072 
7775.000000	61.260581 
7774.000000	62.045621 
7773.000000	62.702441 
7772.000000	63.121891 
7771.000000	63.298225 
7770.000000	63.305234 
7769.000000	63.289785 
7768.000000	63.416028 
7767.000000	63.821482 
7766.000000	64.568901 
7765.000000	65.634775 
7764.000000	66.907000 
7763.000000	68.215966 
7762.000000	69.369029 
7761.000000	70.184683 
7760.000000	70.536136 
7759.000000	70.368814 
7758.000000	69.723987 
7757.000000	68.727469 
7756.000000	67.572736 
7755.000000	66.481733 
7754.000000	65.662980 
7753.000000	65.271520 
7752.000000	65.382051 
7751.000000	65.987324 
7750.000000	67.001557 
7749.000000	68.286395 
7748.000000	69.681572 
7747.000000	71.047449 
7746.000000	72.268390 
7745.000000	73.259162 
7744.000000	73.967814 
7743.000000	74.364042 
7742.000000	74.445629 
7741.000000	74.232625 
7740.000000	73.767495 
7739.000000	73.111367 
7738.000000	72.340774 
7737.000000	71.538782 
7736.000000	70.785284 
7735.000000	70.142126 
7734.000000	69.647693 
7733.000000	69.305777 
7732.000000	69.085001 
7731.000000	68.925642 
7730.000000	68.752336 
7729.000000	68.498587 
7728.000000	68.106985 
7727.000000	67.567515 
7726.000000	66.912102 
7725.000000	66.229772 
7724.000000	65.632605 
7723.000000	65.249681 
7722.000000	65.192651 
7721.000000	65.528512 
7720.000000	66.259384 
7719.000000	67.312765 
7718.000000	68.554639 
7717.000000	69.809222 
7716.000000	70.891690 
7715.000000	71.654057 
7714.000000	72.015070 
7713.000000	71.973466 
7712.000000	71.601700 
7711.000000	71.020269 
7710.000000	70.363402 
7709.000000	69.750189 
7708.000000	69.258117 
7707.000000	68.916034 
7706.000000	68.703126 
7705.000000	68.583250 
7704.000000	68.507909 
7703.000000	68.435573 
7702.000000	68.331766 
7701.000000	68.174958 
7700.000000	67.949604 
7699.000000	67.636775 
7698.000000	67.218947 
7697.000000	66.674709 
7696.000000	65.996527 
7695.000000	65.197086 
7694.000000	64.317488 
7693.000000	63.424801 
7692.000000	62.603521 
7691.000000	61.938047 
7690.000000	61.497521 
7689.000000	61.315894 
7688.000000	61.394333 
7687.000000	61.699032 
7686.000000	62.177491 
7685.000000	62.769961 
7684.000000	63.422942 
7683.000000	64.097118 
7682.000000	64.769196 
7681.000000	65.428972 
7680.000000	66.071796 
7679.000000	66.689825 
7678.000000	67.271447 
7677.000000	67.792701 
7676.000000	68.222498 
7675.000000	68.520522 
7674.000000	68.658828 
7673.000000	68.614768 
7672.000000	68.386960 
7671.000000	67.985796 
7670.000000	67.442154 
7669.000000	66.794228 
7668.000000	66.086030 
7667.000000	65.361857 
7666.000000	64.663743 
7665.000000	64.032673 
7664.000000	63.501787 
7663.000000	63.110756 
7662.000000	62.897944 
7661.000000	62.912130 
7660.000000	63.199496 
7659.000000	63.799571 
7658.000000	64.727163 
7657.000000	65.956163 
7656.000000	67.410945 
7655.000000	68.965697 
7654.000000	70.460772 
7653.000000	71.736192 
7652.000000	72.658181 
7651.000000	73.148417 
7650.000000	73.192715 
7649.000000	72.845005 
7648.000000	72.205519 
7647.000000	71.400284 
7646.000000	70.549464 
7645.000000	69.755721 
7644.000000	69.081854 
7643.000000	68.561196 
7642.000000	68.192291 
7641.000000	67.959523 
7640.000000	67.838549 
7639.000000	67.810082 
7638.000000	67.861819 
7637.000000	67.982673 
7636.000000	68.166637 
7635.000000	68.401765 
7634.000000	68.672895 
7633.000000	68.956136 
7632.000000	69.223880 
7631.000000	69.446539 
7630.000000	69.598627 
7629.000000	69.663095 
7628.000000	69.629311 
7627.000000	69.495797 
7626.000000	69.277334 
7625.000000	69.001102 
7624.000000	68.700742 
7623.000000	68.409347 
7622.000000	68.161201 
7621.000000	67.979001 
7620.000000	67.866373 
7619.000000	67.810583 
7618.000000	67.786097 
7617.000000	67.767071 
7616.000000	67.731165 
7615.000000	67.674994 
7614.000000	67.609810 
7613.000000	67.568063 
7612.000000	67.594027 
7611.000000	67.728757 
7610.000000	67.995142 
7609.000000	68.385410 
7608.000000	68.861413 
7607.000000	69.349384 
7606.000000	69.755125 
7605.000000	69.982767 
7604.000000	69.957876 
7603.000000	69.646120 
7602.000000	69.062209 
7601.000000	68.267631 
7600.000000	67.355322 
7599.000000	66.427087 
7598.000000	65.571546 
7597.000000	64.846086 
7596.000000	64.272117 
7595.000000	63.841700 
7594.000000	63.528299 
7593.000000	63.305926 
7592.000000	63.156795 
7591.000000	63.068532 
7590.000000	63.042593 
7589.000000	63.074803 
7588.000000	63.168287 
7587.000000	63.314914 
7586.000000	63.511157 
7585.000000	63.747406 
7584.000000	64.022350 
7583.000000	64.340305 
7582.000000	64.709043 
7581.000000	65.134382 
7580.000000	65.611267 
7579.000000	66.119456 
7578.000000	66.620945 
7577.000000	67.064833 
7576.000000	67.395782 
7575.000000	67.566537 
7574.000000	67.551159 
7573.000000	67.353343 
7572.000000	67.005014 
7571.000000	66.563749 
7570.000000	66.101646 
7569.000000	65.695095 
7568.000000	65.411114 
7567.000000	65.297293 
7566.000000	65.381383 
7565.000000	65.660977 
7564.000000	66.108608 
7563.000000	66.669440 
7562.000000	67.275118 
7561.000000	67.846488 
7560.000000	68.302845 
7559.000000	68.578147 
7558.000000	68.627977 
7557.000000	68.444395 
7556.000000	68.055343 
7555.000000	67.524361 
7554.000000	66.939449 
7553.000000	66.394186 
7552.000000	65.970420 
7551.000000	65.722060 
7550.000000	65.666985 
7549.000000	65.793013 
7548.000000	66.064429 
7547.000000	66.432118 
7546.000000	66.842555 
7545.000000	67.245960 
7544.000000	67.600083 
7543.000000	67.862272 
7542.000000	67.998361 
7541.000000	67.984461 
7540.000000	67.815804 
7539.000000	67.506742 
7538.000000	67.095613 
7537.000000	66.640043 
7536.000000	66.210603 
7535.000000	65.881109 
7534.000000	65.713238 
7533.000000	65.745210 
7532.000000	65.983271 
7531.000000	66.399240 
7530.000000	66.938805 
7529.000000	67.533659 
7528.000000	68.114638 
7527.000000	68.623661 
7526.000000	69.023251 
7525.000000	69.298839 
7524.000000	69.454240 
7523.000000	69.503331 
7522.000000	69.460368 
7521.000000	69.331169 
7520.000000	69.114542 
7519.000000	68.800830 
7518.000000	68.372988 
7517.000000	67.815566 
7516.000000	67.125558 
7515.000000	66.322207 
7514.000000	65.451073 
7513.000000	64.582633 
7512.000000	63.799643 
7511.000000	63.185214 
7510.000000	62.803959 
7509.000000	62.691259 
7508.000000	62.837004 
7507.000000	63.196849 
7506.000000	63.700652 
7505.000000	64.267158 
7504.000000	64.815855 
7503.000000	65.281987 
7502.000000	65.621566 
7501.000000	65.814280 
7500.000000	65.857386 
7499.000000	65.764236 
7498.000000	65.556049 
7497.000000	65.263819 
7496.000000	64.924812 
7495.000000	64.584279 
7494.000000	64.291453 
7493.000000	64.098119 
7492.000000	64.049148 
7491.000000	64.170861 
7490.000000	64.463305 
7489.000000	64.899134 
7488.000000	65.424466 
7487.000000	65.969538 
7486.000000	66.455769 
7485.000000	66.818666 
7484.000000	67.005300 
7483.000000	66.981601 
7482.000000	66.730976 
7481.000000	66.258525 
7480.000000	65.586400 
7479.000000	64.747977 
7478.000000	63.794946 
7477.000000	62.794709 
7476.000000	61.830687 
7475.000000	60.994696 
7474.000000	60.376095 
7473.000000	60.045242 
7472.000000	60.045337 
7471.000000	60.382390 
7470.000000	61.020088 
7469.000000	61.882138 
7468.000000	62.872695 
7467.000000	63.891267 
7466.000000	64.848589 
7465.000000	65.677928 
7464.000000	66.338729 
7463.000000	66.816473 
7462.000000	67.114019 
7461.000000	67.247724 
7460.000000	67.241001 
7459.000000	67.122888 
7458.000000	66.933226 
7457.000000	66.716027 
7456.000000	66.524982 
7455.000000	66.407847 
7454.000000	66.412043 
7453.000000	66.559815 
7452.000000	66.846823 
7451.000000	67.234015 
7450.000000	67.657685 
7449.000000	68.037843 
7448.000000	68.296360 
7447.000000	68.374705 
7446.000000	68.249821 
7445.000000	67.933011 
7444.000000	67.465782 
7443.000000	66.909241 
7442.000000	66.329765 
7441.000000	65.784215 
7440.000000	65.310001 
7439.000000	64.924049 
7438.000000	64.624547 
7437.000000	64.396810 
7436.000000	64.224028 
7435.000000	64.086699 
7434.000000	63.977551 
7433.000000	63.901925 
7432.000000	63.884067 
7431.000000	63.945746 
7430.000000	64.114189 
7429.000000	64.411401 
7428.000000	64.848995 
7427.000000	65.419483 
7426.000000	66.093516 
7425.000000	66.823863 
7424.000000	67.546391 
7423.000000	68.191838 
7422.000000	68.693804 
7421.000000	69.000720 
7420.000000	69.086146 
7419.000000	68.955755 
7418.000000	68.645095 
7417.000000	68.213272 
7416.000000	67.736959 
7415.000000	67.297577 
7414.000000	66.970872 
7413.000000	66.813254 
7412.000000	66.858673 
7411.000000	67.108750 
7410.000000	67.529702 
7409.000000	68.052887 
7408.000000	68.587708 
7407.000000	69.033122 
7406.000000	69.294357 
7405.000000	69.300436 
7404.000000	69.015717 
7403.000000	68.449187 
7402.000000	67.650532 
7401.000000	66.704964 
7400.000000	65.714764 
7399.000000	64.786720 
7398.000000	64.014458 
7397.000000	63.467311 
7396.000000	63.179492 
7395.000000	63.155388 
7394.000000	63.374233 
7393.000000	63.796925 
7392.000000	64.370036 
7391.000000	65.040373 
7390.000000	65.757727 
7389.000000	66.478157 
7388.000000	67.161178 
7387.000000	67.775154 
7386.000000	68.293690 
7385.000000	68.699812 
7384.000000	68.982553 
7383.000000	69.135117 
7382.000000	69.153356 
7381.000000	69.043922 
7380.000000	68.820452 
7379.000000	68.506312 
7378.000000	68.131113 
7377.000000	67.732477 
7376.000000	67.348432 
7375.000000	67.020916 
7374.000000	66.780591 
7373.000000	66.644620 
7372.000000	66.609025 
7371.000000	66.650366 
7370.000000	66.730284 
7369.000000	66.802501 
7368.000000	66.826963 
7367.000000	66.777229 
7366.000000	66.648864 
7365.000000	66.458773 
7364.000000	66.237950 
7363.000000	66.020894 
7362.000000	65.837454 
7361.000000	65.705084 
7360.000000	65.633678 
7359.000000	65.627527 
7358.000000	65.692806 
7357.000000	65.838027 
7356.000000	66.077589 
7355.000000	66.420269 
7354.000000	66.864204 
7353.000000	67.381834 
7352.000000	67.915272 
7351.000000	68.380331 
7350.000000	68.679881 
7349.000000	68.727159 
7348.000000	68.472623 
7347.000000	67.915058 
7346.000000	67.113494 
7345.000000	66.166734 
7344.000000	65.195775 
7343.000000	64.312171 
7342.000000	63.592815 
7341.000000	63.071632 
7340.000000	62.740707 
7339.000000	62.562918 
7338.000000	62.491583 
7337.000000	62.485480 
7336.000000	62.520551 
7335.000000	62.593817 
7334.000000	62.717628 
7333.000000	62.914109 
7332.000000	63.202905 
7331.000000	63.594770 
7330.000000	64.084601 
7329.000000	64.654111 
7328.000000	65.270805 
7327.000000	65.897417 
7326.000000	66.490054 
7325.000000	67.008852 
7324.000000	67.412805 
7323.000000	67.667627 
7322.000000	67.741751 
7321.000000	67.618131 
7320.000000	67.288875 
7319.000000	66.767144 
7318.000000	66.078925 
7317.000000	65.266275 
7316.000000	64.382410 
7315.000000	63.488554 
7314.000000	62.650847 
7313.000000	61.931729 
7312.000000	61.390209 
7311.000000	61.075305 
7310.000000	61.016631 
7309.000000	61.215734 
7308.000000	61.646699 
7307.000000	62.256264 
7306.000000	62.969923 
7305.000000	63.701391 
7304.000000	64.364528 
7303.000000	64.885354 
7302.000000	65.212965 
7301.000000	65.324473 
7300.000000	65.226554 
7299.000000	64.948916 
7298.000000	64.537286 
7297.000000	64.042401 
7296.000000	63.515400 
7295.000000	62.998819 
7294.000000	62.530040 
7293.000000	62.134575 
7292.000000	61.831927 
7291.000000	61.631846 
7290.000000	61.534976 
7289.000000	61.535882 
7288.000000	61.617469 
7287.000000	61.764383 
7286.000000	61.959671 
7285.000000	62.194800 
7284.000000	62.465929 
7283.000000	62.773394 
7282.000000	63.114333 
7281.000000	63.481688 
7280.000000	63.860726 
7279.000000	64.227414 
7278.000000	64.552092 
7277.000000	64.807891 
7276.000000	64.977860 
7275.000000	65.062379 
7274.000000	65.080142 
7273.000000	65.064954 
7272.000000	65.057539 
7271.000000	65.099430 
7270.000000	65.218663 
7269.000000	65.424418 
7268.000000	65.700197 
7267.000000	66.013455 
7266.000000	66.315054 
7265.000000	66.558456 
7264.000000	66.699314 
7263.000000	66.707253 
7262.000000	66.567587 
7261.000000	66.284179 
7260.000000	65.879082 
7259.000000	65.387201 
7258.000000	64.856338 
7257.000000	64.340162 
7256.000000	63.893818 
7255.000000	63.566446 
7254.000000	63.395833 
7253.000000	63.402938 
7252.000000	63.589024 
7251.000000	63.934707 
7250.000000	64.399838 
7249.000000	64.928269 
7248.000000	65.454840 
7247.000000	65.914869 
7246.000000	66.251230 
7245.000000	66.423940 
7244.000000	66.417360 
7243.000000	66.239619 
7242.000000	65.920972 
7241.000000	65.503883 
7240.000000	65.037965 
7239.000000	64.567422 
7238.000000	64.126062 
7237.000000	63.734769 
7236.000000	63.405895 
7235.000000	63.145327 
7234.000000	62.955880 
7233.000000	62.843537 
7232.000000	62.816476 
7231.000000	62.885236 
7230.000000	63.055014 
7229.000000	63.324785 
7228.000000	63.680505 
7227.000000	64.097642 
7226.000000	64.541554 
7225.000000	64.973306 
7224.000000	65.355205 
7223.000000	65.659689 
7222.000000	65.872383 
7221.000000	65.993857 
7220.000000	66.035056 
7219.000000	66.016626 
7218.000000	65.957045 
7217.000000	65.871357 
7216.000000	65.760779 
7215.000000	65.618538 
7214.000000	65.426564 
7213.000000	65.166497 
7212.000000	64.823865 
7211.000000	64.398097 
7210.000000	63.905668 
7209.000000	63.376331 
7208.000000	62.855505 
7207.000000	62.396693 
7206.000000	62.050652 
7205.000000	61.851954 
7204.000000	61.814689 
7203.000000	61.928606 
7202.000000	62.159800 
7201.000000	62.457680 
7200.000000	62.763571 
7199.000000	63.021707 
7198.000000	63.195514 
7197.000000	63.274502 
7196.000000	63.272094 
7195.000000	63.220596 
7194.000000	63.166475 
7193.000000	63.155174 
7192.000000	63.216567 
7191.000000	63.356781 
7190.000000	63.559150 
7189.000000	63.789105 
7188.000000	64.002609 
7187.000000	64.163899 
7186.000000	64.252614 
7185.000000	64.278483 
7184.000000	64.275670 
7183.000000	64.301323 
7182.000000	64.417719 
7181.000000	64.677381 
7180.000000	65.110015 
7179.000000	65.705275 
7178.000000	66.413712 
7177.000000	67.150306 
7176.000000	67.817306 
7175.000000	68.314313 
7174.000000	68.561744 
7173.000000	68.514227 
7172.000000	68.170905 
7171.000000	67.566466 
7170.000000	66.762566 
7169.000000	65.834403 
7168.000000	64.856934 
7167.000000	63.896679 
7166.000000	63.004922 
7165.000000	62.218427 
7164.000000	61.560654 
7163.000000	61.047124 
7162.000000	60.688376 
7161.000000	60.485315 
7160.000000	60.435390 
7159.000000	60.522890 
7158.000000	60.728025 
7157.000000	61.015605 
7156.000000	61.350798 
7155.000000	61.693310 
7154.000000	62.013411 
7153.000000	62.288475 
7152.000000	62.512969 
7151.000000	62.692451 
7150.000000	62.844848 
7149.000000	62.990999 
7148.000000	63.153648 
7147.000000	63.350987 
7146.000000	63.592600 
7145.000000	63.876581 
7144.000000	64.191031 
7143.000000	64.515447 
7142.000000	64.822173 
7141.000000	65.080356 
7140.000000	65.260529 
7139.000000	65.339207 
7138.000000	65.304398 
7137.000000	65.159130 
7136.000000	64.917039 
7135.000000	64.607477 
7134.000000	64.271926 
7133.000000	63.962721 
7132.000000	63.734459 
7131.000000	63.637757 
7130.000000	63.711810 
7129.000000	63.973927 
7128.000000	64.416885 
7127.000000	65.003681 
7126.000000	65.672540 
7125.000000	66.345596 
7124.000000	66.943311 
7123.000000	67.395949 
7122.000000	67.654776 
7121.000000	67.700695 
7120.000000	67.545890 
7119.000000	67.227458 
7118.000000	66.798043 
7117.000000	66.314363 
7116.000000	65.826535 
7115.000000	65.372109 
7114.000000	64.972329 
7113.000000	64.634275 
7112.000000	64.353513 
7111.000000	64.122104 
7110.000000	63.931322 
7109.000000	63.773179 
7108.000000	63.642239 
7107.000000	63.530063 
7106.000000	63.429260 
7105.000000	63.329434 
7104.000000	63.222908 
7103.000000	63.101887 
7102.000000	62.964844 
7101.000000	62.816214 
7100.000000	62.666511 
7099.000000	62.530207 
7098.000000	62.420320 
7097.000000	62.343406 
7096.000000	62.298607 
7095.000000	62.276983 
7094.000000	62.264990 
7093.000000	62.247896 
7092.000000	62.216997 
7091.000000	62.172675 
7090.000000	62.128090 
7089.000000	62.106823 
7088.000000	62.137413 
7087.000000	62.245941 
7086.000000	62.449312 
7085.000000	62.748670 
7084.000000	63.129401 
7083.000000	63.559341 
7082.000000	63.996028 
7081.000000	64.389896 
7080.000000	64.694404 
7079.000000	64.871501 
7078.000000	64.898300 
7077.000000	64.771938 
7076.000000	64.506411 
7075.000000	64.138078 
7074.000000	63.717198 
7073.000000	63.308429 
7072.000000	62.979483 
7071.000000	62.795257 
7070.000000	62.807631 
7069.000000	63.045215 
7068.000000	63.508534 
7067.000000	64.163756 
7066.000000	64.947199 
7065.000000	65.772080 
7064.000000	66.542291 
7063.000000	67.169761 
7062.000000	67.588353 
7061.000000	67.765569 
7060.000000	67.702937 
7059.000000	67.432665 
7058.000000	67.003607 
7057.000000	66.473436 
7056.000000	65.890836 
7055.000000	65.291261 
7054.000000	64.690256 
7053.000000	64.095735 
7052.000000	63.508582 
7051.000000	62.933659 
7050.000000	62.384033 
7049.000000	61.879825 
7048.000000	61.451005 
7047.000000	61.128544 
7046.000000	60.939311 
7045.000000	60.890936 
7044.000000	60.974717 
7043.000000	61.160945 
7042.000000	61.406898 
7041.000000	61.662054 
7040.000000	61.879229 
7039.000000	62.021517 
7038.000000	62.068891 
7037.000000	62.019467 
7036.000000	61.887359 
7035.000000	61.698651 
7034.000000	61.484074 
7033.000000	61.275768 
7032.000000	61.106514 
7031.000000	61.007571 
7030.000000	61.007332 
7029.000000	61.127519 
7028.000000	61.381077 
7027.000000	61.764955 
7026.000000	62.262892 
7025.000000	62.836933 
7024.000000	63.428854 
7023.000000	63.966798 
7022.000000	64.378094 
7021.000000	64.602041 
7020.000000	64.601612 
7019.000000	64.374303 
7018.000000	63.955831 
7017.000000	63.412547 
7016.000000	62.828469 
7015.000000	62.290406 
7014.000000	61.872625 
7013.000000	61.624431 
7012.000000	61.565399 
7011.000000	61.683654 
7010.000000	61.943840 
7009.000000	62.291336 
7008.000000	62.666773 
7007.000000	63.013029 
7006.000000	63.289666 
7005.000000	63.481068 
7004.000000	63.599228 
7003.000000	63.678741 
7002.000000	63.764286 
7001.000000	63.898181 
7000.000000	64.103078 
6999.000000	64.377379 
6998.000000	64.688611 
6997.000000	64.986443 
6996.000000	65.209174 
6995.000000	65.306067 
6994.000000	65.244293 
6993.000000	65.020942 
6992.000000	64.661216 
6991.000000	64.212226 
6990.000000	63.734030 
6989.000000	63.285827 
6988.000000	62.917113 
6987.000000	62.658572 
6986.000000	62.523484 
6985.000000	62.509632 
6984.000000	62.604451 
6983.000000	62.790203 
6982.000000	63.043832 
6981.000000	63.339042 
6980.000000	63.645029 
6979.000000	63.928604 
6978.000000	64.155983 
6977.000000	64.298295 
6976.000000	64.335536 
6975.000000	64.262509 
6974.000000	64.091658 
6973.000000	63.852167 
6972.000000	63.585495 
6971.000000	63.337683 
6970.000000	63.151192 
6969.000000	63.057017 
6968.000000	63.070106 
6967.000000	63.186883 
6966.000000	63.390684 
6965.000000	63.651371 
6964.000000	63.933277 
6963.000000	64.198184 
6962.000000	64.411854 
6961.000000	64.546847 
6960.000000	64.584803 
6959.000000	64.519166 
6958.000000	64.354062 
6957.000000	64.108753 
6956.000000	63.815093 
6955.000000	63.513350 
6954.000000	63.246130 
6953.000000	63.051915 
6952.000000	62.958741 
6951.000000	62.979507 
6950.000000	63.111186 
6949.000000	63.334369 
6948.000000	63.619685 
6947.000000	63.935756 
6946.000000	64.253711 
6945.000000	64.552140 
6944.000000	64.814972 
6943.000000	65.030932 
6942.000000	65.188717 
6941.000000	65.275168 
6940.000000	65.276074 
6939.000000	65.178394 
6938.000000	64.977884 
6937.000000	64.685177 
6936.000000	64.328360 
6935.000000	63.952136 
6934.000000	63.610601 
6933.000000	63.358235 
6932.000000	63.236522 
6931.000000	63.265562 
6930.000000	63.435721 
6929.000000	63.709378 
6928.000000	64.029121 
6927.000000	64.331197 
6926.000000	64.558672 
6925.000000	64.674592 
6924.000000	64.668321 
6923.000000	64.556908 
6922.000000	64.378428 
6921.000000	64.181089 
6920.000000	64.009642 
6919.000000	63.894629 
6918.000000	63.848757 
6917.000000	63.864207 
6916.000000	63.920378 
6915.000000	63.989210 
6914.000000	64.046263 
6913.000000	64.076352 
6912.000000	64.076638 
6911.000000	64.056801 
6910.000000	64.032411 
6909.000000	64.021348 
6908.000000	64.036154 
6907.000000	64.080619 
6906.000000	64.148783 
6905.000000	64.223933 
6904.000000	64.283585 
6903.000000	64.303898 
6902.000000	64.266872 
6901.000000	64.163184 
6900.000000	63.995957 
6899.000000	63.780879 
6898.000000	63.544583 
6897.000000	63.320231 
6896.000000	63.142204 
6895.000000	63.038444 
6894.000000	63.026571 
6893.000000	63.112020 
6892.000000	63.287639 
6891.000000	63.533902 
6890.000000	63.824915 
6889.000000	64.132046 
6888.000000	64.430737 
6887.000000	64.701461 
6886.000000	64.933824 
6885.000000	65.125441 
6884.000000	65.279626 
6883.000000	65.402102 
6882.000000	65.496945 
6881.000000	65.565395 
6880.000000	65.604567 
6879.000000	65.611076 
6878.000000	65.581250 
6877.000000	65.515255 
6876.000000	65.418481 
6875.000000	65.303182 
6874.000000	65.185022 
6873.000000	65.080523 
6872.000000	65.002250 
6871.000000	64.955973 
6870.000000	64.940381 
6869.000000	64.947128 
6868.000000	64.963507 
6867.000000	64.974832 
6866.000000	64.968538 
6865.000000	64.934897 
6864.000000	64.870214 
6863.000000	64.774227 
6862.000000	64.646720 
6861.000000	64.489150 
6860.000000	64.302659 
6859.000000	64.092564 
6858.000000	63.867545 
6857.000000	63.643598 
6856.000000	63.441395 
6855.000000	63.286399 
6854.000000	63.203859 
6853.000000	63.212680 
6852.000000	63.318824 
6851.000000	63.514065 
6850.000000	63.776111 
6849.000000	64.070153 
6848.000000	64.354324 
6847.000000	64.587211 
6846.000000	64.735388 
6845.000000	64.776873 
6844.000000	64.705371 
6843.000000	64.530277 
6842.000000	64.276027 
6841.000000	63.977265 
6840.000000	63.675546 
6839.000000	63.412523 
6838.000000	63.226103 
6837.000000	63.146924 
6836.000000	63.193774 
6835.000000	63.371706 
6834.000000	63.670277 
6833.000000	64.065456 
6832.000000	64.520835 
6831.000000	64.991092 
6830.000000	65.428709 
6829.000000	65.789961 
6828.000000	66.041231 
6827.000000	66.163182 
6826.000000	66.152024 
6825.000000	66.020774 
6824.000000	65.790557 
6823.000000	65.487217 
6822.000000	65.134835 
6821.000000	64.754414 
6820.000000	64.361858 
6819.000000	63.970518 
6818.000000	63.592576 
6817.000000	63.242006 
6816.000000	62.935471 
6815.000000	62.692904 
6814.000000	62.529969 
6813.000000	62.459063 
6812.000000	62.485313 
6811.000000	62.607192 
6810.000000	62.811136 
6809.000000	63.076782 
6808.000000	63.377881 
6807.000000	63.687181 
6806.000000	63.977742 
6805.000000	64.227485 
6804.000000	64.418959 
6803.000000	64.543247 
6802.000000	64.598488 
6801.000000	64.591288 
6800.000000	64.535808 
6799.000000	64.450097 
6798.000000	64.354944 
6797.000000	64.266920 
6796.000000	64.197349 
6795.000000	64.149022 
6794.000000	64.118027 
6793.000000	64.095163 
6792.000000	64.069104 
6791.000000	64.032196 
6790.000000	63.980793 
6789.000000	63.911724 
6788.000000	63.820528 
6787.000000	63.701820 
6786.000000	63.548302 
6785.000000	63.350200 
6784.000000	63.100385 
6783.000000	62.796926 
6782.000000	62.449097 
6781.000000	62.078094 
6780.000000	61.717343 
6779.000000	61.403489 
6778.000000	61.174201 
6777.000000	61.058783 
6776.000000	61.073851 
6775.000000	61.215734 
6774.000000	61.465072 
6773.000000	61.788678 
6772.000000	62.147521 
6771.000000	62.502360 
6770.000000	62.821674 
6769.000000	63.084769 
6768.000000	63.284635 
6767.000000	63.425350 
6766.000000	63.521814 
6765.000000	63.594007 
6764.000000	63.665223 
6763.000000	63.755035 
6762.000000	63.877534 
6761.000000	64.034461 
6760.000000	64.218902 
6759.000000	64.410185 
6758.000000	64.578247 
6757.000000	64.686203 
6756.000000	64.699745 
6755.000000	64.594221 
6754.000000	64.359760 
6753.000000	64.008784 
6752.000000	63.575553 
6751.000000	63.113284 
6750.000000	62.683629 
6749.000000	62.346935 
6748.000000	62.150669 
6747.000000	62.119555 
6746.000000	62.251520 
6745.000000	62.517690 
6744.000000	62.869477 
6743.000000	63.247442 
6742.000000	63.593602 
6741.000000	63.860583 
6740.000000	64.018392 
6739.000000	64.060497 
6738.000000	64.001917 
6737.000000	63.871812 
6736.000000	63.705301 
6735.000000	63.537096 
6734.000000	63.394284 
6733.000000	63.293981 
6732.000000	63.242101 
6731.000000	63.237619 
6730.000000	63.274240 
6729.000000	63.346266 
6728.000000	63.448095 
6727.000000	63.574528 
6726.000000	63.719105 
6725.000000	63.871407 
6724.000000	64.018321 
6723.000000	64.142870 
6722.000000	64.229798 
6721.000000	64.268660 
6720.000000	64.257311 
6719.000000	64.203190 
6718.000000	64.122271 
6717.000000	64.037442 
6716.000000	63.969445 
6715.000000	63.932347 
6714.000000	63.927531 
6713.000000	63.943624 
6712.000000	63.959765 
6711.000000	63.952946 
6710.000000	63.902926 
6709.000000	63.800191 
6708.000000	63.651823 
6707.000000	63.481163 
6706.000000	63.321495 
6705.000000	63.208723 
6704.000000	63.170886 
6703.000000	63.221955 
6702.000000	63.357400 
6701.000000	63.556194 
6700.000000	63.786220 
6699.000000	64.012432 
6698.000000	64.205598 
6697.000000	64.347529 
6696.000000	64.433598 
6695.000000	64.471149 
6694.000000	64.474010 
6693.000000	64.457583 
6692.000000	64.434146 
6691.000000	64.408326 
6690.000000	64.378237 
6689.000000	64.334678 
6688.000000	64.266705 
6687.000000	64.163374 
6686.000000	64.019227 
6685.000000	63.833689 
6684.000000	63.612890 
6683.000000	63.368725 
6682.000000	63.117909 
6681.000000	62.878060 
6680.000000	62.665939 
6679.000000	62.495994 
6678.000000	62.378406 
6677.000000	62.316870 
6676.000000	62.309026 
6675.000000	62.346243 
6674.000000	62.416434 
6673.000000	62.503814 
6672.000000	62.594127 
6671.000000	62.675285 
6670.000000	62.740278 
6669.000000	62.786364 
6668.000000	62.815117 
6667.000000	62.829613 
6666.000000	62.833452 
6665.000000	62.829327 
6664.000000	62.817692 
6663.000000	62.796783 
6662.000000	62.765026 
6661.000000	62.722802 
6660.000000	62.674450 
6659.000000	62.628889 
6658.000000	62.599706 
6657.000000	62.602591 
6656.000000	62.652444 
6655.000000	62.759780 
6654.000000	62.925934 
6653.000000	63.142371 
6652.000000	63.392925 
6651.000000	63.656640 
6650.000000	63.910031 
6649.000000	64.133238 
6648.000000	64.314007 
6647.000000	64.449572 
6646.000000	64.546084 
6645.000000	64.615201 
6644.000000	64.671277 
6643.000000	64.725160 
6642.000000	64.783573 
6641.000000	64.844679 
6640.000000	64.902734 
6639.000000	64.945769 
6638.000000	64.962172 
6637.000000	64.940953 
6636.000000	64.877486 
6635.000000	64.771366 
6634.000000	64.627814 
6633.000000	64.456057 
6632.000000	64.268636 
6631.000000	64.083147 
6630.000000	63.921141 
6629.000000	63.807344 
6628.000000	63.765907 
6627.000000	63.816857 
6626.000000	63.970518 
6625.000000	64.224028 
6624.000000	64.558029 
6623.000000	64.938974 
6622.000000	65.322113 
6621.000000	65.656876 
6620.000000	65.897440 
6619.000000	66.010928 
6618.000000	65.986585 
6617.000000	65.833759 
6616.000000	65.586686 
6615.000000	65.298295 
6614.000000	65.029430 
6613.000000	64.839267 
6612.000000	64.768791 
6611.000000	64.836025 
6610.000000	65.026855 
6609.000000	65.301370 
6608.000000	65.599942 
6607.000000	65.859127 
6606.000000	66.024279 
6605.000000	66.062188 
6604.000000	65.970873 
6603.000000	65.778446 
6602.000000	65.537571 
6601.000000	65.310502 
6600.000000	65.153574 
6599.000000	65.100908 
6598.000000	65.159988 
6597.000000	65.306687 
6596.000000	65.494179 
6595.000000	65.662741 
6594.000000	65.757250 
6593.000000	65.739774 
6592.000000	65.596914 
6591.000000	65.344381 
6590.000000	65.018749 
6589.000000	64.671373 
6588.000000	64.354753 
6587.000000	64.110708 
6586.000000	63.963580 
6585.000000	63.912367 
6584.000000	63.935828 
6583.000000	63.994956 
6582.000000	64.046096 
6581.000000	64.048385 
6580.000000	63.973641 
6579.000000	63.813138 
6578.000000	63.578271 
6577.000000	63.302421 
6576.000000	63.032841 
6575.000000	62.821388 
6574.000000	62.712383 
6573.000000	62.732934 
6572.000000	62.886738 
6571.000000	63.152718 
6570.000000	63.491487 
6569.000000	63.853549 
6568.000000	64.193153 
6567.000000	64.477324 
6566.000000	64.693737 
6565.000000	64.847517 
6564.000000	64.959621 
6563.000000	65.056633 
6562.000000	65.162587 
6561.000000	65.292406 
6560.000000	65.445828 
6559.000000	65.612077 
6558.000000	65.768361 
6557.000000	65.890502 
6556.000000	65.955901 
6555.000000	65.953516 
6554.000000	65.881419 
6553.000000	65.747594 
6552.000000	65.569043 
6551.000000	65.368390 
6550.000000	65.171623 
6549.000000	65.003585 
6548.000000	64.886808 
6547.000000	64.837098 
6546.000000	64.858484 
6545.000000	64.943385 
6544.000000	65.072727 
6543.000000	65.222644 
6542.000000	65.368485 
6541.000000	65.493202 
6540.000000	65.590119 
6539.000000	65.664029 
6538.000000	65.729761 
6537.000000	65.803837 
6536.000000	65.896654 
6535.000000	66.007852 
6534.000000	66.126441 
6533.000000	66.231298 
6532.000000	66.296458 
6531.000000	66.300559 
6530.000000	66.235280 
6529.000000	66.108822 
6528.000000	65.945339 
6527.000000	65.780854 
6526.000000	65.654611 
6525.000000	65.599989 
6524.000000	65.635895 
6523.000000	65.766572 
6522.000000	65.981054 
6521.000000	66.258549 
6520.000000	66.572666 
6519.000000	66.895985 
6518.000000	67.203783 
6517.000000	67.475652 
6516.000000	67.696142 
6515.000000	67.854809 
6514.000000	67.944693 
6513.000000	67.963695 
6512.000000	67.911648 
6511.000000	67.794394 
6510.000000	67.618989 
6509.000000	67.398309 
6508.000000	67.144966 
6507.000000	66.874074 
6506.000000	66.598701 
6505.000000	66.332006 
6504.000000	66.083836 
6503.000000	65.861964 
6502.000000	65.671133 
6501.000000	65.513753 
6500.000000	65.389800 
6499.000000	65.297293 
6498.000000	65.231990 
6497.000000	65.187454 
6496.000000	65.158271 
6495.000000	65.140461 
6494.000000	65.132260 
6493.000000	65.133118 
6492.000000	65.143489 
6491.000000	65.162539 
6490.000000	65.185832 
6489.000000	65.205621 
6488.000000	65.211534 
6487.000000	65.193963 
6486.000000	65.144038 
6485.000000	65.060234 
6484.000000	64.949750 
6483.000000	64.829897 
6482.000000	64.723873 
6481.000000	64.657425 
6480.000000	64.652132 
6479.000000	64.720344 
6478.000000	64.862084 
6477.000000	65.063047 
6476.000000	65.296888 
6475.000000	65.530514 
6474.000000	65.731811 
6473.000000	65.873432 
6472.000000	65.937590 
6471.000000	65.918445 
6470.000000	65.822172 
6469.000000	65.664935 
6468.000000	65.469145 
6467.000000	65.259861 
6466.000000	65.060234 
6465.000000	64.890098 
6464.000000	64.762473 
6463.000000	64.683341 
6462.000000	64.650583 
6461.000000	64.655280 
6460.000000	64.683532 
6459.000000	64.717602 
6458.000000	64.741396 
6457.000000	64.741277 
6456.000000	64.711809 
6455.000000	64.654517 
6454.000000	64.579987 
6453.000000	64.502573 
6452.000000	64.439320 
6451.000000	64.406132 
6450.000000	64.412403 
6449.000000	64.458823 
6448.000000	64.536619 
6447.000000	64.631390 
6446.000000	64.722061 
6445.000000	64.786195 
6444.000000	64.802861 
6443.000000	64.757323 
6442.000000	64.642810 
6441.000000	64.462041 
6440.000000	64.226222 
6439.000000	63.953137 
6438.000000	63.663458 
6437.000000	63.378047 
6436.000000	63.116025 
6435.000000	62.893342 
6434.000000	62.719941 
6433.000000	62.601423 
6432.000000	62.538576 
6431.000000	62.530851 
6430.000000	62.573647 
6429.000000	62.664127 
6428.000000	62.795662 
6427.000000	62.965607 
6426.000000	63.170480 
6425.000000	63.410449 
6424.000000	63.683199 
6423.000000	63.987112 
6422.000000	64.318346 
6421.000000	64.669156 
6420.000000	65.026879 
6419.000000	65.373110 
6418.000000	65.685772 
6417.000000	65.941667 
6416.000000	66.121435 
6415.000000	66.214728 
6414.000000	66.223406 
6413.000000	66.163158 
6412.000000	66.060805 
6411.000000	65.949440 
6410.000000	65.860748 
6409.000000	65.820956 
6408.000000	65.843653 
6407.000000	65.928077 
6406.000000	66.058802 
6405.000000	66.213774 
6404.000000	66.366243 
6403.000000	66.491961 
6402.000000	66.571474 
6401.000000	66.593933 
6400.000000	66.555881 
6399.000000	66.460466 
6398.000000	66.315293 
6397.000000	66.129493 
6396.000000	65.913867 
6395.000000	65.681481 
6394.000000	65.445494 
6393.000000	65.220451 
6392.000000	65.018153 
6391.000000	64.847660 
6390.000000	64.711713 
6389.000000	64.607071 
6388.000000	64.526486 
6387.000000	64.462065 
6386.000000	64.407801 
6385.000000	64.362645 
6384.000000	64.332103 
6383.000000	64.327502 
6382.000000	64.361667 
6381.000000	64.444756 
6380.000000	64.580273 
6379.000000	64.760971 
6378.000000	64.968943 
6377.000000	65.176963 
6376.000000	65.353584 
6375.000000	65.469741 
6374.000000	65.504026 
6373.000000	65.449500 
6372.000000	65.315055 
6371.000000	65.125346 
6370.000000	64.913940 
6369.000000	64.719152 
6368.000000	64.576387 
6367.000000	64.511895 
6366.000000	64.538073 
6365.000000	64.652705 
6364.000000	64.841079 
6363.000000	65.079927 
6362.000000	65.343189 
6361.000000	65.606141 
6360.000000	65.849041 
6359.000000	66.060066 
6358.000000	66.234540 
6357.000000	66.371655 
6356.000000	66.471552 
6355.000000	66.535091 
6354.000000	66.560840 
6353.000000	66.547250 
6352.000000	66.491174 
6351.000000	66.394352 
6350.000000	66.259837 
6349.000000	66.095781 
6348.000000	65.911149 
6347.000000	65.717864 
6346.000000	65.525317 
6345.000000	65.342068 
6344.000000	65.170979 
6343.000000	65.010190 
6342.000000	64.853286 
6341.000000	64.692234 
6340.000000	64.520025 
6339.000000	64.332270 
6338.000000	64.131855 
6337.000000	63.928079 
6336.000000	63.738989 
6335.000000	63.587117 
6334.000000	63.496851 
6333.000000	63.488197 
6332.000000	63.571310 
6331.000000	63.743233 
6330.000000	63.987350 
6329.000000	64.276766 
6328.000000	64.575886 
6327.000000	64.849972 
6326.000000	65.072917 
6325.000000	65.232253 
6324.000000	65.330576 
6323.000000	65.381479 
6322.000000	65.405774 
6321.000000	65.420818 
6320.000000	65.437459 
6319.000000	65.453076 
6318.000000	65.453553 
6317.000000	65.417695 
6316.000000	65.328335 
6315.000000	65.177392 
6314.000000	64.970731 
6313.000000	64.731907 
6312.000000	64.498925 
6311.000000	64.315533 
6310.000000	64.220166 
6309.000000	64.236378 
6308.000000	64.365673 
6307.000000	64.586329 
6306.000000	64.857316 
6305.000000	65.126800 
6304.000000	65.343594 
6303.000000	65.467786 
6302.000000	65.478730 
6301.000000	65.377473 
6300.000000	65.184617 
6299.000000	64.932751 
6298.000000	64.659023 
6297.000000	64.395093 
6296.000000	64.163923 
6295.000000	63.978195 
6294.000000	63.843369 
6293.000000	63.758969 
6292.000000	63.726353 
6291.000000	63.751363 
6290.000000	63.844156 
6289.000000	64.014291 
6288.000000	64.266467 
6287.000000	64.594435 
6286.000000	64.976692 
6285.000000	65.376806 
6284.000000	65.746593 
6283.000000	66.034388 
6282.000000	66.195654 
6281.000000	66.203474 
6280.000000	66.053295 
6279.000000	65.765237 
6278.000000	65.382599 
6277.000000	64.963579 
6276.000000	64.569854 
6275.000000	64.254283 
6274.000000	64.054489 
6273.000000	63.984370 
6272.000000	64.035868 
6271.000000	64.179921 
6270.000000	64.374971 
6269.000000	64.574837 
6268.000000	64.737462 
6267.000000	64.832687 
6266.000000	64.843153 
6265.000000	64.768600 
6264.000000	64.619755 
6263.000000	64.418721 
6262.000000	64.190721 
6261.000000	63.963055 
6260.000000	63.760900 
6259.000000	63.604784 
6258.000000	63.509178 
6257.000000	63.481235 
6256.000000	63.521528 
6255.000000	63.624215 
6254.000000	63.778328 
6253.000000	63.972306 
6252.000000	64.195561 
6251.000000	64.439201 
6250.000000	64.695572 
6249.000000	64.958262 
6248.000000	65.219736 
6247.000000	65.470433 
6246.000000	65.696907 
6245.000000	65.883398 
6244.000000	66.012024 
6243.000000	66.070675 
6242.000000	66.051077 
6241.000000	65.953373 
6240.000000	65.783619 
6239.000000	65.557622 
6238.000000	65.294551 
6237.000000	65.015745 
6236.000000	64.740967 
6235.000000	64.487028 
6234.000000	64.267516 
6233.000000	64.092898 
6232.000000	63.971257 
6231.000000	63.908624 
6230.000000	63.907361 
6229.000000	63.964796 
6228.000000	64.072656 
6227.000000	64.216208 
6226.000000	64.376378 
6225.000000	64.531683 
6224.000000	64.660859 
6223.000000	64.745903 
6222.000000	64.775371 
6221.000000	64.746069 
6220.000000	64.661145 
6219.000000	64.531159 
6218.000000	64.373326 
6217.000000	64.209914 
6216.000000	64.064526 
6215.000000	63.959717 
6214.000000	63.913917 
6213.000000	63.938188 
6212.000000	64.035558 
6211.000000	64.198827 
6210.000000	64.410805 
6209.000000	64.647603 
6208.000000	64.881706 
6207.000000	65.088009 
6206.000000	65.247035 
6205.000000	65.349555 
6204.000000	65.397429 
6203.000000	65.400838 
6202.000000	65.374517 
6201.000000	65.333271 
6200.000000	65.288376 
6199.000000	65.244221 
6198.000000	65.198183 
6197.000000	65.141916 
6196.000000	65.064740 
6195.000000	64.956712 
6194.000000	64.813685 
6193.000000	64.637327 
6192.000000	64.439511 
6191.000000	64.240479 
6190.000000	64.068365 
6189.000000	63.952231 
6188.000000	63.917779 
6187.000000	63.981175 
6186.000000	64.144325 
6185.000000	64.393782 
6184.000000	64.700675 
6183.000000	65.024709 
6182.000000	65.321946 
6181.000000	65.552663 
6180.000000	65.689063 
6179.000000	65.719389 
6178.000000	65.650129 
6177.000000	65.503382 
6176.000000	65.310645 
6175.000000	65.105676 
6174.000000	64.916205 
6173.000000	64.759373 
6172.000000	64.640045 
6171.000000	64.552760 
6170.000000	64.485931 
6169.000000	64.426827 
6168.000000	64.365172 
6167.000000	64.296483 
6166.000000	64.221262 
6165.000000	64.145159 
6164.000000	64.074516 
6163.000000	64.016270 
6162.000000	63.973593 
6161.000000	63.948321 
6160.000000	63.938140 
6159.000000	63.942289 
6158.000000	63.961195 
6157.000000	63.999938 
6156.000000	64.066052 
6155.000000	64.169311 
6154.000000	64.317703 
6153.000000	64.513731 
6152.000000	64.751839 
6151.000000	65.015745 
6150.000000	65.279626 
6149.000000	65.513277 
6148.000000	65.688967 
6147.000000	65.786027 
6146.000000	65.795731 
6145.000000	65.722918 
6144.000000	65.584897 
6143.000000	65.408349 
6142.000000	65.223455 
6141.000000	65.057325 
6140.000000	64.929175 
6139.000000	64.849233 
6138.000000	64.818334 
6137.000000	64.829325 
6136.000000	64.871764 
6135.000000	64.934825 
6134.000000	65.012311 
6133.000000	65.102314 
6132.000000	65.208077 
6131.000000	65.333795 
6130.000000	65.482282 
6129.000000	65.651822 
6128.000000	65.832638 
6127.000000	66.008067 
6126.000000	66.154766 
6125.000000	66.249394 
6124.000000	66.270995 
6123.000000	66.207551 
6122.000000	66.058158 
6121.000000	65.835309 
6120.000000	65.562295 
6119.000000	65.269660 
6118.000000	64.990639 
6117.000000	64.755773 
6116.000000	64.587712 
6115.000000	64.498448 
6114.000000	64.488959 
6113.000000	64.550662 
6112.000000	64.668202 
6111.000000	64.823293 
6110.000000	64.996504 
6109.000000	65.170526 
6108.000000	65.330719 
6107.000000	65.465736 
6106.000000	65.565991 
6105.000000	65.624070 
6104.000000	65.634608 
6103.000000	65.594696 
6102.000000	65.505266 
6101.000000	65.371465 
6100.000000	65.204501 
6099.000000	65.019512 
6098.000000	64.835309 
6097.000000	64.670038 
6096.000000	64.539003 
6095.000000	64.451241 
6094.000000	64.408731 
6093.000000	64.405775 
6092.000000	64.430999 
6091.000000	64.471268 
6090.000000	64.515256 
6089.000000	64.556169 
6088.000000	64.593052 
6087.000000	64.629006 
6086.000000	64.669179 
6085.000000	64.718174 
6084.000000	64.777827 
6083.000000	64.845132 
6082.000000	64.913439 
6081.000000	64.974045 
6080.000000	65.019464 
6079.000000	65.046763 
6078.000000	65.058445 
6077.000000	65.062427 
6076.000000	65.069556 
6075.000000	65.091133 
6074.000000	65.134716 
6073.000000	65.202021 
6072.000000	65.287113 
6071.000000	65.378379 
6070.000000	65.460181 
6069.000000	65.518045 
6068.000000	65.539884 
6067.000000	65.519142 
6066.000000	65.456247 
6065.000000	65.358901 
6064.000000	65.240216 
6063.000000	65.115928 
6062.000000	65.002369 
6061.000000	64.912939 
6060.000000	64.856004 
6059.000000	64.833331 
6058.000000	64.839863 
6057.000000	64.865708 
6056.000000	64.898729 
6055.000000	64.927864 
6054.000000	64.944624 
6053.000000	64.946007 
6052.000000	64.933753 
6051.000000	64.914369 
6050.000000	64.895820 
6049.000000	64.885973 
6048.000000	64.889979 
6047.000000	64.909386 
6046.000000	64.941573 
6045.000000	64.981222 
6044.000000	65.022134 
6043.000000	65.059232 
6042.000000	65.090227 
6041.000000	65.115499 
6040.000000	65.137529 
6039.000000	65.159392 
6038.000000	65.183377 
6037.000000	65.210056 
6036.000000	65.237665 
6035.000000	65.262603 
6034.000000	65.280222 
6033.000000	65.285992 
6032.000000	65.276765 
6031.000000	65.251946 
6030.000000	65.213990 
6029.000000	65.167474 
6028.000000	65.118837 
6027.000000	65.074872 
6026.000000	65.041828 
6025.000000	65.024518 
6024.000000	65.025353 
6023.000000	65.043783 
6022.000000	65.077066 
6021.000000	65.120315 
6020.000000	65.168595 
6019.000000	65.216970 
6018.000000	65.262556 
6017.000000	65.304422 
6016.000000	65.343904 
6015.000000	65.383672 
6014.000000	65.425968 
6013.000000	65.471291 
6012.000000	65.517210 
6011.000000	65.558505 
6010.000000	65.587973 
6009.000000	65.598368 
6008.000000	65.584611 
6007.000000	65.545630 
6006.000000	65.485429 
6005.000000	65.412259 
6004.000000	65.336918 
6003.000000	65.269899 
6002.000000	65.218472 
6001.000000	65.184950 
6000.000000	65.166497 
5999.000000	65.156364 
5998.000000	65.145993 
5997.000000	65.128636 
5996.000000	65.101432 
5995.000000	65.067028 
5994.000000	65.032219 
5993.000000	65.006780 
5992.000000	64.998936 
5991.000000	65.014290 
5990.000000	65.053319 
5989.000000	65.111637 
5988.000000	65.180635 
5987.000000	65.250754 
5986.000000	65.314078 
5985.000000	65.365576 
5984.000000	65.403938 
5983.000000	65.430402 
5982.000000	65.447354 
5981.000000	65.456032 
5980.000000	65.455865 
5979.000000	65.444755 
5978.000000	65.420627 
5977.000000	65.383434 
5976.000000	65.336894 
5975.000000	65.289664 
5974.000000	65.253639 
5973.000000	65.241837 
5972.000000	65.263915 
5971.000000	65.323376 
5970.000000	65.414690 
5969.000000	65.524697 
5968.000000	65.634036 
5967.000000	65.721607 
5966.000000	65.769553 
5965.000000	65.768289 
5964.000000	65.717506 
5963.000000	65.626001 
5962.000000	65.508890 
5961.000000	65.384197 
5960.000000	65.267920 
5959.000000	65.170884 
5958.000000	65.097284 
5957.000000	65.045046 
5956.000000	65.008783 
5955.000000	64.982628 
5954.000000	64.961743 
5953.000000	64.943623 
5952.000000	64.927959 
5951.000000	64.916014 
5950.000000	64.907312 
5949.000000	64.899849 
5948.000000	64.889335 
5947.000000	64.871358 
5946.000000	64.841818 
5945.000000	64.800381 
5944.000000	64.750838 
5943.000000	64.702486 
5942.000000	64.666771 
5941.000000	64.657068 
5940.000000	64.684891 
5939.000000	64.757990 
5938.000000	64.877676 
5937.000000	65.037846 
5936.000000	65.225982 
5935.000000	65.423893 
5934.000000	65.611505 
5933.000000	65.768289 
5932.000000	65.876817 
5931.000000	65.924811 
5930.000000	65.907430 
5929.000000	65.826344 
5928.000000	65.689682 
5927.000000	65.511846 
5926.000000	65.311479 
5925.000000	65.109348 
5924.000000	64.924740 
5923.000000	64.774227 
5922.000000	64.667701 
5921.000000	64.607667 
5920.000000	64.588212 
5919.000000	64.596056 
5918.000000	64.614129 
5917.000000	64.624333 
5916.000000	64.613294 
5915.000000	64.573097 
5914.000000	64.505648 
5913.000000	64.419984 
5912.000000	64.332270 
5911.000000	64.259719 
5910.000000	64.218544 
5909.000000	64.218783 
5908.000000	64.263343 
5907.000000	64.347004 
5906.000000	64.459085 
5905.000000	64.586162 
5904.000000	64.714837 
5903.000000	64.834284 
5902.000000	64.937472 
5901.000000	65.021038 
5900.000000	65.083765 
5899.000000	65.125131 
5898.000000	65.144920 
5897.000000	65.142416 
5896.000000	65.118098 
5895.000000	65.073204 
5894.000000	65.009665 
5893.000000	64.930629 
5892.000000	64.842462 
5891.000000	64.753437 
5890.000000	64.672589 
5889.000000	64.608788 
5888.000000	64.569735 
5887.000000	64.560413 
5886.000000	64.581727 
5885.000000	64.630436 
5884.000000	64.699077 
5883.000000	64.778113 
5882.000000	64.857482 
5881.000000	64.928722 
5880.000000	64.986014 
5879.000000	65.026831 
5878.000000	65.051364 
5877.000000	65.061521 
5876.000000	65.059804 
5875.000000	65.047454 
5874.000000	65.024614 
5873.000000	64.990401 
5872.000000	64.944839 
5871.000000	64.891505 
5870.000000	64.838552 
5869.000000	64.797973 
5868.000000	64.783453 
5867.000000	64.807653 
5866.000000	64.877915 
5865.000000	64.992904 
5864.000000	65.142011 
5863.000000	65.307831 
5862.000000	65.468549 
5861.000000	65.603041 
5860.000000	65.694665 
5859.000000	65.734624 
5858.000000	65.723156 
5857.000000	65.668725 
5856.000000	65.585756 
5855.000000	65.490221 
5854.000000	65.397620 
5853.000000	65.320110 
5852.000000	65.265560 
5851.000000	65.237712 
5850.000000	65.236592 
5849.000000	65.260076 
5848.000000	65.303421 
5847.000000	65.360355 
5846.000000	65.422582 
5845.000000	65.480613 
5844.000000	65.525579 
5843.000000	65.549278 
5842.000000	65.545868 
5841.000000	65.511393 
5840.000000	65.444302 
5839.000000	65.344810 
5838.000000	65.215134 
5837.000000	65.059566 
5836.000000	64.884233 
5835.000000	64.698219 
5834.000000	64.512944 
5833.000000	64.342164 
5832.000000	64.200496 
5831.000000	64.101386 
5830.000000	64.053368 
5829.000000	64.060115 
5828.000000	64.118552 
5827.000000	64.220190 
5826.000000	64.350843 
5825.000000	64.495563 
5824.000000	64.640426 
5823.000000	64.774990 
5822.000000	64.892721 
5821.000000	64.989280 
5820.000000	65.061092 
5819.000000	65.104103 
5818.000000	65.113902 
5817.000000	65.086340 
5816.000000	65.019679 
5815.000000	64.917945 
5814.000000	64.791464 
5813.000000	64.657282 
5812.000000	64.535784 
5811.000000	64.448094 
5810.000000	64.409804 
5809.000000	64.427590 
5808.000000	64.496469 
5807.000000	64.601397 
5806.000000	64.719939 
5805.000000	64.827179 
5804.000000	64.901447 
5803.000000	64.929318 
5802.000000	64.907336 
5801.000000	64.840626 
5800.000000	64.741849 
5799.000000	64.626288 
5798.000000	64.509963 
5797.000000	64.406371 
5796.000000	64.325308 
5795.000000	64.272236 
5794.000000	64.249801 
5793.000000	64.258861 
5792.000000	64.297628 
5791.000000	64.362573 
5790.000000	64.448690 
5789.000000	64.550089 
5788.000000	64.659118 
5787.000000	64.767694 
5786.000000	64.867711 
5785.000000	64.952564 
5784.000000	65.018486 
5783.000000	65.064454 
5782.000000	65.091729 
5781.000000	65.103220 
5780.000000	65.103626 
5779.000000	65.097355 
5778.000000	65.088534 
5777.000000	65.079331 
5776.000000	65.072107 
5775.000000	65.066504 
5774.000000	65.061235 
5773.000000	65.052199 
5772.000000	65.034461 
5771.000000	65.001821 
5770.000000	64.948463 
5769.000000	64.869976 
5768.000000	64.765286 
5767.000000	64.636802 
5766.000000	64.490962 
5765.000000	64.338064 
5764.000000	64.191317 
5763.000000	64.065051 
5762.000000	63.972687 
5761.000000	63.924050 
5760.000000	63.924121 
5759.000000	63.971424 
5758.000000	64.059019 
5757.000000	64.174342 
5756.000000	64.302992 
5755.000000	64.430546 
5754.000000	64.545941 
5753.000000	64.641189 
5752.000000	64.713811 
5751.000000	64.765691 
5750.000000	64.802217 
5749.000000	64.829421 
5748.000000	64.853000 
5747.000000	64.877176 
5746.000000	64.903879 
5745.000000	64.933466 
5744.000000	64.964771 
5743.000000	64.996933 
5742.000000	65.028929 
5741.000000	65.060424 
5740.000000	65.090250 
5739.000000	65.116620 
5738.000000	65.137052 
5737.000000	65.149188 
5736.000000	65.151929 
5735.000000	65.146303 
5734.000000	65.136909 
5733.000000	65.130209 
5732.000000	65.132880 
5731.000000	65.149164 
5730.000000	65.180540 
5729.000000	65.223169 
5728.000000	65.268611 
5727.000000	65.304899 
5726.000000	65.320014 
5725.000000	65.304088 
5724.000000	65.253019 
5723.000000	65.168380 
5722.000000	65.057301 
5721.000000	64.930391 
5720.000000	64.799237 
5719.000000	64.674329 
5718.000000	64.562535 
5717.000000	64.468121 
5716.000000	64.393329 
5715.000000	64.338850 
5714.000000	64.304780 
5713.000000	64.289736 
5712.000000	64.291572 
5711.000000	64.305639 
5710.000000	64.326286 
5709.000000	64.348006 
5708.000000	64.367675 
5707.000000	64.385604 
5706.000000	64.406061 
5705.000000	64.436411 
5704.000000	64.484357 
5703.000000	64.555621 
5702.000000	64.650583 
5701.000000	64.762902 
5700.000000	64.879965 
5699.000000	64.985275 
5698.000000	65.062594 
5697.000000	65.100765 
5696.000000	65.095853 
5695.000000	65.053153 
5694.000000	64.984321 
5693.000000	64.904928 
5692.000000	64.828920 
5691.000000	64.765238 
5690.000000	64.716529 
5689.000000	64.679598 
5688.000000	64.647912 
5687.000000	64.615511 
5686.000000	64.578533 
5685.000000	64.537382 
5684.000000	64.496898 
5683.000000	64.465522 
5682.000000	64.451551 
5681.000000	64.461445 
5680.000000	64.497995 
5679.000000	64.559626 
5678.000000	64.641046 
5677.000000	64.733672 
5676.000000	64.828586 
5675.000000	64.916348 
5674.000000	64.988756 
5673.000000	65.038490 
5672.000000	65.060138 
5671.000000	65.049672 
5670.000000	65.006232 
5669.000000	64.930629 
5668.000000	64.826774 
5667.000000	64.699578 
5666.000000	64.555859 
5665.000000	64.402318 
5664.000000	64.245104 
5663.000000	64.090967 
5662.000000	63.947129 
5661.000000	63.822937 
5660.000000	63.729190 
5659.000000	63.677000 
5658.000000	63.675785 
5657.000000	63.731646 
5656.000000	63.845324 
5655.000000	64.010119 
5654.000000	64.212584 
5653.000000	64.433383 
5652.000000	64.651060 
5651.000000	64.845442 
5650.000000	65.001320 
5649.000000	65.111017 
5648.000000	65.174245 
5647.000000	65.197873 
5646.000000	65.191125 
5645.000000	65.164399 
5644.000000	65.123915 
5643.000000	65.072846 
5642.000000	65.008807 
5641.000000	64.927983 
5640.000000	64.825892 
5639.000000	64.701199 
5638.000000	64.558243 
5637.000000	64.407682 
5636.000000	64.266943 
5635.000000	64.156556 
5634.000000	64.097380 
5633.000000	64.105367 
5632.000000	64.187884 
5631.000000	64.341068 
5630.000000	64.549946 
5629.000000	64.790630 
5628.000000	65.034437 
5627.000000	65.253233 
5626.000000	65.424370 
5625.000000	65.534496 
5624.000000	65.581345 
5623.000000	65.572381 
5622.000000	65.521955 
5621.000000	65.446448 
5620.000000	65.361714 
5619.000000	65.278601 
5618.000000	65.202951 
5617.000000	65.135598 
5616.000000	65.076565 
5615.000000	65.024948 
5614.000000	64.982461 
5613.000000	64.951658 
5612.000000	64.936065 
5611.000000	64.937305 
5610.000000	64.953398 
5609.000000	64.978599 
5608.000000	65.003681 
5607.000000	65.019011 
5606.000000	65.017056 
5605.000000	64.994502 
5604.000000	64.953255 
5603.000000	64.900898 
5602.000000	64.848566 
5601.000000	64.806914 
5600.000000	64.783549 
5599.000000	64.780759 
5598.000000	64.795374 
5597.000000	64.820885 
5596.000000	64.849114 
5595.000000	64.872694 
5594.000000	64.886426 
5593.000000	64.889883 
5592.000000	64.884591 
5591.000000	64.872789 
5590.000000	64.855074 
5589.000000	64.829206 
5588.000000	64.790415 
5587.000000	64.733052 
5586.000000	64.652872 
5585.000000	64.549183 
5584.000000	64.427423 
5583.000000	64.299035 
5582.000000	64.180636 
5581.000000	64.090418 
5580.000000	64.045429 
5579.000000	64.057493 
5578.000000	64.131760 
5577.000000	64.265513 
5576.000000	64.449381 
5575.000000	64.668536 
5574.000000	64.904928 
5573.000000	65.138912 
5572.000000	65.352010 
5571.000000	65.527677 
5570.000000	65.651655 
5569.000000	65.713405 
5568.000000	65.708065 
5567.000000	65.636849 
5566.000000	65.507888 
5565.000000	65.335536 
5564.000000	65.140652 
5563.000000	64.946198 
5562.000000	64.775538 
5561.000000	64.647030 
5560.000000	64.572501 
5559.000000	64.554238 
5558.000000	64.585852 
5557.000000	64.653921 
5556.000000	64.740800 
5555.000000	64.829373 
5554.000000	64.906024 
5553.000000	64.963221 
5552.000000	64.999461 
5551.000000	65.019893 
5550.000000	65.033793 
5549.000000	65.052199 
5548.000000	65.085029 
5547.000000	65.140128 
5546.000000	65.221500 
5545.000000	65.329146 
5544.000000	65.458583 
5543.000000	65.603184 
5542.000000	65.753769 
5541.000000	65.899634 
5540.000000	66.029787 
5539.000000	66.136050 
5538.000000	66.212821 
5537.000000	66.258072 
5536.000000	66.272854 
5535.000000	66.262054 
5534.000000	66.231727 
5533.000000	66.189837 
5532.000000	66.141867 
5531.000000	66.091060 
5530.000000	66.036939 
5529.000000	65.977954 
5528.000000	65.910434 
5527.000000	65.831065 
5526.000000	65.738415 
5525.000000	65.634560 
5524.000000	65.524482 
5523.000000	65.415644 
5522.000000	65.316224 
5521.000000	65.233087 
5520.000000	65.171575 
5519.000000	65.133762 
5518.000000	65.117454 
5517.000000	65.115976 
5516.000000	65.119743 
5515.000000	65.117335 
5514.000000	65.096807 
5513.000000	65.048766 
5512.000000	64.967846 
5511.000000	64.855217 
5510.000000	64.717125 
5509.000000	64.565944 
5508.000000	64.417481 
5507.000000	64.289140 
5506.000000	64.195537 
5505.000000	64.147448 
5504.000000	64.148855 
5503.000000	64.198446 
5502.000000	64.288997 
5501.000000	64.411354 
5500.000000	64.555478 
5499.000000	64.712452 
5498.000000	64.874362 
5497.000000	65.032649 
5496.000000	65.176939 
5495.000000	65.294694 
5494.000000	65.371966 
5493.000000	65.395307 
5492.000000	65.354967 
5491.000000	65.249872 
5490.000000	65.088701 
5489.000000	64.889454 
5488.000000	64.676594 
5487.000000	64.477992 
5486.000000	64.318466 
5485.000000	64.214825 
5484.000000	64.172887 
5483.000000	64.187526 
5482.000000	64.244937 
5481.000000	64.326405 
5480.000000	64.413285 
5479.000000	64.490962 
5478.000000	64.550828 
5477.000000	64.589381 
5476.000000	64.608025 
5475.000000	64.609837 
5474.000000	64.598441 
5473.000000	64.575815 
5472.000000	64.543509 
5471.000000	64.502882 
5470.000000	64.456892 
5469.000000	64.410996 
5468.000000	64.372515 
5467.000000	64.349770 
5466.000000	64.350700 
5465.000000	64.381551 
5464.000000	64.444279 
5463.000000	64.536738 
5462.000000	64.653110 
5461.000000	64.784932 
5460.000000	64.922833 
5459.000000	65.057516 
5458.000000	65.180516 
5457.000000	65.285277 
5456.000000	65.367341 
5455.000000	65.424847 
5454.000000	65.458035 
5453.000000	65.469741 
5452.000000	65.465903 
5451.000000	65.453624 
5450.000000	65.441274 
5449.000000	65.435147 
5448.000000	65.439414 
5447.000000	65.453600 
5446.000000	65.473842 
5445.000000	65.492701 
5444.000000	65.501499 
5443.000000	65.493035 
5442.000000	65.464210 
5441.000000	65.417122 
5440.000000	65.358972 
5439.000000	65.300679 
5438.000000	65.254020 
5437.000000	65.228295 
5436.000000	65.227794 
5435.000000	65.251302 
5434.000000	65.292048 
5433.000000	65.340089 
5432.000000	65.384459 
5431.000000	65.416049 
5430.000000	65.429234 
5429.000000	65.422773 
5428.000000	65.399098 
5427.000000	65.363240 
5426.000000	65.320730 
5425.000000	65.275979 
5424.000000	65.231108 
5423.000000	65.186095 
5422.000000	65.139532 
5421.000000	65.089988 
5420.000000	65.037202 
5419.000000	64.983057 
5418.000000	64.930891 
5417.000000	64.884853 
5416.000000	64.848017 
5415.000000	64.821338 
5414.000000	64.802312 
5413.000000	64.785742 
5412.000000	64.764857 
5411.000000	64.733958 
5410.000000	64.689779 
5409.000000	64.634037 
5408.000000	64.572978 
5407.000000	64.517569 
5406.000000	64.479970 
5405.000000	64.471912 
5404.000000	64.501357 
5403.000000	64.571046 
5402.000000	64.676260 
5401.000000	64.807057 
5400.000000	64.951157 
5399.000000	65.095186 
5398.000000	65.227150 
5397.000000	65.337634 
5396.000000	65.421032 
5395.000000	65.475034 
5394.000000	65.500307 
5393.000000	65.498971 
5392.000000	65.473365 
5391.000000	65.427064 
5390.000000	65.365457 
5389.000000	65.293836 
5388.000000	65.217494 
5387.000000	65.142202 
5386.000000	65.073895 
5385.000000	65.018177 
5384.000000	64.979386 
5383.000000	64.960169 
5382.000000	64.959669 
5381.000000	64.974522 
5380.000000	64.996814 
5379.000000	65.015816 
5378.000000	65.017437 
5377.000000	64.987587 
5376.000000	64.913582 
5375.000000	64.786958 
5374.000000	64.606189 
5373.000000	64.376282 
5372.000000	64.112043 
5371.000000	63.834714 
5370.000000	63.572573 
5369.000000	63.354539 
5368.000000	63.208746 
5367.000000	63.155937 
5366.000000	63.208007 
5365.000000	63.365101 
5364.000000	63.614606 
5363.000000	63.931727 
5362.000000	64.282846 
5361.000000	64.630055 
5360.000000	64.935183 
5359.000000	65.165162 
5358.000000	65.297245 
5357.000000	65.321445 
5356.000000	65.241408 
5355.000000	65.072202 
5354.000000	64.837861 
5353.000000	64.566636 
5352.000000	64.286470 
5351.000000	64.022493 
5350.000000	63.796901 
5349.000000	63.627076 
5348.000000	63.525247 
5347.000000	63.498902 
5346.000000	63.550424 
5345.000000	63.677430 
5344.000000	63.870453 
5343.000000	64.115142 
5342.000000	64.391303 
5341.000000	64.675378 
5340.000000	64.941978 
5339.000000	65.166330 
5338.000000	65.326905 
5337.000000	65.408539 
5336.000000	65.405416 
5335.000000	65.318703 
5334.000000	65.156102 
5333.000000	64.933419 
5332.000000	64.671182 
5331.000000	64.391708 
5330.000000	64.113640 
5329.000000	63.852047 
5328.000000	63.613033 
5327.000000	63.393473 
5326.000000	63.182115 
5325.000000	62.961888 
5324.000000	62.718176 
5323.000000	62.443351 
5322.000000	62.142896 
5321.000000	61.833667 
5320.000000	61.543107 
5319.000000	61.301469 
5318.000000	61.134624 
5317.000000	61.053943 
5316.000000	61.055135 
5315.000000	61.115050 
5314.000000	61.202812 
5313.000000	61.284041 
5312.000000	61.338901 
5311.000000	61.365509 
5310.000000	61.386299 
5309.000000	61.440086 
5308.000000	61.572909 
5307.000000	61.822414 
5306.000000	62.207031 
5305.000000	62.717390 
5304.000000	63.317394 
5303.000000	63.948869 
5302.000000	64.548325 
5301.000000	65.055346 
5300.000000	65.425920 
5299.000000	65.634346 
5298.000000	65.678691 
5297.000000	65.572500 
5296.000000	65.339136 
5295.000000	65.005254 
5294.000000	64.599370 
5293.000000	64.148569 
5292.000000	63.682317 
5291.000000	63.230609 
5290.000000	62.829732 
5289.000000	62.513375 
5288.000000	62.308001 
5287.000000	62.230253 
5286.000000	62.280774 
5285.000000	62.449288 
5284.000000	62.713527 
5283.000000	63.048815 
5282.000000	63.430094 
5281.000000	63.837146 
5280.000000	64.254069 
5279.000000	64.667034 
5278.000000	65.060734 
5277.000000	65.417385 
5276.000000	65.715074 
5275.000000	65.931010 
5274.000000	66.043472 
5273.000000	66.040921 
5272.000000	65.922021 
5271.000000	65.699768 
5270.000000	65.397953 
5269.000000	65.051388 
5268.000000	64.698672 
5267.000000	64.374279 
5266.000000	64.108300 
5265.000000	63.923668 
5264.000000	63.836145 
5263.000000	63.854598 
5262.000000	63.979959 
5261.000000	64.203190 
5260.000000	64.507579 
5259.000000	64.867520 
5258.000000	65.253710 
5257.000000	65.634131 
5256.000000	65.981268 
5255.000000	66.273856 
5254.000000	66.501331 
5253.000000	66.662955 
5252.000000	66.766524 
5251.000000	66.823673 
5250.000000	66.847705 
5249.000000	66.847872 
5248.000000	66.828393 
5247.000000	66.785907 
5246.000000	66.715812 
5245.000000	66.610741 
5244.000000	66.466546 
5243.000000	66.281652 
5242.000000	66.060042 
5241.000000	65.810728 
5240.000000	65.545845 
5239.000000	65.281891 
5238.000000	65.036559 
5237.000000	64.828538 
5236.000000	64.675641 
5235.000000	64.589929 
5234.000000	64.574337 
5233.000000	64.621710 
5232.000000	64.714026 
5231.000000	64.827466 
5230.000000	64.936113 
5229.000000	65.018653 
5228.000000	65.061283 
5227.000000	65.064072 
5226.000000	65.039396 
5225.000000	65.007138 
5224.000000	64.987730 
5223.000000	64.996194 
5222.000000	65.036559 
5221.000000	65.099239 
5220.000000	65.163636 
5219.000000	65.204834 
5218.000000	65.200686 
5217.000000	65.139651 
5216.000000	65.024375 
5215.000000	64.870405 
5214.000000	64.703822 
5213.000000	64.553546 
5212.000000	64.446043 
5211.000000	64.397644 
5210.000000	64.412784 
5209.000000	64.485454 
5208.000000	64.599180 
5207.000000	64.732074 
5206.000000	64.860773 
5205.000000	64.965939 
5204.000000	65.033841 
5203.000000	65.057253 
5202.000000	65.036273 
5201.000000	64.976263 
5200.000000	64.888286 
5199.000000	64.786338 
5198.000000	64.685726 
5197.000000	64.600062 
5196.000000	64.539575 
5195.000000	64.509105 
5194.000000	64.507150 
5193.000000	64.527034 
5192.000000	64.558148 
5191.000000	64.590048 
5190.000000	64.614343 
5189.000000	64.628410 
5188.000000	64.635205 
5187.000000	64.642953 
5186.000000	64.661550 
5185.000000	64.699888 
5184.000000	64.762616 
5183.000000	64.848184 
5182.000000	64.949274 
5181.000000	65.053558 
5180.000000	65.147161 
5179.000000	65.217471 
5178.000000	65.257668 
5177.000000	65.265274 
5176.000000	65.242528 
5175.000000	65.194559 
5174.000000	65.127825 
5173.000000	65.049123 
5172.000000	64.964795 
5171.000000	64.881062 
5170.000000	64.803743 
5169.000000	64.738464 
5168.000000	64.690017 
5167.000000	64.662170 
5166.000000	64.656448 
5165.000000	64.671611 
5164.000000	64.703011 
5163.000000	64.742708 
5162.000000	64.780902 
5161.000000	64.807462 
5160.000000	64.814376 
5159.000000	64.796233 
5158.000000	64.753246 
5157.000000	64.690041 
5156.000000	64.617323 
5155.000000	64.548087 
5154.000000	64.497756 
5153.000000	64.480185 
5152.000000	64.505815 
5151.000000	64.579558 
5150.000000	64.698696 
5149.000000	64.853072 
5148.000000	65.026092 
5147.000000	65.197372 
5146.000000	65.347218 
5145.000000	65.460109 
5144.000000	65.527629 
5143.000000	65.549039 
5142.000000	65.530371 
5141.000000	65.481495 
5140.000000	65.413856 
5139.000000	65.336513 
5138.000000	65.254902 
5137.000000	65.169954 
5136.000000	65.080261 
5135.000000	64.984130 
5134.000000	64.882135 
5133.000000	64.778804 
5132.000000	64.682245 
5131.000000	64.604139 
5130.000000	64.556121 
5129.000000	64.548349 
5128.000000	64.584851 
5127.000000	64.663910 
5126.000000	64.777183 
5125.000000	64.911723 
5124.000000	65.052294 
5123.000000	65.183496 
5122.000000	65.292143 
5121.000000	65.369057 
5120.000000	65.409779 
5119.000000	65.414571 
5118.000000	65.387701 
5117.000000	65.336394 
5116.000000	65.269184 
5115.000000	65.195536 
5114.000000	65.123867 
5113.000000	65.061044 
5112.000000	65.011096 
5111.000000	64.975690 
5110.000000	64.953446 
5109.000000	64.940977 
5108.000000	64.933419 
5107.000000	64.924955 
5106.000000	64.911270 
5105.000000	64.889383 
5104.000000	64.859652 
5103.000000	64.824366 
5102.000000	64.788675 
5101.000000	64.758563 
5100.000000	64.740419 
5099.000000	64.739036 
5098.000000	64.756941 
5097.000000	64.793753 
5096.000000	64.846301 
5095.000000	64.909338 
5094.000000	64.976596 
5093.000000	65.041637 
5092.000000	65.099596 
5091.000000	65.147805 
5090.000000	65.185713 
5089.000000	65.213894 
5088.000000	65.233564 
5087.000000	65.245342 
5086.000000	65.249085 
5085.000000	65.243721 
5084.000000	65.227723 
5083.000000	65.199851 
5082.000000	65.160846 
5081.000000	65.113449 
5080.000000	65.062403 
5079.000000	65.013813 
5078.000000	64.974069 
5077.000000	64.948582 
5076.000000	64.940285 
5075.000000	64.949297 
5074.000000	64.972472 
5073.000000	65.004682 
5072.000000	65.039968 
5071.000000	65.072798 
5070.000000	65.098834 
5069.000000	65.115952 
5068.000000	65.123963 
5067.000000	65.124535 
5066.000000	65.120291 
5065.000000	65.114688 
5064.000000	65.111041 
5063.000000	65.112090 
5062.000000	65.119528 
5061.000000	65.133714 
5060.000000	65.153431 
5059.000000	65.176033 
5058.000000	65.197968 
5057.000000	65.215563 
5056.000000	65.225958 
5055.000000	65.227723 
5054.000000	65.221428 
5053.000000	65.209507 
5052.000000	65.195059 
5051.000000	65.181970 
5050.000000	65.172147 
5049.000000	65.165185 
5048.000000	65.157914 
5047.000000	65.145277 
5046.000000	65.122008 
5045.000000	65.084290 
5044.000000	65.031576 
5043.000000	64.967107 
5042.000000	64.897847 
5041.000000	64.832997 
5040.000000	64.781689 
5039.000000	64.750552 
5038.000000	64.743113 
5037.000000	64.758944 
5036.000000	64.794111 
5035.000000	64.842367 
5034.000000	64.896321 
5033.000000	64.948987 
5032.000000	64.995098 
5031.000000	65.031647 
5030.000000	65.057039 
5029.000000	65.071702 
5028.000000	65.076994 
5027.000000	65.075325 
5026.000000	65.070104 
5025.000000	65.064787 
5024.000000	65.063071 
5023.000000	65.067195 
5022.000000	65.078759 
5021.000000	65.096664 
5020.000000	65.117979 
5019.000000	65.137648 
5018.000000	65.150213 
5017.000000	65.150332 
5016.000000	65.134787 
5015.000000	65.102601 
5014.000000	65.055370 
5013.000000	64.997220 
5012.000000	64.934253 
5011.000000	64.873600 
5010.000000	64.822411 
5009.000000	64.787411 
5008.000000	64.774203 
5007.000000	64.787125 
5006.000000	64.828276 
5005.000000	64.897418 
5004.000000	64.990687 
5003.000000	65.101194 
5002.000000	65.218377 
5001.000000	65.329027 
5000.000000	65.418624 
4999.000000	65.474271 
4998.000000	65.486741 
4997.000000	65.452504 
4996.000000	65.374398 
4995.000000	65.261507 
4994.000000	65.127539 
4993.000000	64.988875 
4992.000000	64.861750 
4991.000000	64.759993 
4990.000000	64.693164 
4989.000000	64.665555 
4988.000000	64.676356 
4987.000000	64.720463 
4986.000000	64.789581 
4985.000000	64.873623 
4984.000000	64.962339 
4983.000000	65.046238 
4982.000000	65.117430 
4981.000000	65.170049 
4980.000000	65.200114 
4979.000000	65.205597 
4978.000000	65.187191 
4977.000000	65.147662 
4976.000000	65.091681 
4975.000000	65.025138 
4974.000000	64.955067 
4973.000000	64.888429 
4972.000000	64.832210 
4971.000000	64.791727 
4970.000000	64.769792 
4969.000000	64.766335 
4968.000000	64.779090 
4967.000000	64.803528 
4966.000000	64.833331 
4965.000000	64.861917 
4964.000000	64.883613 
4963.000000	64.894556 
4962.000000	64.893078 
4961.000000	64.879822 
4960.000000	64.856648 
4959.000000	64.827036 
4958.000000	64.794898 
4957.000000	64.764690 
4956.000000	64.740943 
4955.000000	64.728403 
4954.000000	64.731621 
4953.000000	64.754486 
4952.000000	64.799332 
4951.000000	64.866352 
4950.000000	64.952135 
4949.000000	65.049910 
4948.000000	65.149140 
4947.000000	65.237522 
4946.000000	65.302324 
4945.000000	65.332722 
4944.000000	65.321874 
4943.000000	65.269064 
4942.000000	65.179157 
4941.000000	65.062451 
4940.000000	64.932155 
4939.000000	64.802742 
4938.000000	64.686536 
4937.000000	64.592456 
4936.000000	64.524245 
4935.000000	64.481163 
4934.000000	64.458775 
4933.000000	64.451003 
4932.000000	64.452004 
4931.000000	64.457631 
4930.000000	64.467120 
4929.000000	64.482831 
4928.000000	64.509296 
4927.000000	64.551496 
4926.000000	64.612936 
4925.000000	64.694118 
4924.000000	64.791870 
4923.000000	64.899778 
4922.000000	65.009641 
4921.000000	65.112805 
4920.000000	65.202021 
4919.000000	65.272164 
4918.000000	65.321373 
4917.000000	65.349864 
4916.000000	65.360093 
4915.000000	65.354967 
4914.000000	65.337300 
4913.000000	65.309119 
4912.000000	65.272784 
4911.000000	65.230393 
4910.000000	65.185093 
4909.000000	65.140271 
4908.000000	65.100383 
4907.000000	65.069007 
4906.000000	65.048027 
4905.000000	65.037441 
4904.000000	65.035390 
4903.000000	65.039753 
4902.000000	65.048742 
4901.000000	65.061807 
4900.000000	65.079355 
4899.000000	65.101885 
4898.000000	65.129113 
4897.000000	65.158009 
4896.000000	65.183591 
4895.000000	65.199637 
4894.000000	65.201282 
4893.000000	65.185737 
4892.000000	65.155220 
4891.000000	65.117573 
4890.000000	65.084767 
4889.000000	65.070128 
4888.000000	65.084385 
4887.000000	65.133023 
4886.000000	65.213561 
4885.000000	65.315628 
4884.000000	65.423107 
4883.000000	65.518212 
4882.000000	65.585207 
4881.000000	65.614604 
4880.000000	65.603518 
4879.000000	65.556240 
4878.000000	65.481925 
4877.000000	65.392065 
4876.000000	65.298509 
4875.000000	65.211081 
4874.000000	65.137314 
4873.000000	65.081667 
4872.000000	65.045452 
4871.000000	65.026879 
4870.000000	65.021896 
4869.000000	65.024709 
4868.000000	65.028214 
4867.000000	65.025711 
4866.000000	65.011119 
4865.000000	64.981698 
4864.000000	64.937877 
4863.000000	64.884352 
4862.000000	64.828729 
4861.000000	64.779806 
4860.000000	64.745426 
4859.000000	64.730048 
4858.000000	64.733552 
4857.000000	64.751195 
4856.000000	64.774727 
4855.000000	64.794707 
4854.000000	64.802980 
4853.000000	64.794754 
4852.000000	64.769768 
4851.000000	64.731836 
4850.000000	64.687466 
4849.000000	64.644956 
4848.000000	64.612388 
4847.000000	64.595937 
4846.000000	64.598727 
4845.000000	64.620733 
4844.000000	64.659190 
4843.000000	64.709687 
4842.000000	64.767074 
4841.000000	64.826321 
4840.000000	64.883160 
4839.000000	64.934372 
4838.000000	64.978170 
4837.000000	65.013194 
4836.000000	65.039181 
4835.000000	65.056657 
4834.000000	65.066909 
4833.000000	65.072059 
4832.000000	65.074372 
4831.000000	65.076971 
4830.000000	65.081834 
4829.000000	65.090322 
4828.000000	65.101742 
4827.000000	65.114402 
4826.000000	65.124726 
4825.000000	65.128469 
4824.000000	65.121221 
4823.000000	65.099573 
4822.000000	65.061521 
4821.000000	65.006971 
4820.000000	64.937806 
4819.000000	64.857912 
4818.000000	64.772295 
4817.000000	64.686799 
4816.000000	64.607524 
4815.000000	64.540481 
4814.000000	64.491033 
4813.000000	64.463376 
4812.000000	64.459729 
4811.000000	64.480209 
4810.000000	64.521932 
4809.000000	64.579725 
4808.000000	64.645767 
4807.000000	64.711928 
4806.000000	64.770340 
4805.000000	64.815402 
4804.000000	64.844131 
4803.000000	64.856672 
4802.000000	64.855718 
4801.000000	64.845633 
4800.000000	64.830827 
4799.000000	64.815378 
4798.000000	64.802312 
4797.000000	64.793562 
4796.000000	64.790487 
4795.000000	64.793968 
4794.000000	64.804911 
4793.000000	64.824151 
4792.000000	64.852261 
4791.000000	64.888668 
4790.000000	64.931678 
4789.000000	64.978003 
4788.000000	65.023708 
4787.000000	65.064811 
4786.000000	65.098524 
4785.000000	65.124225 
4784.000000	65.143489 
4783.000000	65.159940 
4782.000000	65.177845 
4781.000000	65.201187 
4780.000000	65.231680 
4779.000000	65.268850 
4778.000000	65.308809 
4777.000000	65.345597 
4776.000000	65.372180 
4775.000000	65.382599 
4774.000000	65.372967 
4773.000000	65.342926 
4772.000000	65.295720 
4771.000000	65.237736 
4770.000000	65.177249 
4769.000000	65.122818 
4768.000000	65.081787 
4767.000000	65.058779 
4766.000000	65.055155 
4765.000000	65.068912 
4764.000000	65.094995 
4763.000000	65.126204 
4762.000000	65.154695 
4761.000000	65.173459 
4760.000000	65.177321 
4759.000000	65.163898 
4758.000000	65.133738 
4757.000000	65.089941 
4756.000000	65.037107 
4755.000000	64.980411 
4754.000000	64.924263 
4753.000000	64.872097 
4752.000000	64.825940 
4751.000000	64.786958 
4750.000000	64.755487 
4749.000000	64.731955 
4748.000000	64.717173 
4747.000000	64.712214 
4746.000000	64.717841 
4745.000000	64.734339 
4744.000000	64.760565 
4743.000000	64.794135 
4742.000000	64.831137 
4741.000000	64.867353 
4740.000000	64.898800 
4739.000000	64.923119 
4738.000000	64.940237 
4737.000000	64.952111 
4736.000000	64.962244 
4735.000000	64.975094 
4734.000000	64.994978 
4733.000000	65.024542 
4732.000000	65.064048 
4731.000000	65.111684 
4730.000000	65.163373 
4729.000000	65.214204 
4728.000000	65.258812 
4727.000000	65.292668 
4726.000000	65.312409 
4725.000000	65.316534 
4724.000000	65.305185 
4723.000000	65.280246 
4722.000000	65.244889 
4721.000000	65.203070 
4720.000000	65.159106 
4719.000000	65.117669 
4718.000000	65.082645 
4717.000000	65.057086 
4716.000000	65.042448 
4715.000000	65.038895 
4714.000000	65.045356 
4713.000000	65.060114 
4712.000000	65.081143 
4711.000000	65.106630 
4710.000000	65.136075 
4709.000000	65.170073 
4708.000000	65.209841 
4707.000000	65.255975 
4706.000000	65.307927 
4705.000000	65.362834 
4704.000000	65.415573 
4703.000000	65.459322 
4702.000000	65.487146 
4701.000000	65.493464 
4700.000000	65.475702 
4699.000000	65.435194 
4698.000000	65.377140 
4697.000000	65.309786 
4696.000000	65.242815 
4695.000000	65.185642 
4694.000000	65.145826 
4693.000000	65.127229 
4692.000000	65.130281 
4691.000000	65.151166 
4690.000000	65.183329 
4689.000000	65.218234 
4688.000000	65.247464 
4687.000000	65.263772 
4686.000000	65.262508 
4685.000000	65.242004 
4684.000000	65.204071 
4683.000000	65.153694 
4682.000000	65.097880 
4681.000000	65.044569 
4680.000000	65.000653 
4679.000000	64.970850 
4678.000000	64.957022 
4677.000000	64.957475 
4676.000000	64.968204 
4675.000000	64.984059 
4674.000000	65.000677 
4673.000000	65.015196 
4672.000000	65.027689 
4671.000000	65.040016 
4670.000000	65.055799 
4669.000000	65.078449 
4668.000000	65.110278 
4667.000000	65.151357 
4666.000000	65.199184 
4665.000000	65.249443 
4664.000000	65.296149 
4663.000000	65.333294 
4662.000000	65.355801 
4661.000000	65.361118 
4660.000000	65.348982 
4659.000000	65.321445 
4658.000000	65.282440 
4657.000000	65.236735 
4656.000000	65.189075 
4655.000000	65.143489 
4654.000000	65.102553 
4653.000000	65.067696 
4652.000000	65.039110 
4651.000000	65.016722 
4650.000000	65.000438 
4649.000000	64.991021 
4648.000000	64.989709 
4647.000000	64.998435 
4646.000000	65.019154 
4645.000000	65.053009 
4644.000000	65.099477 
4643.000000	65.155911 
4642.000000	65.217542 
4641.000000	65.278053 
4640.000000	65.330886 
4639.000000	65.370464 
4638.000000	65.393376 
4637.000000	65.399312 
4636.000000	65.391087 
4635.000000	65.373659 
4634.000000	65.353131 
4633.000000	65.335059 
4632.000000	65.323233 
4631.000000	65.318322 
4630.000000	65.317916 
4629.000000	65.317249 
4628.000000	65.310621 
4627.000000	65.293002 
4626.000000	65.262031 
4625.000000	65.218687 
4624.000000	65.167975 
4623.000000	65.117692 
4622.000000	65.077018 
4621.000000	65.053796 
4620.000000	65.053105 
4619.000000	65.075683 
4618.000000	65.118002 
4617.000000	65.173196 
4616.000000	65.232801 
4615.000000	65.288710 
4614.000000	65.334892 
4613.000000	65.368366 
4612.000000	65.389490 
4611.000000	65.400862 
4610.000000	65.406179 
4609.000000	65.408706 
4608.000000	65.409898 
4607.000000	65.409040 
4606.000000	65.403079 
4605.000000	65.387821 
4604.000000	65.359282 
4603.000000	65.315055 
4602.000000	65.255427 
4601.000000	65.183758 
4600.000000	65.106439 
4599.000000	65.031599 
4598.000000	64.967560 
4597.000000	64.921498 
4596.000000	64.897632 
4595.000000	64.896821 
4594.000000	64.916348 
4593.000000	64.950680 
4592.000000	64.992690 
4591.000000	65.035223 
4590.000000	65.072298 
4589.000000	65.100312 
4588.000000	65.117931 
4587.000000	65.126419 
4586.000000	65.128612 
4585.000000	65.127706 
4584.000000	65.126323 
4583.000000	65.125799 
4582.000000	65.126299 
4581.000000	65.126538 
4580.000000	65.124535 
4579.000000	65.118241 
4578.000000	65.106487 
4577.000000	65.089368 
4576.000000	65.068531 
4575.000000	65.046548 
4574.000000	65.026640 
4573.000000	65.012049 
4572.000000	65.005326 
4571.000000	65.007591 
4570.000000	65.018320 
4569.000000	65.035676 
4568.000000	65.056610 
4567.000000	65.077233 
4566.000000	65.093541 
4565.000000	65.102362 
4564.000000	65.101671 
4563.000000	65.090966 
4562.000000	65.071058 
4561.000000	65.043711 
4560.000000	65.011286 
4559.000000	64.976453 
4558.000000	64.941143 
4557.000000	64.906406 
4556.000000	64.872622 
4555.000000	64.839720 
4554.000000	64.807772 
4553.000000	64.777541 
4552.000000	64.750814 
4551.000000	64.730167 
4550.000000	64.718842 
4549.000000	64.720058 
4548.000000	64.735698 
4547.000000	64.765930 
4546.000000	64.808416 
4545.000000	64.859032 
4544.000000	64.912486 
4543.000000	64.963531 
4542.000000	65.007686 
4541.000000	65.042114 
4540.000000	65.066003 
4539.000000	65.079951 
4538.000000	65.085864 
4537.000000	65.085005 
4536.000000	65.078306 
4535.000000	65.065073 
4534.000000	65.044116 
4533.000000	65.013742 
4532.000000	64.972925 
4531.000000	64.922237 
4530.000000	64.864397 
4529.000000	64.804291 
4528.000000	64.748215 
4527.000000	64.703249 
4526.000000	64.675450 
4525.000000	64.669680 
4524.000000	64.688181 
4523.000000	64.730119 
4522.000000	64.791226 
4521.000000	64.864182 
4520.000000	64.939665 
4519.000000	65.007019 
4518.000000	65.056276 
4517.000000	65.079712 
4516.000000	65.073513 
4515.000000	65.038108 
4514.000000	64.978361 
4513.000000	64.902496 
4512.000000	64.820647 
4511.000000	64.743018 
4510.000000	64.678025 
4509.000000	64.631223 
4508.000000	64.604902 
4507.000000	64.598488 
4506.000000	64.609050 
4505.000000	64.632344 
4504.000000	64.663672 
4503.000000	64.698767 
4502.000000	64.733409 
4501.000000	64.763212 
4500.000000	64.783573 
4499.000000	64.789795 
4498.000000	64.777636 
4497.000000	64.743947 
4496.000000	64.688086 
4495.000000	64.612221 
4494.000000	64.521312 
4493.000000	64.422345 
4492.000000	64.323377 
4491.000000	64.232182 
4490.000000	64.154744 
4489.000000	64.094853 
4488.000000	64.053320 
4487.000000	64.029049 
4486.000000	64.019203 
4485.000000	64.021277 
4484.000000	64.032745 
4483.000000	64.053249 
4482.000000	64.083337 
4481.000000	64.124989 
4480.000000	64.179754 
4479.000000	64.248085 
4478.000000	64.327621 
4477.000000	64.413571 
4476.000000	64.498925 
4475.000000	64.575791 
4474.000000	64.637041 
4473.000000	64.677619 
4472.000000	64.695692 
4471.000000	64.692425 
4470.000000	64.671683 
4469.000000	64.638972 
4468.000000	64.600515 
4467.000000	64.562177 
4466.000000	64.528870 
4465.000000	64.504861 
4464.000000	64.493250 
4463.000000	64.496135 
4462.000000	64.514017 
4461.000000	64.546108 
4460.000000	64.589881 
4459.000000	64.640831 
4458.000000	64.693284 
4457.000000	64.740610 
4456.000000	64.776968 
4455.000000	64.798235 
4454.000000	64.802932 
4453.000000	64.792156 
4452.000000	64.769434 
4451.000000	64.740037 
4450.000000	64.708995 
4449.000000	64.679789 
4448.000000	64.654111 
4447.000000	64.632105 
4446.000000	64.612936 
4445.000000	64.595723 
4444.000000	64.580273 
4443.000000	64.567685 
4442.000000	64.560532 
4441.000000	64.562463 
4440.000000	64.576053 
4439.000000	64.601659 
4438.000000	64.637804 
4437.000000	64.680218 
4436.000000	64.722108 
4435.000000	64.755201 
4434.000000	64.770698 
4433.000000	64.761614 
4432.000000	64.727234 
4431.000000	64.671015 
4430.000000	64.598536 
4429.000000	64.516377 
4428.000000	64.432740 
4427.000000	64.352893 
4426.000000	64.277529 
4425.000000	64.204311 
4424.000000	64.126467 
4423.000000	64.041447 
4422.000000	63.959980 
4421.000000	63.890695 
4420.000000	63.830757 
4419.000000	63.785529 
4418.000000	63.768172 
4417.000000	63.795757 
4416.000000	63.887906 
4415.000000	64.046049 
4414.000000	64.252614 
4413.000000	64.497613 
4412.000000	64.772057 
4411.000000	65.079522 
4410.000000	65.416455 
4409.000000	65.749120 
4408.000000	66.020274 
4407.000000	66.134715 
4406.000000	66.005086 
4405.000000	65.615797 
4404.000000	64.996170 
4403.000000	64.263892 
4402.000000	63.535118 
4401.000000	62.825798 
4400.000000	62.139463 
4399.000000	61.361169 
4398.000000	60.517191 
4397.000000	59.820890 
4396.000000	59.669470 
4395.000000	60.637569 
4394.000000	63.125324 
4393.000000	67.206406 
4392.000000	72.453713 
4391.000000	77.954435 
4390.000000	82.609510 
4389.000000	85.401320 
4388.000000	85.746288 
4387.000000	83.646154 
4386.000000	79.608154 
4385.000000	74.509501 
4384.000000	69.272255 
4383.000000	64.678096 
4382.000000	61.244201 
4381.000000	59.145569 
4380.000000	58.350801 
4379.000000	58.612203 
4378.000000	59.604406 
4377.000000	60.981965 
4376.000000	62.408041 
4375.000000	63.658428 
4374.000000	64.591360 
4373.000000	65.196943 
4372.000000	65.522551 
4371.000000	65.672063 
4370.000000	65.731549 
4369.000000	65.767312 
4368.000000	65.803909 
4367.000000	65.835595 
4366.000000	65.851020 
4365.000000	65.832591 
4364.000000	65.778923 
4363.000000	65.692782 
4362.000000	65.585327 
4361.000000	65.464901 
4360.000000	65.334677 
4359.000000	65.202665 
4358.000000	65.079188 
4357.000000	64.966177 
4356.000000	64.862227 
4355.000000	64.766716 
4354.000000	64.681029 
4353.000000	64.618277 
4352.000000	64.594340 
4351.000000	64.606976 
4350.000000	64.648151 
4349.000000	64.713048 
4348.000000	64.795327 
4347.000000	64.885783 
4346.000000	64.975810 
4345.000000	65.055441 
4344.000000	65.117859 
4343.000000	65.162801 
4342.000000	65.190815 
4341.000000	65.200400 
4340.000000	65.190649 
4339.000000	65.161371 
4338.000000	65.113782 
4337.000000	65.051555 
4336.000000	64.979958 
4335.000000	64.905834 
4334.000000	64.835834 
4333.000000	64.775395 
4332.000000	64.727544 
4331.000000	64.692544 
4330.000000	64.668059 
4329.000000	64.650297 
4328.000000	64.634656 
4327.000000	64.617967 
4326.000000	64.598965 
4325.000000	64.579796 
4324.000000	64.564251 
4323.000000	64.558172 
4322.000000	64.566564 
4321.000000	64.593338 
4320.000000	64.639639 
4319.000000	64.703726 
4318.000000	64.780974 
4317.000000	64.864897 
4316.000000	64.948534 
4315.000000	65.025424 
4314.000000	65.090584 
4313.000000	65.141201 
4312.000000	65.176820 
4311.000000	65.198349 
4310.000000	65.207719 
4309.000000	65.206384 
4308.000000	65.194892 
4307.000000	65.172958 
4306.000000	65.139937 
4305.000000	65.095353 
4304.000000	65.039753 
4303.000000	64.975619 
4302.000000	64.907479 
4301.000000	64.841437 
4300.000000	64.783906 
4299.000000	64.740371 
4298.000000	64.713931 
4297.000000	64.703941 
4296.000000	64.706683 
4295.000000	64.715790 
4294.000000	64.724874 
4293.000000	64.728784 
4292.000000	64.725756 
4291.000000	64.717388 
4290.000000	64.708328 
4289.000000	64.704251 
4288.000000	64.710187 
4287.000000	64.728140 
4286.000000	64.757418 
4285.000000	64.794635 
4284.000000	64.834785 
4283.000000	64.872622 
4282.000000	64.904212 
4281.000000	64.927554 
4280.000000	64.942193 
4279.000000	64.948487 
4278.000000	64.946365 
4277.000000	64.934778 
4276.000000	64.911961 
4275.000000	64.876413 
4274.000000	64.828181 
4273.000000	64.770078 
4272.000000	64.708948 
4271.000000	64.654397 
4270.000000	64.616966 
4269.000000	64.605760 
4268.000000	64.625716 
4267.000000	64.676618 
4266.000000	64.752221 
4265.000000	64.841747 
4264.000000	64.932060 
4263.000000	65.010428 
4262.000000	65.067362 
4261.000000	65.097761 
4260.000000	65.101575 
4259.000000	65.082764 
4258.000000	65.047597 
4257.000000	65.002989 
4256.000000	64.955163 
4255.000000	64.908719 
4254.000000	64.866638 
4253.000000	64.830780 
4252.000000	64.802670 
4251.000000	64.783811 
4250.000000	64.775800 
4249.000000	64.779686 
4248.000000	64.795780 
4247.000000	64.823198 
4246.000000	64.859962 
4245.000000	64.902687 
4244.000000	64.946985 
4243.000000	64.988422 
4242.000000	65.022397 
4241.000000	65.045285 
4240.000000	65.054202 
4239.000000	65.047383 
4238.000000	65.024662 
4237.000000	64.987254 
4236.000000	64.938449 
4235.000000	64.883232 
4234.000000	64.828252 
4233.000000	64.780664 
4232.000000	64.747333 
4231.000000	64.733743 
4230.000000	64.742517 
4229.000000	64.772868 
4228.000000	64.820361 
4227.000000	64.877796 
4226.000000	64.936566 
4225.000000	64.988303 
4224.000000	65.025949 
4223.000000	65.044736 
4222.000000	65.042829 
4221.000000	65.021014 
4220.000000	64.981961 
4219.000000	64.929437 
4218.000000	64.867711 
4217.000000	64.801096 
4216.000000	64.733982 
4215.000000	64.670562 
4214.000000	64.615321 
4213.000000	64.572119 
4212.000000	64.544010 
4211.000000	64.532470 
4210.000000	64.536499 
4209.000000	64.553284 
4208.000000	64.577865 
4207.000000	64.605140 
4206.000000	64.630055 
4205.000000	64.649868 
4204.000000	64.664077 
4203.000000	64.675211 
4202.000000	64.687705 
4201.000000	64.706540 
4200.000000	64.735364 
4199.000000	64.775204 
4198.000000	64.823842 
4197.000000	64.875817 
4196.000000	64.923524 
4195.000000	64.959263 
4194.000000	64.977145 
4193.000000	64.974617 
4192.000000	64.953398 
4191.000000	64.918923 
4190.000000	64.879274 
4189.000000	64.843463 
4188.000000	64.819002 
4187.000000	64.810776 
4186.000000	64.819288 
4185.000000	64.841198 
4184.000000	64.870142 
4183.000000	64.898371 
4182.000000	64.919257 
4181.000000	64.928674 
4180.000000	64.926290 
4179.000000	64.915132 
4178.000000	64.900922 
4177.000000	64.890074 
4176.000000	64.888119 
4175.000000	64.898014 
4174.000000	64.920091 
4173.000000	64.952278 
4172.000000	64.990806 
4171.000000	65.031552 
4170.000000	65.070819 
4169.000000	65.105938 
4168.000000	65.135502 
4167.000000	65.159034 
4166.000000	65.176296 
4165.000000	65.186572 
4164.000000	65.188908 
4163.000000	65.181684 
4162.000000	65.163445 
4161.000000	65.132904 
4160.000000	65.090441 
4159.000000	65.037393 
4158.000000	64.976668 
4157.000000	64.912199 
4156.000000	64.848446 
4155.000000	64.789962 
4154.000000	64.740538 
4153.000000	64.702916 
4152.000000	64.678168 
4151.000000	64.665746 
4150.000000	64.663577 
4149.000000	64.668488 
4148.000000	64.676690 
4147.000000	64.685034 
4146.000000	64.691686 
4145.000000	64.696550 
4144.000000	64.701461 
4143.000000	64.709854 
4142.000000	64.725637 
4141.000000	64.752054 
4140.000000	64.790821 
4139.000000	64.841270 
4138.000000	64.900469 
4137.000000	64.963412 
4136.000000	65.023899 
4135.000000	65.076136 
4134.000000	65.115213 
4133.000000	65.138769 
4132.000000	65.146613 
4131.000000	65.140891 
4130.000000	65.125274 
4129.000000	65.104150 
4128.000000	65.081572 
4127.000000	65.060615 
4126.000000	65.043187 
4125.000000	65.030479 
4124.000000	65.022754 
4123.000000	65.020155 
4122.000000	65.022754 
4121.000000	65.030837 
4120.000000	65.044569 
4119.000000	65.063667 
4118.000000	65.087080 
4117.000000	65.113091 
4116.000000	65.139389 
4115.000000	65.163683 
4114.000000	65.184259 
4113.000000	65.200281 
4112.000000	65.212321 
4111.000000	65.221881 
4110.000000	65.230870 
4109.000000	65.240597 
4108.000000	65.251541 
4107.000000	65.262532 
4106.000000	65.270972 
4105.000000	65.273666 
4104.000000	65.268039 
4103.000000	65.252685 
4102.000000	65.228366 
4101.000000	65.197610 
4100.000000	65.164518 
4099.000000	65.133404 
4098.000000	65.107893 
4097.000000	65.089869 
4096.000000	65.079092 
4095.000000	65.073823 
4094.000000	65.071415 
4093.000000	65.069675 
4092.000000	65.067458 
4091.000000	65.065264 
4090.000000	65.064835 
4089.000000	65.068507 
4088.000000	65.078163 
4087.000000	65.094113 
4086.000000	65.114545 
4085.000000	65.136170 
4084.000000	65.154671 
4083.000000	65.166020 
4082.000000	65.167498 
4081.000000	65.158534 
4080.000000	65.141034 
4079.000000	65.118646 
4078.000000	65.096354 
4077.000000	65.078854 
4076.000000	65.070152 
4075.000000	65.072441 
4074.000000	65.086102 
4073.000000	65.109920 
4072.000000	65.141558 
4071.000000	65.178155 
4070.000000	65.216708 
4069.000000	65.254354 
4068.000000	65.288639 
4067.000000	65.317440 
4066.000000	65.338945 
4065.000000	65.351700 
4064.000000	65.354919 
4063.000000	65.348815 
4062.000000	65.334248 
4061.000000	65.312862 
4060.000000	65.287184 
4059.000000	65.260291 
4058.000000	65.235400 
4057.000000	65.215396 
4056.000000	65.202689 
4055.000000	65.198397 
4054.000000	65.202784 
4053.000000	65.214538 
4052.000000	65.231442 
4051.000000	65.250539 
4050.000000	65.268564 
4049.000000	65.282797 
4048.000000	65.291023 
4047.000000	65.292334 
4046.000000	65.286755 
4045.000000	65.275478 
4044.000000	65.260553 
4043.000000	65.244483 
4042.000000	65.229797 
4041.000000	65.218853 
4040.000000	65.213394 
4039.000000	65.214967 
4038.000000	65.224790 
4037.000000	65.243673 
4036.000000	65.271687 
4035.000000	65.308165 
4034.000000	65.351366 
4033.000000	65.398478 
4032.000000	65.445661 
4031.000000	65.488767 
4030.000000	65.523672 
4029.000000	65.547132 
4028.000000	65.557456 
4027.000000	65.554618 
4026.000000	65.540337 
4025.000000	65.517854 
4024.000000	65.491080 
4023.000000	65.464234 
4022.000000	65.440750 
4021.000000	65.423297 
4020.000000	65.412735 
4019.000000	65.408921 
4018.000000	65.410017 
4017.000000	65.413546 
4016.000000	65.416312 
4015.000000	65.415239 
4014.000000	65.407896 
4013.000000	65.392994 
4012.000000	65.370535 
4011.000000	65.341830 
4010.000000	65.309643 
4009.000000	65.277624 
4008.000000	65.249609 
4007.000000	65.228652 
4006.000000	65.216541 
4005.000000	65.213131 
4004.000000	65.216636 
4003.000000	65.223860 
4002.000000	65.230560 
4001.000000	65.232658 
4000.000000	65.227270 
3999.000000	65.213274 
3998.000000	65.191221 
3997.000000	65.163183 
3996.000000	65.132117 
3995.000000	65.101146 
3994.000000	65.072751 
3993.000000	65.048503 
3992.000000	65.028595 
3991.000000	65.012884 
3990.000000	65.001058 
3989.000000	64.993739 
3988.000000	64.992499 
3987.000000	65.000104 
3986.000000	65.019464 
3985.000000	65.053176 
3984.000000	65.102243 
3983.000000	65.165281 
3982.000000	65.238070 
3981.000000	65.314006 
3980.000000	65.384888 
3979.000000	65.442514 
3978.000000	65.479874 
3977.000000	65.492200 
3976.000000	65.477967 
3975.000000	65.439152 
3974.000000	65.381264 
3973.000000	65.311980 
3972.000000	65.240478 
3971.000000	65.176129 
3970.000000	65.127086 
3969.000000	65.099549 
3968.000000	65.096163 
3967.000000	65.116739 
3966.000000	65.157294 
3965.000000	65.211081 
3964.000000	65.269398 
3963.000000	65.322923 
3962.000000	65.363550 
3961.000000	65.385246 
3960.000000	65.385293 
3959.000000	65.364265 
3958.000000	65.325927 
3957.000000	65.276241 
3956.000000	65.222144 
3955.000000	65.170073 
3954.000000	65.125489 
3953.000000	65.091991 
3952.000000	65.071296 
3951.000000	65.063476 
3950.000000	65.067601 
3949.000000	65.082120 
3948.000000	65.104842 
3947.000000	65.133595 
3946.000000	65.166091 
3945.000000	65.200352 
3944.000000	65.234065 
3943.000000	65.265274 
3942.000000	65.292096 
3941.000000	65.313196 
3940.000000	65.328097 
3939.000000	65.336871 
3938.000000	65.340161 
3937.000000	65.338468 
3936.000000	65.332627 
3935.000000	65.322828 
3934.000000	65.309166 
3933.000000	65.291380 
3932.000000	65.269327 
3931.000000	65.243554 
3930.000000	65.215396 
3929.000000	65.187096 
3928.000000	65.161585 
3927.000000	65.141344 
3926.000000	65.128111 
3925.000000	65.122199 
3924.000000	65.122675 
3923.000000	65.127015 
3922.000000	65.132141 
3921.000000	65.135025 
3920.000000	65.133738 
3919.000000	65.127873 
3918.000000	65.118455 
3917.000000	65.107560 
3916.000000	65.097546 
3915.000000	65.090346 
3914.000000	65.086913 
3913.000000	65.086603 
3912.000000	65.087580 
3911.000000	65.087342 
3910.000000	65.083527 
3909.000000	65.074467 
3908.000000	65.060281 
3907.000000	65.042734 
3906.000000	65.025138 
3905.000000	65.011692 
3904.000000	65.006852 
3903.000000	65.014338 
3902.000000	65.036511 
3901.000000	65.073776 
3900.000000	65.124416 
3899.000000	65.184736 
3898.000000	65.249538 
3897.000000	65.312647 
3896.000000	65.367650 
3895.000000	65.408992 
3894.000000	65.432620 
3893.000000	65.436744 
3892.000000	65.422010 
3891.000000	65.391588 
3890.000000	65.350961 
3889.000000	65.306711 
3888.000000	65.265750 
3887.000000	65.233755 
3886.000000	65.214729 
3885.000000	65.209841 
3884.000000	65.217661 
3883.000000	65.234327 
3882.000000	65.255022 
3881.000000	65.274500 
3880.000000	65.288424 
3879.000000	65.293884 
3878.000000	65.289807 
3877.000000	65.276622 
3876.000000	65.255784 
3875.000000	65.229129 
3874.000000	65.198230 
3873.000000	65.164279 
3872.000000	65.128135 
3871.000000	65.090513 
3870.000000	65.052437 
3869.000000	65.015649 
3868.000000	64.982676 
3867.000000	64.956164 
3866.000000	64.938831 
3865.000000	64.932417 
3864.000000	64.937949 
3863.000000	64.954519 
3862.000000	64.980459 
3861.000000	65.013074 
3860.000000	65.049815 
3859.000000	65.088510 
3858.000000	65.127539 
3857.000000	65.165424 
3856.000000	65.201163 
3855.000000	65.233564 
3854.000000	65.261530 
3853.000000	65.283775 
3852.000000	65.299105 
3851.000000	65.306687 
3850.000000	65.306210 
3849.000000	65.298199 
3848.000000	65.283489 
3847.000000	65.263319 
3846.000000	65.238928 
3845.000000	65.211558 
3844.000000	65.182471 
3843.000000	65.152955 
3842.000000	65.124726 
3841.000000	65.099740 
3840.000000	65.080237 
3839.000000	65.068340 
3838.000000	65.065383 
3837.000000	65.072083 
3836.000000	65.087485 
3835.000000	65.109992 
3834.000000	65.137410 
3833.000000	65.167546 
3832.000000	65.198779 
3831.000000	65.229821 
3830.000000	65.259885 
3829.000000	65.287613 
3828.000000	65.311098 
3827.000000	65.327405 
3826.000000	65.332937 
3825.000000	65.323972 
3824.000000	65.297985 
3823.000000	65.254426 
3822.000000	65.195322 
3821.000000	65.125656 
3820.000000	65.052604 
3819.000000	64.984059 
3818.000000	64.927077 
3817.000000	64.886379 
3816.000000	64.863395 
3815.000000	64.855909 
3814.000000	64.859080 
3813.000000	64.866614 
3812.000000	64.872503 
3811.000000	64.872169 
3810.000000	64.863753 
3809.000000	64.847874 
3808.000000	64.827895 
3807.000000	64.808034 
3806.000000	64.793133 
3805.000000	64.786672 
3804.000000	64.790797 
3803.000000	64.805531 
3802.000000	64.829468 
3801.000000	64.860200 
3800.000000	64.895343 
3799.000000	64.933371 
3798.000000	64.973521 
3797.000000	65.015602 
3796.000000	65.059471 
3795.000000	65.104365 
3794.000000	65.148282 
3793.000000	65.188026 
3792.000000	65.219736 
3791.000000	65.239644 
3790.000000	65.245580 
3789.000000	65.237402 
3788.000000	65.217471 
3787.000000	65.190076 
3786.000000	65.161323 
3785.000000	65.137219 
3784.000000	65.122342 
3783.000000	65.118885 
3782.000000	65.126347 
3781.000000	65.142059 
3780.000000	65.161967 
3779.000000	65.181803 
3778.000000	65.198278 
3777.000000	65.209603 
3776.000000	65.215539 
3775.000000	65.217304 
3774.000000	65.216493 
3773.000000	65.214729 
3772.000000	65.212965 
3771.000000	65.211319 
3770.000000	65.208983 
3769.000000	65.204548 
3768.000000	65.196657 
3767.000000	65.184235 
3766.000000	65.166902 
3765.000000	65.145325 
3764.000000	65.121412 
3763.000000	65.097641 
3762.000000	65.077066 
3761.000000	65.063047 
3760.000000	65.058636 
3759.000000	65.065789 
3758.000000	65.084934 
3757.000000	65.114974 
3756.000000	65.152835 
3755.000000	65.194177 
3754.000000	65.234065 
3753.000000	65.267562 
3752.000000	65.290641 
3751.000000	65.301060 
3750.000000	65.298199 
3749.000000	65.283060 
3748.000000	65.257668 
3747.000000	65.224671 
3746.000000	65.186977 
3745.000000	65.147399 
3744.000000	65.108656 
3743.000000	65.073204 
3742.000000	65.043234 
3741.000000	65.020465 
3740.000000	65.005898 
3739.000000	64.999675 
3738.000000	65.000605 
3737.000000	65.006399 
3736.000000	65.013670 
3735.000000	65.019059 
3734.000000	65.019822 
3733.000000	65.014839 
3732.000000	65.004777 
3731.000000	64.992427 
3730.000000	64.981842 
3729.000000	64.977550 
3728.000000	64.983296 
3727.000000	65.001416 
3726.000000	65.031862 
3725.000000	65.072512 
3724.000000	65.119528 
3723.000000	65.168070 
3722.000000	65.213418 
3721.000000	65.251636 
3720.000000	65.280127 
3719.000000	65.298056 
3718.000000	65.306210 
3717.000000	65.306615 
3716.000000	65.301966 
3715.000000	65.294957 
3714.000000	65.287804 
3713.000000	65.282201 
3712.000000	65.278983 
3711.000000	65.278196 
3710.000000	65.279126 
3709.000000	65.280723 
3708.000000	65.281677 
3707.000000	65.280699 
3706.000000	65.276956 
3705.000000	65.270018 
3704.000000	65.260291 
3703.000000	65.248870 
3702.000000	65.237379 
3701.000000	65.227961 
3700.000000	65.222597 
3699.000000	65.223169 
3698.000000	65.230631 
3697.000000	65.245103 
3696.000000	65.265226 
3695.000000	65.288734 
3694.000000	65.312409 
3693.000000	65.332841 
3692.000000	65.347123 
3691.000000	65.353393 
3690.000000	65.351176 
3689.000000	65.341305 
3688.000000	65.325593 
3687.000000	65.306282 
3686.000000	65.285563 
3685.000000	65.265035 
3684.000000	65.245556 
3683.000000	65.227437 
3682.000000	65.210771 
3681.000000	65.195775 
3680.000000	65.183043 
3679.000000	65.173602 
3678.000000	65.168476 
3677.000000	65.168499 
3676.000000	65.173411 
3675.000000	65.181970 
3674.000000	65.191769 
3673.000000	65.200233 
3672.000000	65.204477 
3671.000000	65.203022 
3670.000000	65.195822 
3669.000000	65.184617 
3668.000000	65.172433 
3667.000000	65.163040 
3666.000000	65.159726 
3665.000000	65.164804 
3664.000000	65.179085 
3663.000000	65.201544 
3662.000000	65.229654 
3661.000000	65.260004 
3660.000000	65.289020 
3659.000000	65.313529 
3658.000000	65.331244 
3657.000000	65.341019 
3656.000000	65.342783 
3655.000000	65.337371 
3654.000000	65.326404 
3653.000000	65.311622 
3652.000000	65.295195 
3651.000000	65.279293 
3650.000000	65.266108 
3649.000000	65.257644 
3648.000000	65.255427 
3647.000000	65.260529 
3646.000000	65.273094 
3645.000000	65.292429 
3644.000000	65.316796 
3643.000000	65.343713 
3642.000000	65.370130 
3641.000000	65.392971 
3640.000000	65.409445 
3639.000000	65.417742 
3638.000000	65.416955 
3637.000000	65.407466 
3636.000000	65.390729 
3635.000000	65.369081 
3634.000000	65.345191 
3633.000000	65.321660 
3632.000000	65.300679 
3631.000000	65.283942 
3630.000000	65.272355 
3629.000000	65.266323 
3628.000000	65.265679 
3627.000000	65.269875 
3626.000000	65.278339 
3625.000000	65.290212 
3624.000000	65.304422 
3623.000000	65.319514 
3622.000000	65.333795 
3621.000000	65.345549 
3620.000000	65.352797 
3619.000000	65.354180 
3618.000000	65.349006 
3617.000000	65.337586 
3616.000000	65.321373 
3615.000000	65.302777 
3614.000000	65.284681 
3613.000000	65.270066 
3612.000000	65.261340 
3611.000000	65.260148 
3610.000000	65.266990 
3609.000000	65.281200 
3608.000000	65.301156 
3607.000000	65.324616 
3606.000000	65.349125 
3605.000000	65.372157 
3604.000000	65.391540 
3603.000000	65.405797 
3602.000000	65.413808 
3601.000000	65.415072 
3600.000000	65.409183 
3599.000000	65.396237 
3598.000000	65.376257 
3597.000000	65.349435 
3596.000000	65.316176 
3595.000000	65.277385 
3594.000000	65.234827 
3593.000000	65.190672 
3592.000000	65.148019 
3591.000000	65.110206 
3590.000000	65.080881 
3589.000000	65.063142 
3588.000000	65.059280 
3587.000000	65.070033 
3586.000000	65.094757 
3585.000000	65.131211 
3584.000000	65.175890 
3583.000000	65.224599 
3582.000000	65.272855 
3581.000000	65.316605 
3580.000000	65.352368 
3579.000000	65.377426 
3578.000000	65.390038 
3577.000000	65.389347 
3576.000000	65.375518 
3575.000000	65.349459 
3574.000000	65.312838 
3573.000000	65.267729 
3572.000000	65.216469 
3571.000000	65.161514 
3570.000000	65.105128 
3569.000000	65.049910 
3568.000000	64.998316 
3567.000000	64.953374 
3566.000000	64.917898 
3565.000000	64.894986 
3564.000000	64.887094 
3563.000000	64.896249 
3562.000000	64.922785 
3561.000000	64.965558 
3560.000000	65.021514 
3559.000000	65.086340 
3558.000000	65.154600 
3557.000000	65.220952 
3556.000000	65.280699 
3555.000000	65.330457 
3554.000000	65.368461 
3553.000000	65.394425 
3552.000000	65.409255 
3551.000000	65.414381 
3550.000000	65.411162 
3549.000000	65.401124 
3548.000000	65.385246 
3547.000000	65.364646 
3546.000000	65.340185 
3545.000000	65.313029 
3544.000000	65.284156 
3543.000000	65.254783 
3542.000000	65.225958 
3541.000000	65.198659 
3540.000000	65.173435 
3539.000000	65.150618 
3538.000000	65.130662 
3537.000000	65.113782 
3536.000000	65.100526 
3535.000000	65.091395 
3534.000000	65.086889 
3533.000000	65.087151 
3532.000000	65.091943 
3531.000000	65.100264 
3530.000000	65.110707 
3529.000000	65.121626 
3528.000000	65.131258 
3527.000000	65.138149 
3526.000000	65.141415 
3525.000000	65.140819 
3524.000000	65.136885 
3523.000000	65.130424 
3522.000000	65.122509 
3521.000000	65.114021 
3520.000000	65.105700 
3519.000000	65.097570 
3518.000000	65.089249 
3517.000000	65.079617 
3516.000000	65.067458 
3515.000000	65.051388 
3514.000000	65.030145 
3513.000000	65.003108 
3512.000000	64.970397 
3511.000000	64.933395 
3510.000000	64.894247 
3509.000000	64.856052 
3508.000000	64.822340 
3507.000000	64.796614 
3506.000000	64.781379 
3505.000000	64.777970 
3504.000000	64.786148 
3503.000000	64.804482 
3502.000000	64.830565 
3501.000000	64.861822 
3500.000000	64.895844 
3499.000000	64.931011 
3498.000000	64.966416 
3497.000000	65.001821 
3496.000000	65.037083 
3495.000000	65.071773 
3494.000000	65.104532 
3493.000000	65.133190 
3492.000000	65.154981 
3491.000000	65.167379 
3490.000000	65.168642 
3489.000000	65.158677 
3488.000000	65.139102 
3487.000000	65.113258 
3486.000000	65.085744 
3485.000000	65.061545 
3484.000000	65.045261 
3483.000000	65.040326 
3482.000000	65.048384 
3481.000000	65.069413 
3480.000000	65.101289 
3479.000000	65.140008 
3478.000000	65.180683 
3477.000000	65.218257 
3476.000000	65.248823 
3475.000000	65.269780 
3474.000000	65.280938 
3473.000000	65.284061 
3472.000000	65.282511 
3471.000000	65.279912 
3470.000000	65.279316 
3469.000000	65.282082 
3468.000000	65.287351 
3467.000000	65.291953 
3466.000000	65.291333 
3465.000000	65.280771 
3464.000000	65.256714 
3463.000000	65.218043 
3462.000000	65.166592 
3461.000000	65.107226 
3460.000000	65.046691 
3459.000000	64.992547 
3458.000000	64.951300 
3457.000000	64.927577 
3456.000000	64.923238 
3455.000000	64.937472 
3454.000000	64.967250 
3453.000000	65.007805 
3452.000000	65.053820 
3451.000000	65.100240 
3450.000000	65.142703 
3449.000000	65.178418 
3448.000000	65.206146 
3447.000000	65.226197 
3446.000000	65.239500 
3445.000000	65.247917 
3444.000000	65.253472 
3443.000000	65.258121 
3442.000000	65.263390 
3441.000000	65.270543 
3440.000000	65.280246 
3439.000000	65.292906 
3438.000000	65.308284 
3437.000000	65.325570 
3436.000000	65.343475 
3435.000000	65.360379 
3434.000000	65.374517 
3433.000000	65.384244 
3432.000000	65.388560 
3431.000000	65.387630 
3430.000000	65.382337 
3429.000000	65.374588 
3428.000000	65.366339 
3427.000000	65.359783 
3426.000000	65.355706 
3425.000000	65.353465 
3424.000000	65.350794 
3423.000000	65.344357 
3422.000000	65.330743 
3421.000000	65.307712 
3420.000000	65.274882 
3419.000000	65.234160 
3418.000000	65.189433 
3417.000000	65.145874 
3416.000000	65.108442 
3415.000000	65.080714 
3414.000000	65.064191 
3413.000000	65.058159 
3412.000000	65.060138 
3411.000000	65.066742 
3410.000000	65.074920 
3409.000000	65.082859 
3408.000000	65.090107 
3407.000000	65.097761 
3406.000000	65.107560 
3405.000000	65.121269 
3404.000000	65.139460 
3403.000000	65.161180 
3402.000000	65.184354 
3401.000000	65.205860 
3400.000000	65.222716 
3399.000000	65.232491 
3398.000000	65.234231 
3397.000000	65.228533 
3396.000000	65.217280 
3395.000000	65.203356 
3394.000000	65.189647 
3393.000000	65.178680 
3392.000000	65.172004 
3391.000000	65.170073 
3390.000000	65.172362 
3389.000000	65.177679 
3388.000000	65.184783 
3387.000000	65.192365 
3386.000000	65.199422 
3385.000000	65.205454 
3384.000000	65.210294 
3383.000000	65.213751 
3382.000000	65.215420 
3381.000000	65.214800 
3380.000000	65.211272 
3379.000000	65.204167 
3378.000000	65.193128 
3377.000000	65.178346 
3376.000000	65.160655 
3375.000000	65.141677 
3374.000000	65.123581 
3373.000000	65.108704 
3372.000000	65.099096 
3371.000000	65.096235 
3370.000000	65.100431 
3369.000000	65.110683 
3368.000000	65.124893 
3367.000000	65.140414 
3366.000000	65.154337 
3365.000000	65.164256 
3364.000000	65.169000 
3363.000000	65.168881 
3362.000000	65.165662 
3361.000000	65.161967 
3360.000000	65.160655 
3359.000000	65.163969 
3358.000000	65.172958 
3357.000000	65.187191 
3356.000000	65.205097 
3355.000000	65.224313 
3354.000000	65.242433 
3353.000000	65.257453 
3352.000000	65.268397 
3351.000000	65.274977 
3350.000000	65.277791 
3349.000000	65.277838 
3348.000000	65.276098 
3347.000000	65.273237 
3346.000000	65.269708 
3345.000000	65.265488 
3344.000000	65.260696 
3343.000000	65.255236 
3342.000000	65.249419 
3341.000000	65.243387 
3340.000000	65.237212 
3339.000000	65.230751 
3338.000000	65.223717 
3337.000000	65.215897 
3336.000000	65.207362 
3335.000000	65.198564 
3334.000000	65.190386 
3333.000000	65.183830 
3332.000000	65.179800 
3331.000000	65.178728 
3330.000000	65.180206 
3329.000000	65.183186 
3328.000000	65.186119 
3327.000000	65.187454 
3326.000000	65.186214 
3325.000000	65.182328 
3324.000000	65.176749 
3323.000000	65.171027 
3322.000000	65.167021 
3321.000000	65.166068 
3320.000000	65.168833 
3319.000000	65.174889 
3318.000000	65.182995 
3317.000000	65.191698 
3316.000000	65.199589 
3315.000000	65.206193 
3314.000000	65.211462 
3313.000000	65.215826 
3312.000000	65.219640 
3311.000000	65.222930 
3310.000000	65.225076 
3309.000000	65.224862 
3308.000000	65.220952 
3307.000000	65.212273 
3306.000000	65.198564 
3305.000000	65.180540 
3304.000000	65.159821 
3303.000000	65.138697 
3302.000000	65.119409 
3301.000000	65.103745 
3300.000000	65.092611 
3299.000000	65.085911 
3298.000000	65.083098 
3297.000000	65.083336 
3296.000000	65.086197 
3295.000000	65.091562 
3294.000000	65.099573 
3293.000000	65.110731 
3292.000000	65.124988 
3291.000000	65.142130 
3290.000000	65.161395 
3289.000000	65.181589 
3288.000000	65.201330 
3287.000000	65.219283 
3286.000000	65.234494 
3285.000000	65.246248 
3284.000000	65.254282 
3283.000000	65.258669 
3282.000000	65.259861 
3281.000000	65.258383 
3280.000000	65.254735 
3279.000000	65.249061 
3278.000000	65.241336 
3277.000000	65.231418 
3276.000000	65.219187 
3275.000000	65.204715 
3274.000000	65.188479 
3273.000000	65.171527 
3272.000000	65.155434 
3271.000000	65.141725 
3270.000000	65.131974 
3269.000000	65.127420 
3268.000000	65.128803 
3267.000000	65.135860 
3266.000000	65.147471 
3265.000000	65.162086 
3264.000000	65.177273 
3263.000000	65.190601 
3262.000000	65.199446 
3261.000000	65.201520 
3260.000000	65.195131 
3259.000000	65.179371 
3258.000000	65.154433 
3257.000000	65.121245 
3256.000000	65.081858 
3255.000000	65.039086 
3254.000000	64.996266 
3253.000000	64.956855 
3252.000000	64.924120 
3251.000000	64.900970 
3250.000000	64.889192 
3249.000000	64.889597 
3248.000000	64.901638 
3247.000000	64.923667 
3246.000000	64.953136 
3245.000000	64.987206 
3244.000000	65.022897 
3243.000000	65.058040 
3242.000000	65.091228 
3241.000000	65.121936 
3240.000000	65.150403 
3239.000000	65.177059 
3238.000000	65.202331 
3237.000000	65.225911 
3236.000000	65.246629 
3235.000000	65.262341 
3234.000000	65.270805 
3233.000000	65.269589 
3232.000000	65.257287 
3231.000000	65.233564 
3230.000000	65.199661 
3229.000000	65.157914 
3228.000000	65.111494 
3227.000000	65.063881 
3226.000000	65.018463 
3225.000000	64.977812 
3224.000000	64.943909 
3223.000000	64.918160 
3222.000000	64.901757 
3221.000000	64.895486 
3220.000000	64.900040 
3219.000000	64.915442 
3218.000000	64.941287 
3217.000000	64.975786 
3216.000000	65.016293 
3215.000000	65.058827 
3214.000000	65.099287 
3213.000000	65.133738 
3212.000000	65.159392 
3211.000000	65.174889 
3210.000000	65.180611 
3209.000000	65.178418 
3208.000000	65.171003 
3207.000000	65.161156 
3206.000000	65.151119 
3205.000000	65.142345 
3204.000000	65.135431 
3203.000000	65.130424 
3202.000000	65.127229 
3201.000000	65.126204 
3200.000000	65.128207 
3199.000000	65.134501 
3198.000000	65.145921 
3197.000000	65.162706 
3196.000000	65.184092 
3195.000000	65.208125 
3194.000000	65.232014 
3193.000000	65.252876 
3192.000000	65.268397 
3191.000000	65.277504 
3190.000000	65.280628 
3189.000000	65.279197 
3188.000000	65.275573 
3187.000000	65.271711 
3186.000000	65.269064 
3185.000000	65.267705 
3184.000000	65.266728 
3183.000000	65.264129 
3182.000000	65.257954 
3181.000000	65.246534 
3180.000000	65.229177 
3179.000000	65.206408 
3178.000000	65.179800 
3177.000000	65.151739 
3176.000000	65.124702 
3175.000000	65.100979 
3174.000000	65.082383 
3173.000000	65.070176 
3172.000000	65.065073 
3171.000000	65.067219 
3170.000000	65.076088 
3169.000000	65.090775 
3168.000000	65.109896 
3167.000000	65.131568 
3166.000000	65.153813 
3165.000000	65.174365 
3164.000000	65.191507 
3163.000000	65.203928 
3162.000000	65.211462 
3161.000000	65.214753 
3160.000000	65.215277 
3159.000000	65.214896 
3158.000000	65.215373 
3157.000000	65.217995 
3156.000000	65.222883 
3155.000000	65.229535 
3154.000000	65.236282 
3153.000000	65.241050 
3152.000000	65.241837 
3151.000000	65.237331 
3150.000000	65.227103 
3149.000000	65.211915 
3148.000000	65.193796 
3147.000000	65.175580 
3146.000000	65.160655 
3145.000000	65.152215 
3144.000000	65.152454 
3143.000000	65.162134 
3142.000000	65.180492 
3141.000000	65.205168 
3140.000000	65.232801 
3139.000000	65.259528 
3138.000000	65.281701 
3137.000000	65.296602 
3136.000000	65.302801 
3135.000000	65.300321 
3134.000000	65.290451 
3133.000000	65.275216 
3132.000000	65.257239 
3131.000000	65.238618 
3130.000000	65.220952 
3129.000000	65.204620 
3128.000000	65.188765 
3127.000000	65.171813 
3126.000000	65.151977 
3125.000000	65.128207 
3124.000000	65.100574 
3123.000000	65.070867 
3122.000000	65.042352 
3121.000000	65.019297 
3120.000000	65.005707 
3119.000000	65.004467 
3118.000000	65.016508 
3117.000000	65.040373 
3116.000000	65.072393 
3115.000000	65.107607 
3114.000000	65.140604 
3113.000000	65.166544 
3112.000000	65.182256 
3111.000000	65.186595 
3110.000000	65.180492 
3109.000000	65.166592 
3108.000000	65.148520 
3107.000000	65.129923 
3106.000000	65.113878 
3105.000000	65.102481 
3104.000000	65.096759 
3103.000000	65.096712 
3102.000000	65.101933 
3101.000000	65.111994 
3100.000000	65.126585 
3099.000000	65.145754 
3098.000000	65.169644 
3097.000000	65.197968 
3096.000000	65.229964 
3095.000000	65.264153 
3094.000000	65.298295 
3093.000000	65.329718 
3092.000000	65.355873 
3091.000000	65.374803 
3090.000000	65.385341 
3089.000000	65.387129 
3088.000000	65.380907 
3087.000000	65.368175 
3086.000000	65.350985 
3085.000000	65.331292 
3084.000000	65.311169 
3083.000000	65.292024 
3082.000000	65.274953 
3081.000000	65.260457 
3080.000000	65.248489 
3079.000000	65.238714 
3078.000000	65.230607 
3077.000000	65.223789 
3076.000000	65.217900 
3075.000000	65.213060 
3074.000000	65.209460 
3073.000000	65.207934 
3072.000000	65.209031 
3071.000000	65.213489 
3070.000000	65.221548 
3069.000000	65.233206 
3068.000000	65.247631 
3067.000000	65.263986 
3066.000000	65.281343 
3065.000000	65.298819 
3064.000000	65.315604 
3063.000000	65.331101 
3062.000000	65.344858 
3061.000000	65.356373 
3060.000000	65.365123 
3059.000000	65.370702 
3058.000000	65.372848 
3057.000000	65.371704 
3056.000000	65.367722 
3055.000000	65.361618 
3054.000000	65.354108 
3053.000000	65.346074 
3052.000000	65.337944 
3051.000000	65.329957 
3050.000000	65.321850 
3049.000000	65.313315 
3048.000000	65.303945 
3047.000000	65.293788 
3046.000000	65.283083 
3045.000000	65.272426 
3044.000000	65.262460 
3043.000000	65.253591 
3042.000000	65.245771 
3041.000000	65.238404 
3040.000000	65.230536 
3039.000000	65.221238 
3038.000000	65.209960 
3037.000000	65.196800 
3036.000000	65.182828 
3035.000000	65.169763 
3034.000000	65.159726 
3033.000000	65.154719 
3032.000000	65.156197 
3031.000000	65.164709 
3030.000000	65.179777 
3029.000000	65.199685 
3028.000000	65.221834 
3027.000000	65.243220 
3026.000000	65.260815 
3025.000000	65.272235 
3024.000000	65.276026 
3023.000000	65.271973 
3022.000000	65.261149 
3021.000000	65.245532 
3020.000000	65.227675 
3019.000000	65.210199 
3018.000000	65.195488 
3017.000000	65.185070 
3016.000000	65.179443 
3015.000000	65.178084 
3014.000000	65.179753 
3013.000000	65.182805 
3012.000000	65.185523 
3011.000000	65.186619 
3010.000000	65.185308 
3009.000000	65.181589 
3008.000000	65.176105 
3007.000000	65.169763 
3006.000000	65.163707 
3005.000000	65.158939 
3004.000000	65.156221 
3003.000000	65.155816 
3002.000000	65.157580 
3001.000000	65.160894 
3000.000000	65.164995 
2999.000000	65.168857 
2998.000000	65.171790 
2997.000000	65.173363 
2996.000000	65.174007 
2995.000000	65.174531 
2994.000000	65.176415 
2993.000000	65.181231 
2992.000000	65.190243 
2991.000000	65.204334 
2990.000000	65.223288 
2989.000000	65.245723 
2988.000000	65.269064 
2987.000000	65.290093 
2986.000000	65.305089 
2985.000000	65.310621 
2984.000000	65.304088 
2983.000000	65.284347 
2982.000000	65.251898 
2981.000000	65.209102 
2980.000000	65.159606 
2979.000000	65.107941 
2978.000000	65.058732 
2977.000000	65.015912 
2976.000000	64.982295 
2975.000000	64.959216 
2974.000000	64.946389 
2973.000000	64.942550 
2972.000000	64.945507 
2971.000000	64.953303 
2970.000000	64.964151 
2969.000000	64.977359 
2968.000000	64.992523 
2967.000000	65.010046 
2966.000000	65.030193 
2965.000000	65.052938 
2964.000000	65.077614 
2963.000000	65.102744 
2962.000000	65.126419 
2961.000000	65.146303 
2960.000000	65.160298 
2959.000000	65.166807 
2958.000000	65.165066 
2957.000000	65.155100 
2956.000000	65.137839 
2955.000000	65.115022 
2954.000000	65.089130 
2953.000000	65.062952 
2952.000000	65.039324 
2951.000000	65.020895 
2950.000000	65.009689 
2949.000000	65.006971 
2948.000000	65.012860 
2947.000000	65.026211 
2946.000000	65.044808 
2945.000000	65.065717 
2944.000000	65.085959 
2943.000000	65.102672 
2942.000000	65.114021 
2941.000000	65.119338 
2940.000000	65.119171 
2939.000000	65.115094 
2938.000000	65.108966 
2937.000000	65.102648 
2936.000000	65.097069 
2935.000000	65.092206 
2934.000000	65.086841 
2933.000000	65.079331 
2932.000000	65.067815 
2931.000000	65.051054 
2930.000000	65.028786 
2929.000000	65.001916 
2928.000000	64.972329 
2927.000000	64.942359 
2926.000000	64.914393 
2925.000000	64.890289 
2924.000000	64.871001 
2923.000000	64.856672 
2922.000000	64.846825 
2921.000000	64.840817 
2920.000000	64.838171 
2919.000000	64.838719 
2918.000000	64.842581 
2917.000000	64.850211 
2916.000000	64.861845 
2915.000000	64.877629 
2914.000000	64.896893 
2913.000000	64.918851 
2912.000000	64.942479 
2911.000000	64.966917 
2910.000000	64.991521 
2909.000000	65.015888 
2908.000000	65.039634 
2907.000000	65.062403 
2906.000000	65.083622 
2905.000000	65.102458 
2904.000000	65.118074 
2903.000000	65.129828 
2902.000000	65.137720 
2901.000000	65.142464 
2900.000000	65.145373 
2899.000000	65.148282 
2898.000000	65.153002 
2897.000000	65.160584 
2896.000000	65.170788 
2895.000000	65.182495 
2894.000000	65.193438 
2893.000000	65.200877 
2892.000000	65.202188 
2891.000000	65.195798 
2890.000000	65.181469 
2889.000000	65.160727 
2888.000000	65.136289 
2887.000000	65.111422 
2886.000000	65.089678 
2885.000000	65.073943 
2884.000000	65.066051 
2883.000000	65.066194 
2882.000000	65.073323 
2881.000000	65.085482 
2880.000000	65.100073 
2879.000000	65.114331 
2878.000000	65.125894 
2877.000000	65.133118 
2876.000000	65.135312 
2875.000000	65.132617 
2874.000000	65.126109 
2873.000000	65.117716 
2872.000000	65.109896 
2871.000000	65.105247 
2870.000000	65.105891 
2869.000000	65.113091 
2868.000000	65.127086 
2867.000000	65.146780 
2866.000000	65.169930 
2865.000000	65.193223 
2864.000000	65.213298 
2863.000000	65.226793 
2862.000000	65.231060 
2861.000000	65.224361 
2860.000000	65.206408 
2859.000000	65.178084 
2858.000000	65.141201 
2857.000000	65.098237 
2856.000000	65.052199 
2855.000000	65.006113 
2854.000000	64.962840 
2853.000000	64.924836 
2852.000000	64.894342 
2851.000000	64.872860 
2850.000000	64.861440 
2849.000000	64.860248 
2848.000000	64.868831 
2847.000000	64.886069 
2846.000000	64.910435 
2845.000000	64.939904 
2844.000000	64.972400 
2843.000000	65.005755 
2842.000000	65.038204 
2841.000000	65.068197 
2840.000000	65.094900 
2839.000000	65.117931 
2838.000000	65.137624 
2837.000000	65.154767 
2836.000000	65.170335 
2835.000000	65.185332 
2834.000000	65.200495 
2833.000000	65.216183 
2832.000000	65.232181 
2831.000000	65.248036 
2830.000000	65.262961 
2829.000000	65.276241 
2828.000000	65.287137 
2827.000000	65.295076 
2826.000000	65.299797 
2825.000000	65.301561 
2824.000000	65.300774 
2823.000000	65.297913 
2822.000000	65.293717 
2821.000000	65.288996 
2820.000000	65.284609 
2819.000000	65.281248 
2818.000000	65.279388 
2817.000000	65.279316 
2816.000000	65.281057 
2815.000000	65.284109 
2814.000000	65.287828 
2813.000000	65.291428 
2812.000000	65.294337 
2811.000000	65.296339 
2810.000000	65.297365 
2809.000000	65.297532 
2808.000000	65.296983 
2807.000000	65.295720 
2806.000000	65.293264 
2805.000000	65.289211 
2804.000000	65.283226 
2803.000000	65.275478 
2802.000000	65.266752 
2801.000000	65.258264 
2800.000000	65.251731 
2799.000000	65.248680 
2798.000000	65.250062 
2797.000000	65.255856 
2796.000000	65.265011 
2795.000000	65.275669 
2794.000000	65.285396 
2793.000000	65.292119 
2792.000000	65.294480 
2791.000000	65.292143 
2790.000000	65.285825 
2789.000000	65.276956 
2788.000000	65.267062 
2787.000000	65.257430 
2786.000000	65.248727 
2785.000000	65.241098 
2784.000000	65.234303 
2783.000000	65.228199 
2782.000000	65.222764 
2781.000000	65.218400 
2780.000000	65.215754 
2779.000000	65.215444 
2778.000000	65.217995 
2777.000000	65.223383 
2776.000000	65.231204 
2775.000000	65.240573 
2774.000000	65.250253 
2773.000000	65.258884 
2772.000000	65.265154 
2771.000000	65.268230 
2770.000000	65.267562 
2769.000000	65.263009 
2768.000000	65.254878 
2767.000000	65.243768 
2766.000000	65.230369 
2765.000000	65.215396 
2764.000000	65.199685 
2763.000000	65.184283 
2762.000000	65.170335 
2761.000000	65.159106 
2760.000000	65.151762 
2759.000000	65.149211 
2758.000000	65.151834 
2757.000000	65.159535 
2756.000000	65.171408 
2755.000000	65.186095 
2754.000000	65.201950 
2753.000000	65.217471 
2752.000000	65.231537 
2751.000000	65.243601 
2750.000000	65.253782 
2749.000000	65.262603 
2748.000000	65.270638 
2747.000000	65.278315 
2746.000000	65.285468 
2745.000000	65.291523 
2744.000000	65.295696 
2743.000000	65.297412 
2742.000000	65.296649 
2741.000000	65.294504 
2740.000000	65.292716 
2739.000000	65.293526 
2738.000000	65.299081 
2737.000000	65.310573 
2736.000000	65.327930 
2735.000000	65.349411 
2734.000000	65.371847 
2733.000000	65.391564 
2732.000000	65.404987 
2731.000000	65.409660 
2730.000000	65.404653 
2729.000000	65.391016 
2728.000000	65.371251 
2727.000000	65.348601 
2726.000000	65.326404 
2725.000000	65.307116 
2724.000000	65.292119 
2723.000000	65.281653 
2722.000000	65.274763 
2721.000000	65.270137 
2720.000000	65.266323 
2719.000000	65.262293 
2718.000000	65.257501 
2717.000000	65.251779 
2716.000000	65.245604 
2715.000000	65.239548 
2714.000000	65.234398 
2713.000000	65.230798 
2712.000000	65.229392 
2711.000000	65.230584 
2710.000000	65.234613 
2709.000000	65.241479 
2708.000000	65.250754 
2707.000000	65.261769 
2706.000000	65.273523 
2705.000000	65.284848 
2704.000000	65.294694 
2703.000000	65.302324 
2702.000000	65.307378 
2701.000000	65.309762 
2700.000000	65.309524 
2699.000000	65.306830 
2698.000000	65.301585 
2697.000000	65.293788 
2696.000000	65.283250 
2695.000000	65.270328 
2694.000000	65.255737 
2693.000000	65.240812 
2692.000000	65.227127 
2691.000000	65.216493 
2690.000000	65.210485 
2689.000000	65.209984 
2688.000000	65.215086 
2687.000000	65.224814 
2686.000000	65.237355 
2685.000000	65.250325 
2684.000000	65.261411 
2683.000000	65.268588 
2682.000000	65.270686 
2681.000000	65.267539 
2680.000000	65.259647 
2679.000000	65.248346 
2678.000000	65.235114 
2677.000000	65.221476 
2676.000000	65.208673 
2675.000000	65.197563 
2674.000000	65.188384 
2673.000000	65.181136 
2672.000000	65.175390 
2671.000000	65.170717 
2670.000000	65.166831 
2669.000000	65.163516 
2668.000000	65.160751 
2667.000000	65.158653 
2666.000000	65.157246 
2665.000000	65.156316 
2664.000000	65.155577 
2663.000000	65.154480 
2662.000000	65.152573 
2661.000000	65.149641 
2660.000000	65.145945 
2659.000000	65.142107 
2658.000000	65.139102 
2657.000000	65.138053 
2656.000000	65.139746 
2655.000000	65.144610 
2654.000000	65.152525 
2653.000000	65.163064 
2652.000000	65.175223 
2651.000000	65.187931 
2650.000000	65.200495 
2649.000000	65.212607 
2648.000000	65.224409 
2647.000000	65.236449 
2646.000000	65.249466 
2645.000000	65.264034 
2644.000000	65.280437 
2643.000000	65.298390 
2642.000000	65.316963 
2641.000000	65.334844 
2640.000000	65.350556 
2639.000000	65.362858 
2638.000000	65.370845 
2637.000000	65.374159 
2636.000000	65.373373 
2635.000000	65.369701 
2634.000000	65.364694 
2633.000000	65.360069 
2632.000000	65.357184 
2631.000000	65.356636 
2630.000000	65.357947 
2629.000000	65.359854 
2628.000000	65.360450 
2627.000000	65.357804 
2626.000000	65.350341 
2625.000000	65.337467 
2624.000000	65.319538 
2623.000000	65.297913 
2622.000000	65.274262 
2621.000000	65.250492 
2620.000000	65.228104 
2619.000000	65.207815 
2618.000000	65.189909 
2617.000000	65.174007 
2616.000000	65.159797 
2615.000000	65.147399 
2614.000000	65.137481 
2613.000000	65.131187 
2612.000000	65.130043 
2611.000000	65.135550 
2610.000000	65.148568 
2609.000000	65.168857 
2608.000000	65.195345 
2607.000000	65.226006 
2606.000000	65.258431 
2605.000000	65.290117 
2604.000000	65.318846 
2603.000000	65.343070 
2602.000000	65.361905 
2601.000000	65.375304 
2600.000000	65.383672 
2599.000000	65.387678 
2598.000000	65.388512 
2597.000000	65.387320 
2596.000000	65.385365 
2595.000000	65.383839 
2594.000000	65.383911 
2593.000000	65.386128 
2592.000000	65.390491 
2591.000000	65.396070 
2590.000000	65.401506 
2589.000000	65.404891 
2588.000000	65.404129 
2587.000000	65.397477 
2586.000000	65.384149 
2585.000000	65.364313 
2584.000000	65.339159 
2583.000000	65.310788 
2582.000000	65.281772 
2581.000000	65.254902 
2580.000000	65.232729 
2579.000000	65.217375 
2578.000000	65.210056 
2577.000000	65.211367 
2576.000000	65.221071 
2575.000000	65.238046 
2574.000000	65.260291 
2573.000000	65.285253 
2572.000000	65.310072 
2571.000000	65.331578 
2570.000000	65.346956 
2569.000000	65.354228 
2568.000000	65.352678 
2567.000000	65.343093 
2566.000000	65.327572 
2565.000000	65.309214 
2564.000000	65.291762 
2563.000000	65.278697 
2562.000000	65.272665 
2561.000000	65.274953 
2560.000000	65.285181 
2559.000000	65.301632 
2558.000000	65.321540 
2557.000000	65.341544 
2556.000000	65.358495 
2555.000000	65.369892 
2554.000000	65.374255 
2553.000000	65.371155 
2552.000000	65.361261 
2551.000000	65.346002 
2550.000000	65.327191 
2549.000000	65.306878 
2548.000000	65.286946 
2547.000000	65.268874 
2546.000000	65.253543 
2545.000000	65.241336 
2544.000000	65.232181 
2543.000000	65.225911 
2542.000000	65.222334 
2541.000000	65.221595 
2540.000000	65.223813 
2539.000000	65.229582 
2538.000000	65.239286 
2537.000000	65.253138 
2536.000000	65.270662 
2535.000000	65.290713 
2534.000000	65.311455 
2533.000000	65.330600 
2532.000000	65.345954 
2531.000000	65.355777 
2530.000000	65.359067 
2529.000000	65.355777 
2528.000000	65.346670 
2527.000000	65.332984 
2526.000000	65.316033 
2525.000000	65.296769 
2524.000000	65.275883 
2523.000000	65.253806 
2522.000000	65.231132 
2521.000000	65.209078 
2520.000000	65.189480 
2519.000000	65.174865 
2518.000000	65.167951 
2517.000000	65.171003 
2516.000000	65.185213 
2515.000000	65.209913 
2514.000000	65.242505 
2513.000000	65.278697 
2512.000000	65.313363 
2511.000000	65.341544 
2510.000000	65.359401 
2509.000000	65.365123 
2508.000000	65.359044 
2507.000000	65.343546 
2506.000000	65.322279 
2505.000000	65.299272 
2504.000000	65.278005 
2503.000000	65.260982 
2502.000000	65.249109 
2501.000000	65.242147 
2500.000000	65.239048 
2499.000000	65.238595 
2498.000000	65.239691 
2497.000000	65.241694 
2496.000000	65.244460 
2495.000000	65.248084 
2494.000000	65.252709 
2493.000000	65.258312 
2492.000000	65.264630 
2491.000000	65.271282 
2490.000000	65.277838 
2489.000000	65.284037 
2488.000000	65.290236 
2487.000000	65.296936 
2486.000000	65.304851 
2485.000000	65.314459 
2484.000000	65.325880 
2483.000000	65.338635 
2482.000000	65.351676 
2481.000000	65.363478 
2480.000000	65.372824 
2479.000000	65.378689 
2478.000000	65.380573 
2477.000000	65.378570 
2476.000000	65.373063 
2475.000000	65.364694 
2474.000000	65.354180 
2473.000000	65.342259 
2472.000000	65.329504 
2471.000000	65.316843 
2470.000000	65.305423 
2469.000000	65.296792 
2468.000000	65.292334 
2467.000000	65.293240 
2466.000000	65.299987 
2465.000000	65.311980 
2464.000000	65.327596 
2463.000000	65.344119 
2462.000000	65.358424 
2461.000000	65.367531 
2460.000000	65.369439 
2459.000000	65.363264 
2458.000000	65.349674 
2457.000000	65.330505 
2456.000000	65.308618 
2455.000000	65.286850 
2454.000000	65.267944 
2453.000000	65.253996 
2452.000000	65.246486 
2451.000000	65.246200 
2450.000000	65.253186 
2449.000000	65.266942 
2448.000000	65.286564 
2447.000000	65.310716 
2446.000000	65.337681 
2445.000000	65.365552 
2444.000000	65.392208 
2443.000000	65.415596 
2442.000000	65.434050 
2441.000000	65.446186 
2440.000000	65.451502 
2439.000000	65.450119 
2438.000000	65.442895 
2437.000000	65.431165 
2436.000000	65.416526 
2435.000000	65.400600 
2434.000000	65.384769 
2433.000000	65.369987 
2432.000000	65.356731 
2431.000000	65.345239 
2430.000000	65.335392 
2429.000000	65.327167 
2428.000000	65.320444 
2427.000000	65.315437 
2426.000000	65.312409 
2425.000000	65.311956 
2424.000000	65.314412 
2423.000000	65.320134 
2422.000000	65.328931 
2421.000000	65.340256 
2420.000000	65.352916 
2419.000000	65.365481 
2418.000000	65.376400 
2417.000000	65.384125 
2416.000000	65.387487 
2415.000000	65.385937 
2414.000000	65.379500 
2413.000000	65.368819 
2412.000000	65.355205 
2411.000000	65.340352 
2410.000000	65.326189 
2409.000000	65.314626 
2408.000000	65.307140 
2407.000000	65.304422 
2406.000000	65.306305 
2405.000000	65.311765 
2404.000000	65.319395 
2403.000000	65.327382 
2402.000000	65.334272 
2401.000000	65.339064 
2400.000000	65.341591 
2399.000000	65.342211 
2398.000000	65.341854 
2397.000000	65.341401 
2396.000000	65.341639 
2395.000000	65.342879 
2394.000000	65.344858 
2393.000000	65.346908 
2392.000000	65.348267 
2391.000000	65.348362 
2390.000000	65.346980 
2389.000000	65.344405 
2388.000000	65.341281 
2387.000000	65.338397 
2386.000000	65.336489 
2385.000000	65.336155 
2384.000000	65.337944 
2383.000000	65.342164 
2382.000000	65.349221 
2381.000000	65.359473 
2380.000000	65.373182 
2379.000000	65.390253 
2378.000000	65.410137 
2377.000000	65.431714 
2376.000000	65.453290 
2375.000000	65.472793 
2374.000000	65.488123 
2373.000000	65.497541 
2372.000000	65.499997 
2371.000000	65.495347 
2370.000000	65.484404 
2369.000000	65.468573 
2368.000000	65.449643 
2367.000000	65.429306 
2366.000000	65.408921 
2365.000000	65.389394 
2364.000000	65.371370 
2363.000000	65.355277 
2362.000000	65.341520 
2361.000000	65.330481 
2360.000000	65.322804 
2359.000000	65.318918 
2358.000000	65.318965 
2357.000000	65.322756 
2356.000000	65.329837 
2355.000000	65.339136 
2354.000000	65.349364 
2353.000000	65.359210 
2352.000000	65.367436 
2351.000000	65.373206 
2350.000000	65.376091 
2349.000000	65.376019 
2348.000000	65.373253 
2347.000000	65.368366 
2346.000000	65.361809 
2345.000000	65.354084 
2344.000000	65.345430 
2343.000000	65.336084 
2342.000000	65.326118 
2341.000000	65.315580 
2340.000000	65.304470 
2339.000000	65.292811 
2338.000000	65.280723 
2337.000000	65.268397 
2336.000000	65.256118 
2335.000000	65.244174 
2334.000000	65.232729 
2333.000000	65.221929 
2332.000000	65.211796 
2331.000000	65.202522 
2330.000000	65.194272 
2329.000000	65.187549 
2328.000000	65.182900 
2327.000000	65.181303 
2326.000000	65.183591 
2325.000000	65.190625 
2324.000000	65.202641 
2323.000000	65.219497 
2322.000000	65.240406 
2321.000000	65.263986 
2320.000000	65.288448 
2319.000000	65.311837 
2318.000000	65.332460 
2317.000000	65.348815 
2316.000000	65.360164 
2315.000000	65.365886 
2314.000000	65.365910 
2313.000000	65.360188 
2312.000000	65.348982 
2311.000000	65.332698 
2310.000000	65.312004 
2309.000000	65.288162 
2308.000000	65.262913 
2307.000000	65.238595 
2306.000000	65.217685 
2305.000000	65.202641 
2304.000000	65.195417 
2303.000000	65.196871 
2302.000000	65.206527 
2301.000000	65.222692 
2300.000000	65.242624 
2299.000000	65.263152 
2298.000000	65.280842 
2297.000000	65.293240 
2296.000000	65.298795 
2295.000000	65.297365 
2294.000000	65.290021 
2293.000000	65.278673 
2292.000000	65.265631 
2291.000000	65.253186 
2290.000000	65.243172 
2289.000000	65.236639 
2288.000000	65.233826 
2287.000000	65.234494 
2286.000000	65.237927 
2285.000000	65.243291 
2284.000000	65.249919 
2283.000000	65.257382 
2282.000000	65.265512 
2281.000000	65.274286 
2280.000000	65.283679 
2279.000000	65.293622 
2278.000000	65.303826 
2277.000000	65.313744 
2276.000000	65.322613 
2275.000000	65.329742 
2274.000000	65.334701 
2273.000000	65.337371 
2272.000000	65.338206 
2271.000000	65.337991 
2270.000000	65.337872 
2269.000000	65.339016 
2268.000000	65.342211 
2267.000000	65.347576 
2266.000000	65.354561 
2265.000000	65.361833 
2264.000000	65.367841 
2263.000000	65.370988 
2262.000000	65.370059 
2261.000000	65.364599 
2260.000000	65.355134 
2259.000000	65.342926 
2258.000000	65.329694 
2257.000000	65.317010 
2256.000000	65.305972 
2255.000000	65.296816 
2254.000000	65.289163 
2253.000000	65.282201 
2252.000000	65.275216 
2251.000000	65.267968 
2250.000000	65.261077 
2249.000000	65.255928 
2248.000000	65.254545 
2247.000000	65.258693 
2246.000000	65.269756 
2245.000000	65.288114 
2244.000000	65.312910 
2243.000000	65.342116 
2242.000000	65.372943 
2241.000000	65.402293 
2240.000000	65.426945 
2239.000000	65.444564 
2238.000000	65.453386 
2237.000000	65.452575 
2236.000000	65.442109 
2235.000000	65.422892 
2234.000000	65.396595 
2233.000000	65.365505 
2232.000000	65.332484 
2231.000000	65.300869 
2230.000000	65.273928 
2229.000000	65.254640 
2228.000000	65.245008 
2227.000000	65.245866 
2226.000000	65.256571 
2225.000000	65.274953 
2224.000000	65.297794 
2223.000000	65.321350 
2222.000000	65.341877 
2221.000000	65.356302 
2220.000000	65.362858 
2219.000000	65.361261 
2218.000000	65.352749 
2217.000000	65.339708 
2216.000000	65.325140 
2215.000000	65.311837 
2214.000000	65.302181 
2213.000000	65.297436 
2212.000000	65.297698 
2211.000000	65.302205 
2210.000000	65.309596 
2209.000000	65.318298 
2208.000000	65.326905 
2207.000000	65.334534 
2206.000000	65.340757 
2205.000000	65.345764 
2204.000000	65.349936 
2203.000000	65.353703 
2202.000000	65.357255 
2201.000000	65.360665 
2200.000000	65.363931 
2199.000000	65.366983 
2198.000000	65.369915 
2197.000000	65.373158 
2196.000000	65.377235 
2195.000000	65.382814 
2194.000000	65.390181 
2193.000000	65.399265 
2192.000000	65.409278 
2191.000000	65.418910 
2190.000000	65.426421 
2189.000000	65.429973 
2188.000000	65.428042 
2187.000000	65.419602 
2186.000000	65.404534 
2185.000000	65.383601 
2184.000000	65.358304 
2183.000000	65.330791 
2182.000000	65.303325 
2181.000000	65.278029 
2180.000000	65.256762 
2179.000000	65.240716 
2178.000000	65.230560 
2177.000000	65.226173 
2176.000000	65.227127 
2175.000000	65.232634 
2174.000000	65.241694 
2173.000000	65.253186 
2172.000000	65.266060 
2171.000000	65.279531 
2170.000000	65.292763 
2169.000000	65.305089 
2168.000000	65.316224 
2167.000000	65.326189 
2166.000000	65.335297 
2165.000000	65.343976 
2164.000000	65.352892 
2163.000000	65.362644 
2162.000000	65.373849 
2161.000000	65.386652 
2160.000000	65.401029 
2159.000000	65.416383 
2158.000000	65.431976 
2157.000000	65.446662 
2156.000000	65.459442 
2155.000000	65.469360 
2154.000000	65.475916 
2153.000000	65.478825 
2152.000000	65.478134 
2151.000000	65.474152 
2150.000000	65.467405 
2149.000000	65.458297 
2148.000000	65.446996 
2147.000000	65.433478 
2146.000000	65.417623 
2145.000000	65.399098 
2144.000000	65.377569 
2143.000000	65.352869 
2142.000000	65.325212 
2141.000000	65.295386 
2140.000000	65.264630 
2139.000000	65.234518 
2138.000000	65.206861 
2137.000000	65.183424 
2136.000000	65.165829 
2135.000000	65.154910 
2134.000000	65.150833 
2133.000000	65.153002 
2132.000000	65.160369 
2131.000000	65.171003 
2130.000000	65.183305 
2129.000000	65.195655 
2128.000000	65.207099 
2127.000000	65.217185 
2126.000000	65.226244 
2125.000000	65.234994 
2124.000000	65.244555 
2123.000000	65.255999 
2122.000000	65.270161 
2121.000000	65.287327 
2120.000000	65.307378 
2119.000000	65.329575 
2118.000000	65.352797 
2117.000000	65.375494 
2116.000000	65.396094 
2115.000000	65.413093 
2114.000000	65.425372 
2113.000000	65.432000 
2112.000000	65.432643 
2111.000000	65.427470 
2110.000000	65.417122 
2109.000000	65.402483 
2108.000000	65.384960 
2107.000000	65.365958 
2106.000000	65.346789 
2105.000000	65.328550 
2104.000000	65.312266 
2103.000000	65.298652 
2102.000000	65.288376 
2101.000000	65.281820 
2100.000000	65.279150 
2099.000000	65.280246 
2098.000000	65.284872 
2097.000000	65.292429 
2096.000000	65.301966 
2095.000000	65.312457 
2094.000000	65.322875 
2093.000000	65.332269 
2092.000000	65.339922 
2091.000000	65.345191 
2090.000000	65.347790 
2089.000000	65.347409 
2088.000000	65.343976 
2087.000000	65.337586 
2086.000000	65.328621 
2085.000000	65.317749 
2084.000000	65.306091 
2083.000000	65.295290 
2082.000000	65.287137 
2081.000000	65.283489 
2080.000000	65.285420 
2079.000000	65.293145 
2078.000000	65.305566 
2077.000000	65.320420 
2076.000000	65.334510 
2075.000000	65.344238 
2074.000000	65.346670 
2073.000000	65.340042 
2072.000000	65.324354 
2071.000000	65.301251 
2070.000000	65.273833 
2069.000000	65.246152 
2068.000000	65.222406 
2067.000000	65.205955 
2066.000000	65.198922 
2065.000000	65.201759 
2064.000000	65.213370 
2063.000000	65.231418 
2062.000000	65.252900 
2061.000000	65.274524 
2060.000000	65.293478 
2059.000000	65.307831 
2058.000000	65.316367 
2057.000000	65.319037 
2056.000000	65.316462 
2055.000000	65.310001 
2054.000000	65.301227 
2053.000000	65.291738 
2052.000000	65.283036 
2051.000000	65.276336 
2050.000000	65.272521 
2049.000000	65.272068 
2048.000000	65.275263 
2047.000000	65.282058 
2046.000000	65.292215 
2045.000000	65.305328 
2044.000000	65.320706 
2043.000000	65.337467 
2042.000000	65.354466 
2041.000000	65.370512 
2040.000000	65.384221 
2039.000000	65.394330 
2038.000000	65.399885 
2037.000000	65.400362 
2036.000000	65.395569 
2035.000000	65.386033 
2034.000000	65.372657 
2033.000000	65.356516 
2032.000000	65.338611 
2031.000000	65.319871 
2030.000000	65.300798 
2029.000000	65.281891 
2028.000000	65.263414 
2027.000000	65.245604 
2026.000000	65.228915 
2025.000000	65.214014 
2024.000000	65.201878 
2023.000000	65.193295 
2022.000000	65.189027 
2021.000000	65.189409 
2020.000000	65.194368 
2019.000000	65.203022 
2018.000000	65.214133 
2017.000000	65.225982 
2016.000000	65.236806 
2015.000000	65.245079 
2014.000000	65.249943 
2013.000000	65.251350 
2012.000000	65.250134 
2011.000000	65.247797 
2010.000000	65.246295 
2009.000000	65.247321 
2008.000000	65.252137 
2007.000000	65.260958 
2006.000000	65.272903 
2005.000000	65.286087 
2004.000000	65.298056 
2003.000000	65.306377 
2002.000000	65.309023 
2001.000000	65.305113 
2000.000000	65.295100 
1999.000000	65.280604 
1998.000000	65.264081 
1997.000000	65.248346 
1996.000000	65.236020 
1995.000000	65.229010 
1994.000000	65.227985 
1993.000000	65.232467 
1992.000000	65.241193 
1991.000000	65.252137 
1990.000000	65.263128 
1989.000000	65.272283 
1988.000000	65.278172 
1987.000000	65.280246 
1986.000000	65.278649 
1985.000000	65.274143 
1984.000000	65.267872 
1983.000000	65.261173 
1982.000000	65.255355 
1981.000000	65.251493 
1980.000000	65.250062 
1979.000000	65.250849 
1978.000000	65.252971 
1977.000000	65.255022 
1976.000000	65.255308 
1975.000000	65.252423 
1974.000000	65.245580 
1973.000000	65.234923 
1972.000000	65.221595 
1971.000000	65.207481 
1970.000000	65.195012 
1969.000000	65.186452 
1968.000000	65.183734 
1967.000000	65.187954 
1966.000000	65.199232 
1965.000000	65.216708 
1964.000000	65.238595 
1963.000000	65.262484 
1962.000000	65.285563 
1961.000000	65.305256 
1960.000000	65.319442 
1959.000000	65.326666 
1958.000000	65.326571 
1957.000000	65.319824 
1956.000000	65.308022 
1955.000000	65.293431 
1954.000000	65.278792 
1953.000000	65.266609 
1952.000000	65.258932 
1951.000000	65.256977 
1950.000000	65.260934 
1949.000000	65.269970 
1948.000000	65.282440 
1947.000000	65.296149 
1946.000000	65.308713 
1945.000000	65.317964 
1944.000000	65.322136 
1943.000000	65.320229 
1942.000000	65.311884 
1941.000000	65.297722 
1940.000000	65.279150 
1939.000000	65.258336 
1938.000000	65.237784 
1937.000000	65.220165 
1936.000000	65.207719 
1935.000000	65.202093 
1934.000000	65.203976 
1933.000000	65.212893 
1932.000000	65.227437 
1931.000000	65.245437 
1930.000000	65.264225 
1929.000000	65.281152 
1928.000000	65.294146 
1927.000000	65.301823 
1926.000000	65.303945 
1925.000000	65.301299 
1924.000000	65.295529 
1923.000000	65.288782 
1922.000000	65.283131 
1921.000000	65.280270 
1920.000000	65.281057 
1919.000000	65.285372 
1918.000000	65.292143 
1917.000000	65.299463 
1916.000000	65.305233 
1915.000000	65.307593 
1914.000000	65.305399 
1913.000000	65.298318 
1912.000000	65.287351 
1911.000000	65.274143 
1910.000000	65.261149 
1909.000000	65.250802 
1908.000000	65.245175 
1907.000000	65.245556 
1906.000000	65.252089 
1905.000000	65.264010 
1904.000000	65.279698 
1903.000000	65.297126 
1902.000000	65.314126 
1901.000000	65.328693 
1900.000000	65.339231 
1899.000000	65.344738 
1898.000000	65.344762 
1897.000000	65.339469 
1896.000000	65.329337 
1895.000000	65.315365 
1894.000000	65.298938 
1893.000000	65.281677 
1892.000000	65.265536 
1891.000000	65.252327 
1890.000000	65.243673 
1889.000000	65.240883 
1888.000000	65.244507 
1887.000000	65.254068 
1886.000000	65.267920 
1885.000000	65.283584 
1884.000000	65.298008 
1883.000000	65.308427 
1882.000000	65.312695 
1881.000000	65.309929 
1880.000000	65.300774 
1879.000000	65.287184 
1878.000000	65.271997 
1877.000000	65.258288 
1876.000000	65.248727 
1875.000000	65.244936 
1874.000000	65.247225 
1873.000000	65.254712 
1872.000000	65.265440 
1871.000000	65.277194 
1870.000000	65.287613 
1869.000000	65.294837 
1868.000000	65.297722 
1867.000000	65.295767 
1866.000000	65.289306 
1865.000000	65.279102 
1864.000000	65.266537 
1863.000000	65.253138 
1862.000000	65.240716 
1861.000000	65.231204 
1860.000000	65.226244 
1859.000000	65.227150 
1858.000000	65.234231 
1857.000000	65.247035 
1856.000000	65.264153 
1855.000000	65.283441 
1854.000000	65.302443 
1853.000000	65.318775 
1852.000000	65.330862 
1851.000000	65.338134 
1850.000000	65.341210 
1849.000000	65.341472 
1848.000000	65.340709 
1847.000000	65.340518 
1846.000000	65.341854 
1845.000000	65.344691 
1844.000000	65.348100 
1843.000000	65.350532 
1842.000000	65.350508 
1841.000000	65.346980 
1840.000000	65.340113 
1839.000000	65.330958 
1838.000000	65.321230 
1837.000000	65.312910 
1836.000000	65.307593 
1835.000000	65.305924 
1834.000000	65.307354 
1833.000000	65.310359 
1832.000000	65.312910 
1831.000000	65.313124 
1830.000000	65.309762 
1829.000000	65.302705 
1828.000000	65.292739 
1827.000000	65.281438 
1826.000000	65.270495 
1825.000000	65.261173 
1824.000000	65.254092 
1823.000000	65.249085 
1822.000000	65.245413 
1821.000000	65.242385 
1820.000000	65.239763 
1819.000000	65.237998 
1818.000000	65.238165 
1817.000000	65.241312 
1816.000000	65.248036 
1815.000000	65.258002 
1814.000000	65.269708 
1813.000000	65.280747 
1812.000000	65.288519 
1811.000000	65.290760 
1810.000000	65.286445 
1809.000000	65.275788 
1808.000000	65.260481 
1807.000000	65.243101 
1806.000000	65.226578 
1805.000000	65.213584 
1804.000000	65.205597 
1803.000000	65.202951 
1802.000000	65.204548 
1801.000000	65.208268 
1800.000000	65.211439 
1799.000000	65.211629 
1798.000000	65.207314 
1797.000000	65.198230 
1796.000000	65.185475 
1795.000000	65.171194 
1794.000000	65.157842 
1793.000000	65.147852 
1792.000000	65.142941 
1791.000000	65.143990 
1790.000000	65.150976 
1789.000000	65.163278 
1788.000000	65.179777 
1787.000000	65.199422 
1786.000000	65.221166 
1785.000000	65.244197 
1784.000000	65.267610 
1783.000000	65.290570 
1782.000000	65.312004 
1781.000000	65.330672 
1780.000000	65.345454 
1779.000000	65.355038 
1778.000000	65.358662 
1777.000000	65.355753 
1776.000000	65.346527 
1775.000000	65.331673 
1774.000000	65.312647 
1773.000000	65.291190 
1772.000000	65.269398 
1771.000000	65.249323 
1770.000000	65.232872 
1769.000000	65.221381 
1768.000000	65.215611 
1767.000000	65.215659 
1766.000000	65.221095 
1765.000000	65.230846 
1764.000000	65.243387 
1763.000000	65.256977 
1762.000000	65.269875 
1761.000000	65.280413 
1760.000000	65.287399 
1759.000000	65.289998 
1758.000000	65.288138 
1757.000000	65.282273 
1756.000000	65.273261 
1755.000000	65.262436 
1754.000000	65.251231 
1753.000000	65.241098 
1752.000000	65.233182 
1751.000000	65.228366 
1750.000000	65.227055 
1749.000000	65.229153 
1748.000000	65.234017 
1747.000000	65.240788 
1746.000000	65.248250 
1745.000000	65.254998 
1744.000000	65.259504 
1743.000000	65.260314 
1742.000000	65.256190 
1741.000000	65.246272 
1740.000000	65.230226 
1739.000000	65.208292 
1738.000000	65.181350 
1737.000000	65.151000 
1736.000000	65.119266 
1735.000000	65.088653 
1734.000000	65.061616 
1733.000000	65.040493 
1732.000000	65.027308 
1731.000000	65.023493 
1730.000000	65.029430 
1729.000000	65.044474 
1728.000000	65.067005 
1727.000000	65.094327 
1726.000000	65.122985 
1725.000000	65.149235 
1724.000000	65.169405 
1723.000000	65.180945 
1722.000000	65.182399 
1721.000000	65.174293 
1720.000000	65.158581 
1719.000000	65.138912 
1718.000000	65.119600 
1717.000000	65.104818 
1716.000000	65.097594 
1715.000000	65.099382 
1714.000000	65.109801 
1713.000000	65.126824 
1712.000000	65.147256 
1711.000000	65.167665 
1710.000000	65.185093 
1709.000000	65.197443 
1708.000000	65.203928 
1707.000000	65.204715 
1706.000000	65.200901 
1705.000000	65.193819 
1704.000000	65.184950 
1703.000000	65.175509 
1702.000000	65.166425 
1701.000000	65.158462 
1700.000000	65.152001 
1699.000000	65.147495 
1698.000000	65.145230 
1697.000000	65.145254 
1696.000000	65.147471 
1695.000000	65.151238 
1694.000000	65.155673 
1693.000000	65.160155 
1692.000000	65.164113 
1691.000000	65.167284 
1690.000000	65.169858 
1689.000000	65.172505 
1688.000000	65.175795 
1687.000000	65.180397 
1686.000000	65.186333 
1685.000000	65.193104 
1684.000000	65.199851 
1683.000000	65.205383 
1682.000000	65.208482 
1681.000000	65.208196 
1680.000000	65.204215 
1679.000000	65.197181 
1678.000000	65.188479 
1677.000000	65.180206 
1676.000000	65.174651 
1675.000000	65.173602 
1674.000000	65.178346 
1673.000000	65.188622 
1672.000000	65.203261 
1671.000000	65.219688 
1670.000000	65.234756 
1669.000000	65.245056 
1668.000000	65.247797 
1667.000000	65.241312 
1666.000000	65.225410 
1665.000000	65.201497 
1664.000000	65.172290 
1663.000000	65.141296 
1662.000000	65.112042 
1661.000000	65.087461 
1660.000000	65.069675 
1659.000000	65.059781 
1658.000000	65.057921 
1657.000000	65.063571 
1656.000000	65.075755 
1655.000000	65.093207 
1654.000000	65.114641 
1653.000000	65.138387 
1652.000000	65.162706 
1651.000000	65.185761 
1650.000000	65.205597 
1649.000000	65.220499 
1648.000000	65.229034 
1647.000000	65.230703 
1646.000000	65.225601 
1645.000000	65.214800 
1644.000000	65.199828 
1643.000000	65.182662 
1642.000000	65.165090 
1641.000000	65.148663 
1640.000000	65.134477 
1639.000000	65.123271 
1638.000000	65.115547 
1637.000000	65.111589 
1636.000000	65.111565 
1635.000000	65.115547 
1634.000000	65.123414 
1633.000000	65.134692 
1632.000000	65.148591 
1631.000000	65.164136 
1630.000000	65.180015 
1629.000000	65.195059 
1628.000000	65.208244 
1627.000000	65.218901 
1626.000000	65.226793 
1625.000000	65.231943 
1624.000000	65.234708 
1623.000000	65.235328 
1622.000000	65.234017 
1621.000000	65.230393 
1620.000000	65.224218 
1619.000000	65.214776 
1618.000000	65.201401 
1617.000000	65.183758 
1616.000000	65.161848 
1615.000000	65.136241 
1614.000000	65.108227 
1613.000000	65.079736 
1612.000000	65.053057 
1611.000000	65.030598 
1610.000000	65.014696 
1609.000000	65.007138 
1608.000000	65.008568 
1607.000000	65.018653 
1606.000000	65.035867 
1605.000000	65.057992 
1604.000000	65.082502 
1603.000000	65.106701 
1602.000000	65.128469 
1601.000000	65.146398 
1600.000000	65.159916 
1599.000000	65.169024 
1598.000000	65.174174 
1597.000000	65.176177 
1596.000000	65.175938 
1595.000000	65.174341 
1594.000000	65.172004 
1593.000000	65.169358 
1592.000000	65.166640 
1591.000000	65.164184 
1590.000000	65.162396 
1589.000000	65.161991 
1588.000000	65.163779 
1587.000000	65.168523 
1586.000000	65.176606 
1585.000000	65.187788 
1584.000000	65.201091 
1583.000000	65.214800 
1582.000000	65.226817 
1581.000000	65.234971 
1580.000000	65.237498 
1579.000000	65.233540 
1578.000000	65.222811 
1577.000000	65.205740 
1576.000000	65.183234 
1575.000000	65.156483 
1574.000000	65.126800 
1573.000000	65.095615 
1572.000000	65.064382 
1571.000000	65.034794 
1570.000000	65.008902 
1569.000000	64.988875 
1568.000000	64.976644 
1567.000000	64.973449 
1566.000000	64.979577 
1565.000000	64.993953 
1564.000000	65.014195 
1563.000000	65.036892 
1562.000000	65.058183 
1561.000000	65.074372 
1560.000000	65.082883 
1559.000000	65.082526 
1558.000000	65.073728 
1557.000000	65.058374 
1556.000000	65.039277 
1555.000000	65.019464 
1554.000000	65.001511 
1553.000000	64.987349 
1552.000000	64.977955 
1551.000000	64.973807 
1550.000000	64.974832 
1549.000000	64.980864 
1548.000000	64.991664 
1547.000000	65.006327 
1546.000000	65.023684 
1545.000000	65.041685 
1544.000000	65.058350 
1543.000000	65.071702 
1542.000000	65.080523 
1541.000000	65.084648 
1540.000000	65.085196 
1539.000000	65.084028 
1538.000000	65.083122 
1537.000000	65.084290 
1536.000000	65.088343 
1535.000000	65.095114 
1534.000000	65.103530 
1533.000000	65.112090 
1532.000000	65.119385 
1531.000000	65.124464 
1530.000000	65.127325 
1529.000000	65.128564 
1528.000000	65.129375 
1527.000000	65.130829 
1526.000000	65.133500 
1525.000000	65.137338 
1524.000000	65.141820 
1523.000000	65.146112 
1522.000000	65.149593 
1521.000000	65.152025 
1520.000000	65.153789 
1519.000000	65.155434 
1518.000000	65.157651 
1517.000000	65.160489 
1516.000000	65.163445 
1515.000000	65.165352 
1514.000000	65.164375 
1513.000000	65.158939 
1512.000000	65.147852 
1511.000000	65.131115 
1510.000000	65.110063 
1509.000000	65.087389 
1508.000000	65.066552 
1507.000000	65.051293 
1506.000000	65.044569 
1505.000000	65.048122 
1504.000000	65.061950 
1503.000000	65.084171 
1502.000000	65.111470 
1501.000000	65.139389 
1500.000000	65.163230 
1499.000000	65.178775 
1498.000000	65.183115 
1497.000000	65.175199 
1496.000000	65.155959 
1495.000000	65.128159 
1494.000000	65.095734 
1493.000000	65.062880 
1492.000000	65.033364 
1491.000000	65.009784 
1490.000000	64.993429 
1489.000000	64.984703 
1488.000000	64.983224 
1487.000000	64.988255 
1486.000000	64.998841 
1485.000000	65.013909 
1484.000000	65.032124 
1483.000000	65.051603 
1482.000000	65.070533 
1481.000000	65.087008 
1480.000000	65.099573 
1479.000000	65.107440 
1478.000000	65.110635 
1477.000000	65.109872 
1476.000000	65.106463 
1475.000000	65.102028 
1474.000000	65.098142 
1473.000000	65.095973 
1472.000000	65.096259 
1471.000000	65.099167 
1470.000000	65.104460 
1469.000000	65.111422 
1468.000000	65.119099 
1467.000000	65.126276 
1466.000000	65.131735 
1465.000000	65.134024 
1464.000000	65.131902 
1463.000000	65.124344 
1462.000000	65.110754 
1461.000000	65.091180 
1460.000000	65.066599 
1459.000000	65.038800 
1458.000000	65.009903 
1457.000000	64.982438 
1456.000000	64.958667 
1455.000000	64.940452 
1454.000000	64.929127 
1453.000000	64.925241 
1452.000000	64.928579 
1451.000000	64.938282 
1450.000000	64.953088 
1449.000000	64.971494 
1448.000000	64.991760 
1447.000000	65.012240 
1446.000000	65.031433 
1445.000000	65.048003 
1444.000000	65.061068 
1443.000000	65.070199 
1442.000000	65.075373 
1441.000000	65.077042 
1440.000000	65.075993 
1439.000000	65.072965 
1438.000000	65.068793 
1437.000000	65.064311 
1436.000000	65.060091 
1435.000000	65.056896 
1434.000000	65.055155 
1433.000000	65.055680 
1432.000000	65.058541 
1431.000000	65.063548 
1430.000000	65.069460 
1429.000000	65.074467 
1428.000000	65.076422 
1427.000000	65.073132 
1426.000000	65.063261 
1425.000000	65.046572 
1424.000000	65.024542 
1423.000000	65.000057 
1422.000000	64.976906 
1421.000000	64.958906 
1420.000000	64.948797 
1419.000000	64.947724 
1418.000000	64.954638 
1417.000000	64.966678 
1416.000000	64.979910 
1415.000000	64.990329 
1414.000000	64.994955 
1413.000000	64.992570 
1412.000000	64.983940 
1411.000000	64.971661 
1410.000000	64.959311 
1409.000000	64.950537 
1408.000000	64.948368 
1407.000000	64.954519 
1406.000000	64.969110 
1405.000000	64.990830 
1404.000000	65.017247 
1403.000000	65.045094 
1402.000000	65.071034 
1401.000000	65.091967 
1400.000000	65.105509 
1399.000000	65.109896 
1398.000000	65.104365 
1397.000000	65.089082 
1396.000000	65.065217 
1395.000000	65.034866 
1394.000000	65.000867 
1393.000000	64.966559 
1392.000000	64.935493 
1391.000000	64.910912 
1390.000000	64.895439 
1389.000000	64.890503 
1388.000000	64.896416 
1387.000000	64.912080 
1386.000000	64.935421 
1385.000000	64.963603 
1384.000000	64.993619 
1383.000000	65.022468 
1382.000000	65.047621 
1381.000000	65.067386 
1380.000000	65.080928 
1379.000000	65.088081 
1378.000000	65.089297 
1377.000000	65.085434 
1376.000000	65.077543 
1375.000000	65.066909 
1374.000000	65.054583 
1373.000000	65.041685 
1372.000000	65.028977 
1371.000000	65.017127 
1370.000000	65.006685 
1369.000000	64.998126 
1368.000000	64.991903 
1367.000000	64.988183 
1366.000000	64.987158 
1365.000000	64.988732 
1364.000000	64.992642 
1363.000000	64.998602 
1362.000000	65.005946 
1361.000000	65.013933 
1360.000000	65.021777 
1359.000000	65.028738 
1358.000000	65.034151 
1357.000000	65.037345 
1356.000000	65.037846 
1355.000000	65.035462 
1354.000000	65.030097 
1353.000000	65.022230 
1352.000000	65.012335 
1351.000000	65.001320 
1350.000000	64.990568 
1349.000000	64.981365 
1348.000000	64.974951 
1347.000000	64.971780 
1346.000000	64.971685 
1345.000000	64.973473 
1344.000000	64.975333 
1343.000000	64.975214 
1342.000000	64.971327 
1341.000000	64.962720 
1340.000000	64.949679 
1339.000000	64.933633 
1338.000000	64.916992 
1337.000000	64.902424 
1336.000000	64.892387 
1335.000000	64.888572 
1334.000000	64.891529 
1333.000000	64.900660 
1332.000000	64.914417 
1331.000000	64.930820 
1330.000000	64.947962 
1329.000000	64.964151 
1328.000000	64.978241 
1327.000000	64.989447 
1326.000000	64.997482 
1325.000000	65.002036 
1324.000000	65.003228 
1323.000000	65.001344 
1322.000000	64.997148 
1321.000000	64.991903 
1320.000000	64.987039 
1319.000000	64.984297 
1318.000000	64.984822 
1317.000000	64.989328 
1316.000000	64.997673 
1315.000000	65.008997 
1314.000000	65.021800 
1313.000000	65.034508 
1312.000000	65.045547 
1311.000000	65.053987 
1310.000000	65.059542 
1309.000000	65.062475 
1308.000000	65.063238 
1307.000000	65.062236 
1306.000000	65.059638 
1305.000000	65.055179 
1304.000000	65.048456 
1303.000000	65.039086 
1302.000000	65.027117 
1301.000000	65.013289 
1300.000000	64.999175 
1299.000000	64.986705 
1298.000000	64.978075 
1297.000000	64.974904 
1296.000000	64.977908 
1295.000000	64.986467 
1294.000000	64.998579 
1293.000000	65.011334 
1292.000000	65.021347 
1291.000000	65.025615 
1290.000000	65.021944 
1289.000000	65.009808 
1288.000000	64.990353 
1287.000000	64.966082 
1286.000000	64.940333 
1285.000000	64.916777 
1284.000000	64.898657 
1283.000000	64.888095 
1282.000000	64.885902 
1281.000000	64.891362 
1280.000000	64.902663 
1279.000000	64.917206 
1278.000000	64.932322 
1277.000000	64.945507 
1276.000000	64.955186 
1275.000000	64.960503 
1274.000000	64.961838 
1273.000000	64.960026 
1272.000000	64.956521 
1271.000000	64.952945 
1270.000000	64.950609 
1269.000000	64.950728 
1268.000000	64.953660 
1267.000000	64.959669 
1266.000000	64.967894 
1265.000000	64.977002 
1264.000000	64.984846 
1263.000000	64.989137 
1262.000000	64.987564 
1261.000000	64.978480 
1260.000000	64.961123 
1259.000000	64.936017 
1258.000000	64.904975 
1257.000000	64.871048 
1256.000000	64.838051 
1255.000000	64.809989 
1254.000000	64.790225 
1253.000000	64.781069 
1252.000000	64.783334 
1251.000000	64.796280 
1250.000000	64.817857 
1249.000000	64.845204 
1248.000000	64.874744 
1247.000000	64.903330 
1246.000000	64.928388 
1245.000000	64.948463 
1244.000000	64.962935 
1243.000000	64.972329 
1242.000000	64.977884 
1241.000000	64.981007 
1240.000000	64.983391 
1239.000000	64.985942 
1238.000000	64.988875 
1237.000000	64.991402 
1236.000000	64.992403 
1235.000000	64.990568 
1234.000000	64.985156 
1233.000000	64.976239 
1232.000000	64.965105 
1231.000000	64.953875 
1230.000000	64.945197 
1229.000000	64.941406 
1228.000000	64.943909 
1227.000000	64.952683 
1226.000000	64.966058 
1225.000000	64.981293 
1224.000000	64.995002 
1223.000000	65.003991 
1222.000000	65.006208 
1221.000000	65.001010 
1220.000000	64.989423 
1219.000000	64.973759 
1218.000000	64.957237 
1217.000000	64.942908 
1216.000000	64.933228 
1215.000000	64.929938 
1214.000000	64.933466 
1213.000000	64.943408 
1212.000000	64.958405 
1211.000000	64.976668 
1210.000000	64.996075 
1209.000000	65.014624 
1208.000000	65.030455 
1207.000000	65.041971 
1206.000000	65.048170 
1205.000000	65.048432 
1204.000000	65.042805 
1203.000000	65.031790 
1202.000000	65.016388 
1201.000000	64.997959 
1200.000000	64.977955 
1199.000000	64.957618 
1198.000000	64.937949 
1197.000000	64.919734 
1196.000000	64.903450 
1195.000000	64.889478 
1194.000000	64.878034 
1193.000000	64.869332 
1192.000000	64.863514 
1191.000000	64.860892 
1190.000000	64.861226 
1189.000000	64.864516 
1188.000000	64.870476 
1187.000000	64.879012 
1186.000000	64.889907 
1185.000000	64.902901 
1184.000000	64.917659 
1183.000000	64.933800 
1182.000000	64.950680 
1181.000000	64.967584 
1180.000000	64.983797 
1179.000000	64.998769 
1178.000000	65.012145 
1177.000000	65.023946 
1176.000000	65.034651 
1175.000000	65.044951 
1174.000000	65.055394 
1173.000000	65.066123 
1172.000000	65.076541 
1171.000000	65.085291 
1170.000000	65.090513 
1169.000000	65.090298 
1168.000000	65.083146 
1167.000000	65.068531 
1166.000000	65.046977 
1165.000000	65.020060 
1164.000000	64.990043 
1163.000000	64.959335 
1162.000000	64.930248 
1161.000000	64.904284 
1160.000000	64.882063 
1159.000000	64.863514 
1158.000000	64.848136 
1157.000000	64.835190 
1156.000000	64.824032 
1155.000000	64.814329 
1154.000000	64.806008 
1153.000000	64.799332 
1152.000000	64.794468 
1151.000000	64.791440 
1150.000000	64.790177 
1149.000000	64.790511 
1148.000000	64.792299 
1147.000000	64.795136 
1146.000000	64.798665 
1145.000000	64.802336 
1144.000000	64.805507 
1143.000000	64.807486 
1142.000000	64.807367 
1141.000000	64.804649 
1140.000000	64.799284 
1139.000000	64.791893 
1138.000000	64.783644 
1137.000000	64.776134 
1136.000000	64.771056 
1135.000000	64.769768 
1134.000000	64.772725 
1133.000000	64.779353 
1132.000000	64.788174 
1131.000000	64.797067 
1130.000000	64.803647 
1129.000000	64.805841 
1128.000000	64.802551 
1127.000000	64.793801 
1126.000000	64.780616 
1125.000000	64.764833 
1124.000000	64.748573 
1123.000000	64.733839 
1122.000000	64.722084 
1121.000000	64.714288 
1120.000000	64.710760 
1119.000000	64.711475 
1118.000000	64.716410 
1117.000000	64.725446 
1116.000000	64.738750 
1115.000000	64.756250 
1114.000000	64.777994 
1113.000000	64.803338 
1112.000000	64.831233 
1111.000000	64.860486 
1110.000000	64.889621 
1109.000000	64.917159 
1108.000000	64.941596 
1107.000000	64.961814 
1106.000000	64.976620 
1105.000000	64.985084 
1104.000000	64.986300 
1103.000000	64.979672 
1102.000000	64.964962 
1101.000000	64.942765 
1100.000000	64.914417 
1099.000000	64.881944 
1098.000000	64.848089 
1097.000000	64.815974 
1096.000000	64.788627 
1095.000000	64.768409 
1094.000000	64.756917 
1093.000000	64.754509 
1092.000000	64.760375 
1091.000000	64.772629 
1090.000000	64.788770 
1089.000000	64.806008 
1088.000000	64.821791 
1087.000000	64.833855 
1086.000000	64.840531 
1085.000000	64.840579 
1084.000000	64.833188 
1083.000000	64.817881 
1082.000000	64.794731 
1081.000000	64.764332 
1080.000000	64.728260 
1079.000000	64.689111 
1078.000000	64.650416 
1077.000000	64.616227 
1076.000000	64.590263 
1075.000000	64.575600 
1074.000000	64.573812 
1073.000000	64.585089 
1072.000000	64.607834 
1071.000000	64.639425 
1070.000000	64.676451 
1069.000000	64.715456 
1068.000000	64.753055 
1067.000000	64.786672 
1066.000000	64.814519 
1065.000000	64.835500 
1064.000000	64.849090 
1063.000000	64.855408 
1062.000000	64.854669 
1061.000000	64.847445 
1060.000000	64.834427 
1059.000000	64.816474 
1058.000000	64.794802 
1057.000000	64.771151 
1056.000000	64.747834 
1055.000000	64.727354 
1054.000000	64.712643 
1053.000000	64.706730 
1052.000000	64.712095 
1051.000000	64.730286 
1050.000000	64.760994 
1049.000000	64.802122 
1048.000000	64.849567 
1047.000000	64.898014 
1046.000000	64.941549 
1045.000000	64.974832 
1044.000000	64.994096 
1043.000000	64.998149 
1042.000000	64.988136 
1041.000000	64.967274 
1040.000000	64.940094 
1039.000000	64.911198 
1038.000000	64.884305 
1037.000000	64.861750 
1036.000000	64.844059 
1035.000000	64.830231 
1034.000000	64.818835 
1033.000000	64.808249 
1032.000000	64.797592 
1031.000000	64.786458 
1030.000000	64.774918 
1029.000000	64.763140 
1028.000000	64.750719 
1027.000000	64.737010 
1026.000000	64.720654 
1025.000000	64.700436 
1024.000000	64.675617 
1023.000000	64.646625 
1022.000000	64.615178 
1021.000000	64.584159 
1020.000000	64.557027 
1019.000000	64.537119 
1018.000000	64.527058 
1017.000000	64.527821 
1016.000000	64.538574 
1015.000000	64.557170 
1014.000000	64.580774 
1013.000000	64.606189 
1012.000000	64.630508 
1011.000000	64.651298 
1010.000000	64.667010 
1009.000000	64.676713 
1008.000000	64.680504 
1007.000000	64.679098 
1006.000000	64.673900 
1005.000000	64.667272 
1004.000000	64.661693 
1003.000000	64.659571 
1002.000000	64.662361 
1001.000000	64.670467 
1000.000000	64.682769 
999.000000	 64.697170 
998.000000	 64.710783 
997.000000	 64.721035 
996.000000	 64.725828 
995.000000	 64.724302 
994.000000	 64.716577 
993.000000	 64.704132 
992.000000	 64.688563 
991.000000	 64.671277 
990.000000	 64.652872 
989.000000	 64.633059 
988.000000	 64.611268 
987.000000	 64.587068 
986.000000	 64.561128 
985.000000	 64.535284 
984.000000	 64.512729 
983.000000	 64.497375 
982.000000	 64.492797 
981.000000	 64.501285 
980.000000	 64.523077 
979.000000	 64.555716 
978.000000	 64.594459 
977.000000	 64.632987 
976.000000	 64.664244 
975.000000	 64.682483 
974.000000	 64.683794 
973.000000	 64.668011 
972.000000	 64.638328 
971.000000	 64.601230 
970.000000	 64.564895 
969.000000	 64.537286 
968.000000	 64.524698 
967.000000	 64.529609 
966.000000	 64.550590 
965.000000	 64.582157 
964.000000	 64.616441 
963.000000	 64.644694 
962.000000	 64.659476 
961.000000	 64.656209 
960.000000	 64.634132 
959.000000	 64.596438 
958.000000	 64.549112 
957.000000	 64.500141 
956.000000	 64.457368 
955.000000	 64.427518 
954.000000	 64.414739 
953.000000	 64.420175 
952.000000	 64.441919 
951.000000	 64.476084 
950.000000	 64.517331 
949.000000	 64.560151 
948.000000	 64.599370 
947.000000	 64.630675 
946.000000	 64.650964 
945.000000	 64.658069 
944.000000	 64.651083 
943.000000	 64.630079 
942.000000	 64.596438 
941.000000	 64.552831 
940.000000	 64.502763 
939.000000	 64.451169 
938.000000	 64.402723 
937.000000	 64.361643 
936.000000	 64.330363 
935.000000	 64.309453 
934.000000	 64.297294 
933.000000	 64.290666 
932.000000	 64.285778 
931.000000	 64.279317 
930.000000	 64.270091 
929.000000	 64.259386 
928.000000	 64.250612 
927.000000	 64.248442 
926.000000	 64.257073 
925.000000	 64.279103 
924.000000	 64.313840 
923.000000	 64.357638 
922.000000	 64.404416 
921.000000	 64.447355 
920.000000	 64.480686 
919.000000	 64.501428 
918.000000	 64.509773 
917.000000	 64.509272 
916.000000	 64.505648 
915.000000	 64.504837 
914.000000	 64.511013 
913.000000	 64.525270 
912.000000	 64.545917 
911.000000	 64.568448 
910.000000	 64.587044 
909.000000	 64.596319 
908.000000	 64.593410 
907.000000	 64.578080 
906.000000	 64.552879 
905.000000	 64.522218 
904.000000	 64.490914 
903.000000	 64.462757 
902.000000	 64.439392 
901.000000	 64.420509 
900.000000	 64.403653 
899.000000	 64.385342 
898.000000	 64.362025 
897.000000	 64.331316 
896.000000	 64.293193 
895.000000	 64.249610 
894.000000	 64.205431 
893.000000	 64.165687 
892.000000	 64.136910 
891.000000	 64.125037 
890.000000	 64.135599 
889.000000	 64.171218 
888.000000	 64.232468 
887.000000	 64.317750 
886.000000	 64.422655 
885.000000	 64.539933 
884.000000	 64.660048 
883.000000	 64.772415 
882.000000	 64.866328 
881.000000	 64.932608 
880.000000	 64.965081 
879.000000	 64.961838 
878.000000	 64.926242 
877.000000	 64.866399 
876.000000	 64.794635 
875.000000	 64.725184 
874.000000	 64.672279 
873.000000	 64.646673 
872.000000	 64.654016 
871.000000	 64.692687 
870.000000	 64.755344 
869.000000	 64.829182 
868.000000	 64.899301 
867.000000	 64.950895 
866.000000	 64.972615 
865.000000	 64.957690 
864.000000	 64.904665 
863.000000	 64.817094 
862.000000	 64.702057 
861.000000	 64.569282 
860.000000	 64.429235 
859.000000	 64.292240 
858.000000	 64.167618 
857.000000	 64.062929 
856.000000	 63.983941 
855.000000	 63.933730 
854.000000	 63.912582 
853.000000	 63.917946 
852.000000	 63.944745 
851.000000	 63.985466 
850.000000	 64.031314 
849.000000	 64.074015 
848.000000	 64.107084 
847.000000	 64.126896 
846.000000	 64.132738 
845.000000	 64.126324 
844.000000	 64.111065 
843.000000	 64.090776 
842.000000	 64.068984 
841.000000	 64.048194 
840.000000	 64.029502 
839.000000	 64.013266 
838.000000	 63.998603 
837.000000	 63.984680 
836.000000	 63.970446 
835.000000	 63.954925 
834.000000	 63.938069 
833.000000	 63.920235 
832.000000	 63.903260 
831.000000	 63.889694 
830.000000	 63.882851 
829.000000	 63.885426 
828.000000	 63.899588 
827.000000	 63.926553 
826.000000	 63.965177 
825.000000	 64.011812 
824.000000	 64.061212 
823.000000	 64.107441 
822.000000	 64.145469 
821.000000	 64.171743 
820.000000	 64.185380 
819.000000	 64.187216 
818.000000	 64.178919 
817.000000	 64.161801 
816.000000	 64.135909 
815.000000	 64.099884 
814.000000	 64.052081 
813.000000	 63.991451 
812.000000	 63.919472 
811.000000	 63.840126 
810.000000	 63.759756 
809.000000	 63.686442 
808.000000	 63.627862 
807.000000	 63.590717 
806.000000	 63.578486 
805.000000	 63.591933 
804.000000	 63.628244 
803.000000	 63.682556 
802.000000	 63.748764 
801.000000	 63.820481 
800.000000	 63.891696 
799.000000	 63.957071 
798.000000	 64.011979 
797.000000	 64.052581 
796.000000	 64.075827 
795.000000	 64.080286 
794.000000	 64.066386 
793.000000	 64.036989 
792.000000	 63.996958 
791.000000	 63.952708 
790.000000	 63.910913 
789.000000	 63.877463 
788.000000	 63.856410 
787.000000	 63.849592 
786.000000	 63.856673 
785.000000	 63.875746 
784.000000	 63.903617 
783.000000	 63.936853 
782.000000	 63.972139 
781.000000	 64.006447 
780.000000	 64.037203 
779.000000	 64.061975 
778.000000	 64.079093 
777.000000	 64.087057 
776.000000	 64.085602 
775.000000	 64.075446 
774.000000	 64.058709 
773.000000	 64.038729 
772.000000	 64.019274 
771.000000	 64.003777 
770.000000	 63.994359 
769.000000	 63.991332 
768.000000	 63.993287 
767.000000	 63.997697 
766.000000	 64.001536 
765.000000	 64.002156 
764.000000	 63.997864 
763.000000	 63.988399 
762.000000	 63.974618 
761.000000	 63.958120 
760.000000	 63.940691 
759.000000	 63.923549 
758.000000	 63.907289 
757.000000	 63.891530 
756.000000	 63.875126 
755.000000	 63.856530 
754.000000	 63.834595 
753.000000	 63.808822 
752.000000	 63.779950 
751.000000	 63.749575 
750.000000	 63.719773 
749.000000	 63.693022 
748.000000	 63.671469 
747.000000	 63.656592 
746.000000	 63.648772 
745.000000	 63.647556 
744.000000	 63.651895 
743.000000	 63.660478 
742.000000	 63.671898 
741.000000	 63.685107 
740.000000	 63.699674 
739.000000	 63.715505 
738.000000	 63.732600 
737.000000	 63.750576 
736.000000	 63.768625 
735.000000	 63.785362 
734.000000	 63.798904 
733.000000	 63.807725 
732.000000	 63.810491 
731.000000	 63.807010 
730.000000	 63.797736 
729.000000	 63.783621 
728.000000	 63.765645 
727.000000	 63.745141 
726.000000	 63.723087 
725.000000	 63.700127 
724.000000	 63.676357 
723.000000	 63.652324 
722.000000	 63.628029 
721.000000	 63.603615 
720.000000	 63.578915 
719.000000	 63.553738 
718.000000	 63.527965 
717.000000	 63.501548 
716.000000	 63.474869 
715.000000	 63.448643 
714.000000	 63.424038 
713.000000	 63.402485 
712.000000	 63.385105 
711.000000	 63.372325 
710.000000	 63.363671 
709.000000	 63.357806 
708.000000	 63.352251 
707.000000	 63.344621 
706.000000	 63.333082 
705.000000	 63.317728 
704.000000	 63.299918 
703.000000	 63.282990 
702.000000	 63.271355 
701.000000	 63.269376 
700.000000	 63.280129 
699.000000	 63.304281 
698.000000	 63.339853 
697.000000	 63.382148 
696.000000	 63.424825 
695.000000	 63.461017 
694.000000	 63.484835 
693.000000	 63.492417 
692.000000	 63.482975 
691.000000	 63.458585 
690.000000	 63.423538 
689.000000	 63.383316 
688.000000	 63.343501 
687.000000	 63.308334 
686.000000	 63.279891 
685.000000	 63.258337 
684.000000	 63.241958 
683.000000	 63.228058 
682.000000	 63.213562 
681.000000	 63.195919 
680.000000	 63.173699 
679.000000	 63.146328 
678.000000	 63.114452 
677.000000	 63.079237 
676.000000	 63.042449 
675.000000	 63.005828 
674.000000	 62.971353 
673.000000	 62.940502 
672.000000	 62.914800 
671.000000	 62.895250 
670.000000	 62.882256 
669.000000	 62.875342 
668.000000	 62.873435 
667.000000	 62.874984 
666.000000	 62.878441 
665.000000	 62.882280 
664.000000	 62.885832 
663.000000	 62.889242 
662.000000	 62.893533 
661.000000	 62.900137 
660.000000	 62.910175 
659.000000	 62.923669 
658.000000	 62.939596 
657.000000	 62.955760 
656.000000	 62.968730 
655.000000	 62.974953 
654.000000	 62.971973 
653.000000	 62.959146 
652.000000	 62.938189 
651.000000	 62.912511 
650.000000	 62.887120 
649.000000	 62.866497 
648.000000	 62.853813 
647.000000	 62.849330 
646.000000	 62.850403 
645.000000	 62.852001 
644.000000	 62.847924 
643.000000	 62.832665 
642.000000	 62.802934 
641.000000	 62.759208 
640.000000	 62.705636 
639.000000	 62.649631 
638.000000	 62.599897 
637.000000	 62.565255 
636.000000	 62.552261 
635.000000	 62.564229 
634.000000	 62.600421 
633.000000	 62.656927 
632.000000	 62.727451 
631.000000	 62.804627 
630.000000	 62.881183 
629.000000	 62.951278 
628.000000	 63.010692 
627.000000	 63.056945 
626.000000	 63.088583 
625.000000	 63.104987 
624.000000	 63.105726 
623.000000	 63.091015 
622.000000	 63.061141 
621.000000	 63.017797 
620.000000	 62.963080 
619.000000	 62.900876 
618.000000	 62.835431 
617.000000	 62.771177 
616.000000	 62.711787 
615.000000	 62.659835 
614.000000	 62.616682 
613.000000	 62.582802 
612.000000	 62.557721 
611.000000	 62.540674 
610.000000	 62.530159 
609.000000	 62.523889 
608.000000	 62.518930 
607.000000	 62.511897 
606.000000	 62.499666 
605.000000	 62.479877 
604.000000	 62.451624 
603.000000	 62.415671 
602.000000	 62.374067 
601.000000	 62.330102 
600.000000	 62.286782 
599.000000	 62.247061 
598.000000	 62.214064 
597.000000	 62.190032 
596.000000	 62.176418 
595.000000	 62.173056 
594.000000	 62.178087 
593.000000	 62.188053 
592.000000	 62.197852 
591.000000	 62.202668 
590.000000	 62.198328 
589.000000	 62.183213 
588.000000	 62.158513 
587.000000	 62.128305 
586.000000	 62.098312 
585.000000	 62.074828 
584.000000	 62.062978 
583.000000	 62.065625 
582.000000	 62.082290 
581.000000	 62.109780 
580.000000	 62.142944 
579.000000	 62.175536 
578.000000	 62.201380 
577.000000	 62.215852 
576.000000	 62.216544 
575.000000	 62.203216 
574.000000	 62.177538 
573.000000	 62.142372 
572.000000	 62.101006 
571.000000	 62.056517 
570.000000	 62.011575 
569.000000	 61.968326 
568.000000	 61.928844 
567.000000	 61.895418 
566.000000	 61.870217 
565.000000	 61.855292 
564.000000	 61.851453 
563.000000	 61.857581 
562.000000	 61.870694 
561.000000	 61.885404 
560.000000	 61.896371 
559.000000	 61.899209 
558.000000	 61.892414 
557.000000	 61.877393 
556.000000	 61.859083 
555.000000	 61.844658 
554.000000	 61.841630 
553.000000	 61.855506 
552.000000	 61.888217 
551.000000	 61.937284 
550.000000	 61.996197 
549.000000	 62.055706 
548.000000	 62.106323 
547.000000	 62.140011 
546.000000	 62.152123 
545.000000	 62.141776 
544.000000	 62.111520 
543.000000	 62.066364 
542.000000	 62.012481 
541.000000	 61.955451 
540.000000	 61.900043 
539.000000	 61.848592 
538.000000	 61.802792 
537.000000	 61.761832 
536.000000	 61.724019 
535.000000	 61.686086 
534.000000	 61.644554 
533.000000	 61.596202 
532.000000	 61.539077 
531.000000	 61.473488 
530.000000	 61.401724 
529.000000	 61.328864 
528.000000	 61.261510 
527.000000	 61.206388 
526.000000	 61.168670 
525.000000	 61.150956 
524.000000	 61.152410 
523.000000	 61.168408 
522.000000	 61.191725 
521.000000	 61.213779 
520.000000	 61.227130 
519.000000	 61.226606 
518.000000	 61.210918 
517.000000	 61.183309 
516.000000	 61.150121 
515.000000	 61.119055 
514.000000	 61.096620 
513.000000	 61.086535 
512.000000	 61.088252 
511.000000	 61.097002 
510.000000	 61.106061 
509.000000	 61.109542 
508.000000	 61.103582 
507.000000	 61.088418 
506.000000	 61.066484 
505.000000	 61.041426 
504.000000	 61.016058 
503.000000	 60.990810 
502.000000	 60.963869 
501.000000	 60.931658 
500.000000	 60.891103 
499.000000	 60.840940 
498.000000	 60.781621 
497.000000	 60.715866 
496.000000	 60.647535 
495.000000	 60.581350 
494.000000	 60.523009 
493.000000	 60.477876 
492.000000	 60.450315 
491.000000	 60.441684 
490.000000	 60.450625 
489.000000	 60.471248 
488.000000	 60.493636 
487.000000	 60.505342 
486.000000	 60.494685 
485.000000	 60.452270 
484.000000	 60.373067 
483.000000	 60.257458 
482.000000	 60.111117 
481.000000	 59.944891 
480.000000	 59.772086 
479.000000	 59.608173 
478.000000	 59.467792 
477.000000	 59.363698 
476.000000	 59.305143 
475.000000	 59.295606 
474.000000	 59.332227 
473.000000	 59.405303 
472.000000	 59.499716 
471.000000	 59.596252 
470.000000	 59.674930 
469.000000	 59.717369 
468.000000	 59.710240 
467.000000	 59.648847 
466.000000	 59.537053 
465.000000	 59.385991 
464.000000	 59.210610 
463.000000	 59.027314 
462.000000	 58.849048 
461.000000	 58.684182 
460.000000	 58.534836 
459.000000	 58.397912 
458.000000	 58.268380 
457.000000	 58.141613 
456.000000	 58.017730 
455.000000	 57.901740 
454.000000	 57.804489 
453.000000	 57.737898 
452.000000	 57.713937 
451.000000	 57.738757 
450.000000	 57.812738 
449.000000	 57.928276 
448.000000	 58.072137 
447.000000	 58.227157 
446.000000	 58.374714 
445.000000	 58.496785 
444.000000	 58.576512 
443.000000	 58.599281 
442.000000	 58.550977 
441.000000	 58.420944 
440.000000	 58.205103 
439.000000	 57.909274 
438.000000	 57.552051 
437.000000	 57.163333 
436.000000	 56.780958 
435.000000	 56.444239 
434.000000	 56.188440 
433.000000	 56.036400 
432.000000	 55.994558 
431.000000	 56.050944 
430.000000	 56.175422 
429.000000	 56.329894 
428.000000	 56.474804 
427.000000	 56.580924 
426.000000	 56.632065 
425.000000	 56.630706 
424.000000	 56.593537 
423.000000	 56.545615 
422.000000	 56.512093 
421.000000	 56.504750 
420.000000	 56.517601 
419.000000	 56.523489 
418.000000	 56.481552 
417.000000	 56.349968 
416.000000	 56.101465 
415.000000	 55.729770 
414.000000	 55.258893 
413.000000	 54.747033 
412.000000	 54.274773 
411.000000	 53.927779 
410.000000	 53.773880 
409.000000	 53.844499 
408.000000	 54.120683 
407.000000	 54.548215 
406.000000	 55.034184 
405.000000	 55.457878 
404.000000	 55.706667 
403.000000	 55.697345 
402.000000	 55.405068 
401.000000	 54.866003 
400.000000	 54.176402 
399.000000	 53.466486 
398.000000	 52.872467 
397.000000	 52.504301 
396.000000	 52.417993 
395.000000	 52.600073 
394.000000	 52.985954 
393.000000	 53.491497 
392.000000	 53.976750 
391.000000	 54.271936 
390.000000	 54.255485 
389.000000	 53.877925 
388.000000	 53.132987 
387.000000	 52.074956 
386.000000	 50.777125 
385.000000	 49.362087 
384.000000	 47.989797 
383.000000	 46.865439 
382.000000	 46.251058 
381.000000	 46.383738 
380.000000	 47.432303 
379.000000	 49.411344 
378.000000	 52.128934 
377.000000	 55.229139 
376.000000	 58.243846 
375.000000	 60.717463 
374.000000	 62.294435 
373.000000	 62.825369 
372.000000	 62.430381 
371.000000	 61.384630 
370.000000	 60.102319 

