PE IR       SPECTRUM    SPECTRUM    ASCII       PEDS        1.60        
  -1
C-1BE4~1.ASC
17/05/02
13:30:41.00
17/05/02
13:30:41.00
tln
$C-4040-8_t0031$<tbV0>[12.5,12.0,8.0,0.0,22,1,0]
370.000000
64









2002,4.07    
MIRTGS : RIGHTBACK : INTERNAL 2
MIR : ON : INTERNAL 2
OPTKBR

0.200000
8
8.000000
FILLER
RATIO
SPECTRUM
UNLOCKED 256

DOUBLE
64
COMBINED
1
0
0


1.000000
RATIO


1
0
TRUE
51149
0
LEFT NOT FITTED RIGHT NOT FITTED 0
NONE
NONE
15600
12.000000
4.427000
51148
TRUE
1 0 8 72 0 0 0 0 

15798.010000






#HDR
-1
-1
#GR
CM-1
%T
0.00002384185791015625
0.0
7800.000000
-1.000000
7431
8
107.606101
55.623459
#DATA
7800.000000	71.562647  
7799.000000	72.973799  
7798.000000	73.958444  
7797.000000	74.350214  
7796.000000	74.076938  
7795.000000	73.178911  
7794.000000	71.806645  
7793.000000	70.191025  
7792.000000	68.591260  
7791.000000	67.242646  
7790.000000	66.315054  
7789.000000	65.884876  
7788.000000	65.948295  
7787.000000	66.422700  
7786.000000	67.187070  
7785.000000	68.091058  
7784.000000	68.974161  
7783.000000	69.689798  
7782.000000	70.087409  
7781.000000	70.075511  
7780.000000	69.617152  
7779.000000	68.772983  
7778.000000	67.692828  
7777.000000	66.590189  
7776.000000	65.703964  
7775.000000	65.229988  
7774.000000	65.287065  
7773.000000	65.863680  
7772.000000	66.826796  
7771.000000	67.941117  
7770.000000	68.932580  
7769.000000	69.548034  
7768.000000	69.617938  
7767.000000	69.100570  
7766.000000	68.089628  
7765.000000	66.790413  
7764.000000	65.467333  
7763.000000	64.380598  
7762.000000	63.726878  
7761.000000	63.609504  
7760.000000	64.018106  
7759.000000	64.858984  
7758.000000	65.969419  
7757.000000	67.163801  
7756.000000	68.263006  
7755.000000	69.116425  
7754.000000	69.629168  
7753.000000	69.763374  
7752.000000	69.541621  
7751.000000	69.015073  
7750.000000	68.270826  
7749.000000	67.405390  
7748.000000	66.531372  
7747.000000	65.759420  
7746.000000	65.206599  
7745.000000	64.984464  
7744.000000	65.190100  
7743.000000	65.892314  
7742.000000	67.102193  
7741.000000	68.760919  
7740.000000	70.729279  
7739.000000	72.801113  
7738.000000	74.730706  
7737.000000	76.274299  
7736.000000	77.236557  
7735.000000	77.505922  
7734.000000	77.078652  
7733.000000	76.048660  
7732.000000	74.600338  
7731.000000	72.948002  
7730.000000	71.294617  
7729.000000	69.779729  
7728.000000	68.473434  
7727.000000	67.367267  
7726.000000	66.409707  
7725.000000	65.533518  
7724.000000	64.695048  
7723.000000	63.894796  
7722.000000	63.175964  
7721.000000	62.618136  
7720.000000	62.290978  
7719.000000	62.247443  
7718.000000	62.485980  
7717.000000	62.959551  
7716.000000	63.573694  
7715.000000	64.216947  
7714.000000	64.782547  
7713.000000	65.199947  
7712.000000	65.447330  
7711.000000	65.559816  
7710.000000	65.613317  
7709.000000	65.697646  
7708.000000	65.884542  
7707.000000	66.206836  
7706.000000	66.645193  
7705.000000	67.127275  
7704.000000	67.553663  
7703.000000	67.834711  
7702.000000	67.919158  
7701.000000	67.815303  
7700.000000	67.591214  
7699.000000	67.351841  
7698.000000	67.214536  
7697.000000	67.279934  
7696.000000	67.598295  
7695.000000	68.150854  
7694.000000	68.857645  
7693.000000	69.604086  
7692.000000	70.266079  
7691.000000	70.745205  
7690.000000	70.990371  
7689.000000	71.009278  
7688.000000	70.858716  
7687.000000	70.623350  
7686.000000	70.393681  
7685.000000	70.239615  
7684.000000	70.199251  
7683.000000	70.269608  
7682.000000	70.418429  
7681.000000	70.590615  
7680.000000	70.720791  
7679.000000	70.746707  
7678.000000	70.617389  
7677.000000	70.307922  
7676.000000	69.820094  
7675.000000	69.192028  
7674.000000	68.483686  
7673.000000	67.777967  
7672.000000	67.170929  
7671.000000	66.749668  
7670.000000	66.575765  
7669.000000	66.668915  
7668.000000	67.005515  
7667.000000	67.516541  
7666.000000	68.098831  
7665.000000	68.640923  
7664.000000	69.042444  
7663.000000	69.243335  
7662.000000	69.230079  
7661.000000	69.046187  
7660.000000	68.775868  
7659.000000	68.527984  
7658.000000	68.406319  
7657.000000	68.494725  
7656.000000	68.835783  
7655.000000	69.429540  
7654.000000	70.228505  
7653.000000	71.149277  
7652.000000	72.081089  
7651.000000	72.908401  
7650.000000	73.522806  
7649.000000	73.841595  
7648.000000	73.815107  
7647.000000	73.432588  
7646.000000	72.722434  
7645.000000	71.747660  
7644.000000	70.598053  
7643.000000	69.383263  
7642.000000	68.215250  
7641.000000	67.197203  
7640.000000	66.410207  
7639.000000	65.906262  
7638.000000	65.704798  
7637.000000	65.795207  
7636.000000	66.137671  
7635.000000	66.666102  
7634.000000	67.304635  
7633.000000	67.975401  
7632.000000	68.608665  
7631.000000	69.146871  
7630.000000	69.556808  
7629.000000	69.826197  
7628.000000	69.966149  
7627.000000	69.998574  
7626.000000	69.943523  
7625.000000	69.809746  
7624.000000	69.596791  
7623.000000	69.296216  
7622.000000	68.900942  
7621.000000	68.415045  
7620.000000	67.864346  
7619.000000	67.295765  
7618.000000	66.780114  
7617.000000	66.386866  
7616.000000	66.173672  
7615.000000	66.158103  
7614.000000	66.311168  
7613.000000	66.554999  
7612.000000	66.778469  
7611.000000	66.865134  
7610.000000	66.720056  
7609.000000	66.301870  
7608.000000	65.633988  
7607.000000	64.802885  
7606.000000	63.934564  
7605.000000	63.173890  
7604.000000	62.649869  
7603.000000	62.456512  
7602.000000	62.634682  
7601.000000	63.173413  
7600.000000	64.014434  
7599.000000	65.070509  
7598.000000	66.239500  
7597.000000	67.412495  
7596.000000	68.489861  
7595.000000	69.391560  
7594.000000	70.062398  
7593.000000	70.470476  
7592.000000	70.606946  
7591.000000	70.489335  
7590.000000	70.148134  
7589.000000	69.637608  
7588.000000	69.009447  
7587.000000	68.315696  
7586.000000	67.595648  
7585.000000	66.884493  
7584.000000	66.208720  
7583.000000	65.587949  
7582.000000	65.051364  
7581.000000	64.636611  
7580.000000	64.399266  
7579.000000	64.400029  
7578.000000	64.694976  
7577.000000	65.313386  
7576.000000	66.236042  
7575.000000	67.382907  
7574.000000	68.615841  
7573.000000	69.755125  
7572.000000	70.612430  
7571.000000	71.025156  
7570.000000	70.892620  
7569.000000	70.195603  
7568.000000	69.000339  
7567.000000	67.448592  
7566.000000	65.722346  
7565.000000	64.021348  
7564.000000	62.533998  
7563.000000	61.409139  
7562.000000	60.742378  
7561.000000	60.564708  
7560.000000	60.847878  
7559.000000	61.514687  
7558.000000	62.448811  
7557.000000	63.527846  
7556.000000	64.632892  
7555.000000	65.674948  
7554.000000	66.590476  
7553.000000	67.354583  
7552.000000	67.965960  
7551.000000	68.442511  
7550.000000	68.804860  
7549.000000	69.065594  
7548.000000	69.221687  
7547.000000	69.257330  
7546.000000	69.149112  
7545.000000	68.880867  
7544.000000	68.451690  
7543.000000	67.887401  
7542.000000	67.238283  
7541.000000	66.571760  
7540.000000	65.962576  
7539.000000	65.477466  
7538.000000	65.165781  
7537.000000	65.052866  
7536.000000	65.132904  
7535.000000	65.383100  
7534.000000	65.750384  
7533.000000	66.157197  
7532.000000	66.514492  
7531.000000	66.733860  
7530.000000	66.748714  
7529.000000	66.524362  
7528.000000	66.070914  
7527.000000	65.440058  
7526.000000	64.715099  
7525.000000	63.993597  
7524.000000	63.360571  
7523.000000	62.870812  
7522.000000	62.544250  
7521.000000	62.368631  
7520.000000	62.305235  
7519.000000	62.308192  
7518.000000	62.339210  
7517.000000	62.384581  
7516.000000	62.451314  
7515.000000	62.571454  
7514.000000	62.785148  
7513.000000	63.132071  
7512.000000	63.631677  
7511.000000	64.276075  
7510.000000	65.025615  
7509.000000	65.812993  
7508.000000	66.563344  
7507.000000	67.198681  
7506.000000	67.655277  
7505.000000	67.892646  
7504.000000	67.902231  
7503.000000	67.706632  
7502.000000	67.356133  
7501.000000	66.916203  
7500.000000	66.457962  
7499.000000	66.040897  
7498.000000	65.706014  
7497.000000	65.470314  
7496.000000	65.330529  
7495.000000	65.267038  
7494.000000	65.252923  
7493.000000	65.262818  
7492.000000	65.278744  
7491.000000	65.285420  
7490.000000	65.274119  
7489.000000	65.236282  
7488.000000	65.169358  
7487.000000	65.074610  
7486.000000	64.962887  
7485.000000	64.851760  
7484.000000	64.765596  
7483.000000	64.736652  
7482.000000	64.789891  
7481.000000	64.936208  
7480.000000	65.163660  
7479.000000	65.438246  
7478.000000	65.708661  
7477.000000	65.912175  
7476.000000	65.999674  
7475.000000	65.949583  
7474.000000	65.775394  
7473.000000	65.524077  
7472.000000	65.261292  
7471.000000	65.053272  
7470.000000	64.948225  
7469.000000	64.964056  
7468.000000	65.083241  
7467.000000	65.259981  
7466.000000	65.440654  
7465.000000	65.579628  
7464.000000	65.654158  
7463.000000	65.666317  
7462.000000	65.641570  
7461.000000	65.612173  
7460.000000	65.598726  
7459.000000	65.599489  
7458.000000	65.587997  
7457.000000	65.519309  
7456.000000	65.346860  
7455.000000	65.036368  
7454.000000	64.586353  
7453.000000	64.025545  
7452.000000	63.409805  
7451.000000	62.809348  
7450.000000	62.286782  
7449.000000	61.892962  
7448.000000	61.652398  
7447.000000	61.571002  
7446.000000	61.636614  
7445.000000	61.831474  
7444.000000	62.137961  
7443.000000	62.537693  
7442.000000	63.009762  
7441.000000	63.525152  
7440.000000	64.046168  
7439.000000	64.524054  
7438.000000	64.909791  
7437.000000	65.168070  
7436.000000	65.288639  
7435.000000	65.297126  
7434.000000	65.246748  
7433.000000	65.209126  
7432.000000	65.249490  
7431.000000	65.411543  
7430.000000	65.699410  
7429.000000	66.077399  
7428.000000	66.477322  
7427.000000	66.821479  
7426.000000	67.040872  
7425.000000	67.096853  
7424.000000	66.990470  
7423.000000	66.763496  
7422.000000	66.483783  
7421.000000	66.226291  
7420.000000	66.050148  
7419.000000	65.984654  
7418.000000	66.018128  
7417.000000	66.104626  
7416.000000	66.176152  
7415.000000	66.165208  
7414.000000	66.022086  
7413.000000	65.731668  
7412.000000	65.314030  
7411.000000	64.822602  
7410.000000	64.332246  
7409.000000	63.923144  
7408.000000	63.660216  
7407.000000	63.580083  
7406.000000	63.687372  
7405.000000	63.952326  
7404.000000	64.321088  
7403.000000	64.725661  
7402.000000	65.097212  
7401.000000	65.381336  
7400.000000	65.544867  
7399.000000	65.581703  
7398.000000	65.506792  
7397.000000	65.351676  
7396.000000	65.154051  
7395.000000	64.947080  
7394.000000	64.755105  
7393.000000	64.584970  
7392.000000	64.430665  
7391.000000	64.274883  
7390.000000	64.098858  
7389.000000	63.891100  
7388.000000	63.654708  
7387.000000	63.405156  
7386.000000	63.167381  
7385.000000	62.969899  
7384.000000	62.837362  
7383.000000	62.780022  
7382.000000	62.794589  
7381.000000	62.860107  
7380.000000	62.952136  
7379.000000	63.049793  
7378.000000	63.148808  
7377.000000	63.262701  
7376.000000	63.421154  
7375.000000	63.660621  
7374.000000	64.008188  
7373.000000	64.470171  
7372.000000	65.020370  
7371.000000	65.604138  
7370.000000	66.142916  
7369.000000	66.551423  
7368.000000	66.758894  
7367.000000	66.727757  
7366.000000	66.467189  
7365.000000	66.032862  
7364.000000	65.519833  
7363.000000	65.040993  
7362.000000	64.705610  
7361.000000	64.594459  
7360.000000	64.743161  
7359.000000	65.133547  
7358.000000	65.700793  
7357.000000	66.346573  
7356.000000	66.955184  
7355.000000	67.418766  
7354.000000	67.657423  
7353.000000	67.635703  
7352.000000	67.364239  
7351.000000	66.896152  
7350.000000	66.314291  
7349.000000	65.708875  
7348.000000	65.159726  
7347.000000	64.717745  
7346.000000	64.401888  
7345.000000	64.198541  
7344.000000	64.077949  
7343.000000	64.001822  
7342.000000	63.939332  
7341.000000	63.872766  
7340.000000	63.800191  
7339.000000	63.730001  
7338.000000	63.668632  
7337.000000	63.622069  
7336.000000	63.589239  
7335.000000	63.565063  
7334.000000	63.541793  
7333.000000	63.520741  
7332.000000	63.514757  
7331.000000	63.550090  
7330.000000	63.660287  
7329.000000	63.874983  
7328.000000	64.209961  
7327.000000	64.657640  
7326.000000	65.185928  
7325.000000	65.744400  
7324.000000	66.272544  
7323.000000	66.715121  
7322.000000	67.029929  
7321.000000	67.197585  
7320.000000	67.220449  
7319.000000	67.123961  
7318.000000	66.943597  
7317.000000	66.715097  
7316.000000	66.467285  
7315.000000	66.225767  
7314.000000	66.000819  
7313.000000	65.792703  
7312.000000	65.593051  
7311.000000	65.395212  
7310.000000	65.192031  
7309.000000	64.981126  
7308.000000	64.763212  
7307.000000	64.542055  
7306.000000	64.326572  
7305.000000	64.129304  
7304.000000	63.963150  
7303.000000	63.839626  
7302.000000	63.767719  
7301.000000	63.753032  
7300.000000	63.792157  
7299.000000	63.877630  
7298.000000	63.997721  
7297.000000	64.143919  
7296.000000	64.307308  
7295.000000	64.487862  
7294.000000	64.689064  
7293.000000	64.923572  
7292.000000	65.202546  
7291.000000	65.539884  
7290.000000	65.945744  
7289.000000	66.423106  
7288.000000	66.965961  
7287.000000	67.553830  
7286.000000	68.155336  
7285.000000	68.726396  
7284.000000	69.221282  
7283.000000	69.590282  
7282.000000	69.790387  
7281.000000	69.791674  
7280.000000	69.586110  
7279.000000	69.186925  
7278.000000	68.628954  
7277.000000	67.964959  
7276.000000	67.258143  
7275.000000	66.573309  
7274.000000	65.968346  
7273.000000	65.486645  
7272.000000	65.154552  
7271.000000	64.981055  
7270.000000	64.961957  
7269.000000	65.078520  
7268.000000	65.306878  
7267.000000	65.620923  
7266.000000	65.995049  
7265.000000	66.396498  
7264.000000	66.793632  
7263.000000	67.152070  
7262.000000	67.443060  
7261.000000	67.639756  
7260.000000	67.731809  
7259.000000	67.727637  
7258.000000	67.654156  
7257.000000	67.552709  
7256.000000	67.467331  
7255.000000	67.435574  
7254.000000	67.474937  
7253.000000	67.579412  
7252.000000	67.717719  
7251.000000	67.842340  
7250.000000	67.903804  
7249.000000	67.863821  
7248.000000	67.706346  
7247.000000	67.439341  
7246.000000	67.095994  
7245.000000	66.719746  
7244.000000	66.347980  
7243.000000	66.001725  
7242.000000	65.681958  
7241.000000	65.372133  
7240.000000	65.048456  
7239.000000	64.690470  
7238.000000	64.294314  
7237.000000	63.874244  
7236.000000	63.461303  
7235.000000	63.095045  
7234.000000	62.804317  
7233.000000	62.609863  
7232.000000	62.514328  
7231.000000	62.509608  
7230.000000	62.575554  
7229.000000	62.696290  
7228.000000	62.863516  
7227.000000	63.079094  
7226.000000	63.350820  
7225.000000	63.684511  
7224.000000	64.076662  
7223.000000	64.508891  
7222.000000	64.948797  
7221.000000	65.356898  
7220.000000	65.694236  
7219.000000	65.938425  
7218.000000	66.083073  
7217.000000	66.138458  
7216.000000	66.123056  
7215.000000	66.060996  
7214.000000	65.969419  
7213.000000	65.857124  
7212.000000	65.719151  
7211.000000	65.548276  
7210.000000	65.331411  
7209.000000	65.060019  
7208.000000	64.732265  
7207.000000	64.359283  
7206.000000	63.963246  
7205.000000	63.573169  
7204.000000	63.222122  
7203.000000	62.939810  
7202.000000	62.747716  
7201.000000	62.654137  
7200.000000	62.653350  
7199.000000	62.727379  
7198.000000	62.850379  
7197.000000	62.996625  
7196.000000	63.144183  
7195.000000	63.282728  
7194.000000	63.421297  
7193.000000	63.583946  
7192.000000	63.802742  
7191.000000	64.102292  
7190.000000	64.489483  
7189.000000	64.942431  
7188.000000	65.409803  
7187.000000	65.820765  
7186.000000	66.102600  
7185.000000	66.199731  
7184.000000	66.093063  
7183.000000	65.803551  
7182.000000	65.389752  
7181.000000	64.933633  
7180.000000	64.523196  
7179.000000	64.229130  
7178.000000	64.089035  
7177.000000	64.102697  
7176.000000	64.238810  
7175.000000	64.443659  
7174.000000	64.659142  
7173.000000	64.836263  
7172.000000	64.947080  
7171.000000	64.982390  
7170.000000	64.949488  
7169.000000	64.861011  
7168.000000	64.729714  
7167.000000	64.566969  
7166.000000	64.382410  
7165.000000	64.186835  
7164.000000	63.993501  
7163.000000	63.822817  
7162.000000	63.697600  
7161.000000	63.637280  
7160.000000	63.654828  
7159.000000	63.750672  
7158.000000	63.915419  
7157.000000	64.125752  
7156.000000	64.356970  
7155.000000	64.586138  
7154.000000	64.800858  
7153.000000	64.998722  
7152.000000	65.188431  
7151.000000	65.384721  
7150.000000	65.599989  
7149.000000	65.838813  
7148.000000	66.090559  
7147.000000	66.329789  
7146.000000	66.521406  
7145.000000	66.630291  
7144.000000	66.626954  
7143.000000	66.495752  
7142.000000	66.239261  
7141.000000	65.878677  
7140.000000	65.448975  
7139.000000	64.992570  
7138.000000	64.551377  
7137.000000	64.160537  
7136.000000	63.844156  
7135.000000	63.613820  
7134.000000	63.470935  
7133.000000	63.408517  
7132.000000	63.414335  
7131.000000	63.474035  
7130.000000	63.570499  
7129.000000	63.687372  
7128.000000	63.806343  
7127.000000	63.911461  
7126.000000	63.985896  
7125.000000	64.018583  
7124.000000	64.003396  
7123.000000	63.943529  
7122.000000	63.849735  
7121.000000	63.741612  
7120.000000	63.643455  
7119.000000	63.580965  
7118.000000	63.575720  
7117.000000	63.639998  
7116.000000	63.773584  
7115.000000	63.963413  
7114.000000	64.185905  
7113.000000	64.411973  
7112.000000	64.612436  
7111.000000	64.763641  
7110.000000	64.851427  
7109.000000	64.871263  
7108.000000	64.828920  
7107.000000	64.738178  
7106.000000	64.617609  
7105.000000	64.487266  
7104.000000	64.364910  
7103.000000	64.265584  
7102.000000	64.198350  
7101.000000	64.167094  
7100.000000	64.171171  
7099.000000	64.205861  
7098.000000	64.267301  
7097.000000	64.353299  
7096.000000	64.465451  
7095.000000	64.605855  
7094.000000	64.779043  
7093.000000	64.988470  
7092.000000	65.232133  
7091.000000	65.499663  
7090.000000	65.772867  
7089.000000	66.027760  
7088.000000	66.238355  
7087.000000	66.381287  
7086.000000	66.442728  
7085.000000	66.419243  
7084.000000	66.321086  
7083.000000	66.165518  
7082.000000	65.973281  
7081.000000	65.760612  
7080.000000	65.538358  
7079.000000	65.308976  
7078.000000	65.068888  
7077.000000	64.813399  
7076.000000	64.544653  
7075.000000	64.272117  
7074.000000	64.014196  
7073.000000	63.792371  
7072.000000	63.627696  
7071.000000	63.530230  
7070.000000	63.494586  
7069.000000	63.498401  
7068.000000	63.505196  
7067.000000	63.475298  
7066.000000	63.375544  
7065.000000	63.189768  
7064.000000	62.923812  
7063.000000	62.601208  
7062.000000	62.257599  
7061.000000	61.932754  
7060.000000	61.662817  
7059.000000	61.471319  
7058.000000	61.369395  
7057.000000	61.355853  
7056.000000	61.424326  
7055.000000	61.567497  
7054.000000	61.782336  
7053.000000	62.066197  
7052.000000	62.418484  
7051.000000	62.833809  
7050.000000	63.300156  
7049.000000	63.795948  
7048.000000	64.289045  
7047.000000	64.740705  
7046.000000	65.109181  
7045.000000	65.359950  
7044.000000	65.469408  
7043.000000	65.431118  
7042.000000	65.259552  
7041.000000	64.987039  
7040.000000	64.668035  
7039.000000	64.370703  
7038.000000	64.171314  
7037.000000	64.139986  
7036.000000	64.333891  
7035.000000	64.782810  
7034.000000	65.480470  
7033.000000	66.378712  
7032.000000	67.388367  
7031.000000	68.391680  
7030.000000	69.261717  
7029.000000	69.887423  
7028.000000	70.192289  
7027.000000	70.152807  
7026.000000	69.807767  
7025.000000	69.244647  
7024.000000	68.582940  
7023.000000	67.941355  
7022.000000	67.420840  
7021.000000	67.074537  
7020.000000	66.912221  
7019.000000	66.890764  
7018.000000	66.940546  
7017.000000	66.975951  
7016.000000	66.926598  
7015.000000	66.743564  
7014.000000	66.408348  
7013.000000	65.934228  
7012.000000	65.357875  
7011.000000	64.727973  
7010.000000	64.091467  
7009.000000	63.492441  
7008.000000	62.967848  
7007.000000	62.548327  
7006.000000	62.260103  
7005.000000	62.125706  
7004.000000	62.164759  
7003.000000	62.385320  
7002.000000	62.784886  
7001.000000	63.344693  
7000.000000	64.031600  
6999.000000	64.794635  
6998.000000	65.572738  
6997.000000	66.302013  
6996.000000	66.922187  
6995.000000	67.387914  
6994.000000	67.668366  
6993.000000	67.751765  
6992.000000	67.642140  
6991.000000	67.365574  
6990.000000	66.954779  
6989.000000	66.449165  
6988.000000	65.885949  
6987.000000	65.303277  
6986.000000	64.731812  
6985.000000	64.198136  
6984.000000	63.720893  
6983.000000	63.313913  
6982.000000	62.985658  
6981.000000	62.741732  
6980.000000	62.584805  
6979.000000	62.516546  
6978.000000	62.532019  
6977.000000	62.624597  
6976.000000	62.782168  
6975.000000	62.994670  
6974.000000	63.250231  
6973.000000	63.542842  
6972.000000	63.866591  
6971.000000	64.220356  
6970.000000	64.605402  
6969.000000	65.021324  
6968.000000	65.462112  
6967.000000	65.911912  
6966.000000	66.350245  
6965.000000	66.744780  
6964.000000	67.060494  
6963.000000	67.258906  
6962.000000	67.310857  
6961.000000	67.197346  
6960.000000	66.918873  
6959.000000	66.493272  
6958.000000	65.955901  
6957.000000	65.358400  
6956.000000	64.763331  
6955.000000	64.235258  
6954.000000	63.831210  
6953.000000	63.595175  
6952.000000	63.549923  
6951.000000	63.690733  
6950.000000	63.986182  
6949.000000	64.381527  
6948.000000	64.810490  
6947.000000	65.204834  
6946.000000	65.509533  
6945.000000	65.688610  
6944.000000	65.732598  
6943.000000	65.655207  
6942.000000	65.487742  
6941.000000	65.268301  
6940.000000	65.032815  
6939.000000	64.809799  
6938.000000	64.614367  
6937.000000	64.450573  
6936.000000	64.314484  
6935.000000	64.202833  
6934.000000	64.114737  
6933.000000	64.054679  
6932.000000	64.031529  
6931.000000	64.054942  
6930.000000	64.129614  
6929.000000	64.250636  
6928.000000	64.403724  
6927.000000	64.566302  
6926.000000	64.713096  
6925.000000	64.821958  
6924.000000	64.878153  
6923.000000	64.878773  
6922.000000	64.834022  
6921.000000	64.764690  
6920.000000	64.695978  
6919.000000	64.651751  
6918.000000	64.649510  
6917.000000	64.695191  
6916.000000	64.785003  
6915.000000	64.903903  
6914.000000	65.031099  
6913.000000	65.143871  
6912.000000	65.223622  
6911.000000	65.259790  
6910.000000	65.251636  
6909.000000	65.207743  
6908.000000	65.142321  
6907.000000	65.071725  
6906.000000	65.011501  
6905.000000	64.968419  
6904.000000	64.939665  
6903.000000	64.911890  
6902.000000	64.866065  
6901.000000	64.781761  
6900.000000	64.644646  
6899.000000	64.451265  
6898.000000	64.212346  
6897.000000	63.952016  
6896.000000	63.703727  
6895.000000	63.502097  
6894.000000	63.375377  
6893.000000	63.339638  
6892.000000	63.394474  
6891.000000	63.521933  
6890.000000	63.692092  
6889.000000	63.869857  
6888.000000	64.024543  
6887.000000	64.134001  
6886.000000	64.192152  
6885.000000	64.206933  
6884.000000	64.198756  
6883.000000	64.191603  
6882.000000	64.207434  
6881.000000	64.259457  
6880.000000	64.348077  
6879.000000	64.462161  
6878.000000	64.580678  
6877.000000	64.679622  
6876.000000	64.738607  
6875.000000	64.747309  
6874.000000	64.706540  
6873.000000	64.627790  
6872.000000	64.530920  
6871.000000	64.438176  
6870.000000	64.367842  
6869.000000	64.328765  
6868.000000	64.320921  
6867.000000	64.333701  
6866.000000	64.348793  
6865.000000	64.344525  
6864.000000	64.303827  
6863.000000	64.217305  
6862.000000	64.084935  
6861.000000	63.916778  
6860.000000	63.729500  
6859.000000	63.543629  
6858.000000	63.377666  
6857.000000	63.245844  
6856.000000	63.153910  
6855.000000	63.102769  
6854.000000	63.089895  
6853.000000	63.112092  
6852.000000	63.166594  
6851.000000	63.252568  
6850.000000	63.369894  
6849.000000	63.517570  
6848.000000	63.691139  
6847.000000	63.883042  
6846.000000	64.082980  
6845.000000	64.279580  
6844.000000	64.463138  
6843.000000	64.629054  
6842.000000	64.778542  
6841.000000	64.919948  
6840.000000	65.064430  
6839.000000	65.221595  
6838.000000	65.394878  
6837.000000	65.581154  
6836.000000	65.768527  
6835.000000	65.941166  
6834.000000	66.080117  
6833.000000	66.171193  
6832.000000	66.204762  
6831.000000	66.179823  
6830.000000	66.102361  
6829.000000	65.985345  
6828.000000	65.845036  
6827.000000	65.698432  
6826.000000	65.560531  
6825.000000	65.443372  
6824.000000	65.353250  
6823.000000	65.291571  
6822.000000	65.254068  
6821.000000	65.233063  
6820.000000	65.220570  
6819.000000	65.211725  
6818.000000	65.205311  
6817.000000	65.205287  
6816.000000	65.222740  
6815.000000	65.271830  
6814.000000	65.366053  
6813.000000	65.511298  
6812.000000	65.702056  
6811.000000	65.919280  
6810.000000	66.131615  
6809.000000	66.302561  
6808.000000	66.399264  
6807.000000	66.401243  
6806.000000	66.306734  
6805.000000	66.133499  
6804.000000	65.916442  
6803.000000	65.697383  
6802.000000	65.514945  
6801.000000	65.395450  
6800.000000	65.349125  
6799.000000	65.366673  
6798.000000	65.425276  
6797.000000	65.492463  
6796.000000	65.535855  
6795.000000	65.530681  
6794.000000	65.466237  
6793.000000	65.345311  
6792.000000	65.182852  
6791.000000	65.001368  
6790.000000	64.826035  
6789.000000	64.679265  
6788.000000	64.577817  
6787.000000	64.531517  
6786.000000	64.543390  
6785.000000	64.612483  
6784.000000	64.733052  
6783.000000	64.896631  
6782.000000	65.089583  
6781.000000	65.294718  
6780.000000	65.489006  
6779.000000	65.645313  
6778.000000	65.736031  
6777.000000	65.737700  
6776.000000	65.637445  
6775.000000	65.434908  
6774.000000	65.148448  
6773.000000	64.813327  
6772.000000	64.477586  
6771.000000	64.193034  
6770.000000	64.006209  
6769.000000	63.949012  
6768.000000	64.032292  
6767.000000	64.243984  
6766.000000	64.551877  
6765.000000	64.910960  
6764.000000	65.271663  
6763.000000	65.589737  
6762.000000	65.832996  
6761.000000	65.986037  
6760.000000	66.049027  
6759.000000	66.035175  
6758.000000	65.965151  
6757.000000	65.860652  
6756.000000	65.742564  
6755.000000	65.623688  
6754.000000	65.512657  
6753.000000	65.408182  
6752.000000	65.308666  
6751.000000	65.206050  
6750.000000	65.091919  
6749.000000	64.956450  
6748.000000	64.791607  
6747.000000	64.593338  
6746.000000	64.361953  
6745.000000	64.105343  
6744.000000	63.838505  
6743.000000	63.580536  
6742.000000	63.350200  
6741.000000	63.164710  
6740.000000	63.036131  
6739.000000	62.968993  
6738.000000	62.959098  
6737.000000	62.995219  
6736.000000	63.060998  
6735.000000	63.136363  
6734.000000	63.202142  
6733.000000	63.240528  
6732.000000	63.240694  
6731.000000	63.200688  
6730.000000	63.129591  
6729.000000	63.042020  
6728.000000	62.958693  
6727.000000	62.902331  
6726.000000	62.893056  
6725.000000	62.942743  
6724.000000	63.054561  
6723.000000	63.219976  
6722.000000	63.425469  
6721.000000	63.653850  
6720.000000	63.892793  
6719.000000	64.135789  
6718.000000	64.385318  
6717.000000	64.650344  
6716.000000	64.938306  
6715.000000	65.248894  
6714.000000	65.571165  
6713.000000	65.883302  
6712.000000	66.158008  
6711.000000	66.368436  
6710.000000	66.499304  
6709.000000	66.549515  
6708.000000	66.533613  
6707.000000	66.474270  
6706.000000	66.397452  
6705.000000	66.319990  
6704.000000	66.245055  
6703.000000	66.159033  
6702.000000	66.037130  
6701.000000	65.852403  
6700.000000	65.588474  
6699.000000	65.248084  
6698.000000	64.856243  
6697.000000	64.458250  
6696.000000	64.108347  
6695.000000	63.860058  
6694.000000	63.748288  
6693.000000	63.787078  
6692.000000	63.965249  
6691.000000	64.250516  
6690.000000	64.596223  
6689.000000	64.952754  
6688.000000	65.277862  
6687.000000	65.539860  
6686.000000	65.719866  
6685.000000	65.813946  
6684.000000	65.829610  
6683.000000	65.781402  
6682.000000	65.686035  
6681.000000	65.561676  
6680.000000	65.423464  
6679.000000	65.285181  
6678.000000	65.155482  
6677.000000	65.040087  
6676.000000	64.939880  
6675.000000	64.853692  
6674.000000	64.778470  
6673.000000	64.709639  
6672.000000	64.644026  
6671.000000	64.582180  
6670.000000	64.526605  
6669.000000	64.480328  
6668.000000	64.444446  
6667.000000	64.417791  
6666.000000	64.393377  
6665.000000	64.358925  
6664.000000	64.299464  
6663.000000	64.201307  
6662.000000	64.055681  
6661.000000	63.862037  
6660.000000	63.630032  
6659.000000	63.378357  
6658.000000	63.132715  
6657.000000	62.920451  
6656.000000	62.763667  
6655.000000	62.675142  
6654.000000	62.655615  
6653.000000	62.695765  
6652.000000	62.778258  
6651.000000	62.884855  
6650.000000	62.999057  
6649.000000	63.112592  
6648.000000	63.224935  
6647.000000	63.343667  
6646.000000	63.477373  
6645.000000	63.633513  
6644.000000	63.813996  
6643.000000	64.012265  
6642.000000	64.213299  
6641.000000	64.396190  
6640.000000	64.541053  
6639.000000	64.631533  
6638.000000	64.661073  
6637.000000	64.631867  
6636.000000	64.555382  
6635.000000	64.448380  
6634.000000	64.329504  
6633.000000	64.215517  
6632.000000	64.118862  
6631.000000	64.048910  
6630.000000	64.012122  
6629.000000	64.014339  
6628.000000	64.060831  
6627.000000	64.153814  
6626.000000	64.291882  
6625.000000	64.467525  
6624.000000	64.668607  
6623.000000	64.877772  
6622.000000	65.078067  
6621.000000	65.254330  
6620.000000	65.398597  
6619.000000	65.513110  
6618.000000	65.606880  
6617.000000	65.694189  
6616.000000	65.785789  
6615.000000	65.888285  
6614.000000	65.994954  
6613.000000	66.089487  
6612.000000	66.145324  
6611.000000	66.135716  
6610.000000	66.038465  
6609.000000	65.845084  
6608.000000	65.563011  
6607.000000	65.216493  
6606.000000	64.842343  
6605.000000	64.482927  
6604.000000	64.179778  
6603.000000	63.965606  
6602.000000	63.859772  
6601.000000	63.864970  
6600.000000	63.967871  
6599.000000	64.142227  
6598.000000	64.353179  
6597.000000	64.564180  
6596.000000	64.742732  
6595.000000	64.865326  
6594.000000	64.917683  
6593.000000	64.896798  
6592.000000	64.807820  
6591.000000	64.663052  
6590.000000	64.478731  
6589.000000	64.272952  
6588.000000	64.063572  
6587.000000	63.867259  
6586.000000	63.699913  
6585.000000	63.574433  
6584.000000	63.501024  
6583.000000	63.484454  
6582.000000	63.523530  
6581.000000	63.609981  
6580.000000	63.728976  
6579.000000	63.860797  
6578.000000	63.983416  
6577.000000	64.078211  
6576.000000	64.132571  
6575.000000	64.142918  
6574.000000	64.113712  
6573.000000	64.052867  
6572.000000	63.969469  
6571.000000	63.871073  
6570.000000	63.764286  
6569.000000	63.652658  
6568.000000	63.541889  
6567.000000	63.441228  
6566.000000	63.366150  
6565.000000	63.336753  
6564.000000	63.374304  
6563.000000	63.494586  
6562.000000	63.703060  
6561.000000	63.991236  
6560.000000	64.334821  
6559.000000	64.696788  
6558.000000	65.032911  
6557.000000	65.300655  
6556.000000	65.466332  
6555.000000	65.513300  
6554.000000	65.441346  
6553.000000	65.265965  
6552.000000	65.014433  
6551.000000	64.720368  
6550.000000	64.416813  
6549.000000	64.132118  
6548.000000	63.888835  
6547.000000	63.703560  
6546.000000	63.588643  
6545.000000	63.552689  
6544.000000	63.600587  
6543.000000	63.732290  
6542.000000	63.940548  
6541.000000	64.210176  
6540.000000	64.515709  
6539.000000	64.825081  
6538.000000	65.103483  
6537.000000	65.318822  
6536.000000	65.447115  
6535.000000	65.475797  
6534.000000	65.406155  
6533.000000	65.251994  
6532.000000	65.036702  
6531.000000	64.789962  
6530.000000	64.543509  
6529.000000	64.327073  
6528.000000	64.164876  
6527.000000	64.074754  
6526.000000	64.067363  
6525.000000	64.144992  
6524.000000	64.302015  
6523.000000	64.524173  
6522.000000	64.790129  
6521.000000	65.074157  
6520.000000	65.349364  
6519.000000	65.590453  
6518.000000	65.776681  
6517.000000	65.896129  
6516.000000	65.944838  
6515.000000	65.925931  
6514.000000	65.846824  
6513.000000	65.717744  
6512.000000	65.549540  
6511.000000	65.356421  
6510.000000	65.151977  
6509.000000	64.950990  
6508.000000	64.765954  
6507.000000	64.609432  
6506.000000	64.489173  
6505.000000	64.406442  
6504.000000	64.358234  
6503.000000	64.336681  
6502.000000	64.334845  
6501.000000	64.346313  
6500.000000	64.371681  
6499.000000	64.416575  
6498.000000	64.493203  
6497.000000	64.615559  
6496.000000	64.793658  
6495.000000	65.027809  
6494.000000	65.306711  
6493.000000	65.606665  
6492.000000	65.896463  
6491.000000	66.141271  
6490.000000	66.311693  
6489.000000	66.386342  
6488.000000	66.356682  
6487.000000	66.225147  
6486.000000	66.004920  
6485.000000	65.715003  
6484.000000	65.377950  
6483.000000	65.015888  
6482.000000	64.651179  
6481.000000	64.303588  
6480.000000	63.991570  
6479.000000	63.731241  
6478.000000	63.535523  
6477.000000	63.414216  
6476.000000	63.370871  
6475.000000	63.404774  
6474.000000	63.507413  
6473.000000	63.667488  
6472.000000	63.870024  
6471.000000	64.100050  
6470.000000	64.342498  
6469.000000	64.584064  
6468.000000	64.813208  
6467.000000	65.018820  
6466.000000	65.190982  
6465.000000	65.323090  
6464.000000	65.412759  
6463.000000	65.463328  
6462.000000	65.482735  
6461.000000	65.485239  
6460.000000	65.485501  
6459.000000	65.498352  
6458.000000	65.530705  
6457.000000	65.582847  
6456.000000	65.643763  
6455.000000	65.696692  
6454.000000	65.720248  
6453.000000	65.694570  
6452.000000	65.607428  
6451.000000	65.458846  
6450.000000	65.262460  
6449.000000	65.042877  
6448.000000	64.831280  
6447.000000	64.658737  
6446.000000	64.548349  
6445.000000	64.510154  
6444.000000	64.538693  
6443.000000	64.614963  
6442.000000	64.711046  
6441.000000	64.797353  
6440.000000	64.848947  
6439.000000	64.851474  
6438.000000	64.802503  
6437.000000	64.711713  
6436.000000	64.596199  
6435.000000	64.476728  
6434.000000	64.372777  
6433.000000	64.298558  
6432.000000	64.261221  
6431.000000	64.259004  
6430.000000	64.285206  
6429.000000	64.327549  
6428.000000	64.373159  
6427.000000	64.408993  
6426.000000	64.423894  
6425.000000	64.410066  
6424.000000	64.363408  
6423.000000	64.284396  
6422.000000	64.177465  
6421.000000	64.050722  
6420.000000	63.914203  
6419.000000	63.779878  
6418.000000	63.659787  
6417.000000	63.566088  
6416.000000	63.509750  
6415.000000	63.500618  
6414.000000	63.546037  
6413.000000	63.651371  
6412.000000	63.817906  
6411.000000	64.041280  
6410.000000	64.309334  
6409.000000	64.601540  
6408.000000	64.890503  
6407.000000	65.144944  
6406.000000	65.335655  
6405.000000	65.439987  
6404.000000	65.448498  
6403.000000	65.367388  
6402.000000	65.218138  
6401.000000	65.036845  
6400.000000	64.862155  
6399.000000	64.728999  
6398.000000	64.657163  
6397.000000	64.650678  
6396.000000	64.693689  
6395.000000	64.757800  
6394.000000	64.808797  
6393.000000	64.816975  
6392.000000	64.765548  
6391.000000	64.655256  
6390.000000	64.505052  
6389.000000	64.346146  
6388.000000	64.215087  
6387.000000	64.143061  
6386.000000	64.148545  
6385.000000	64.231514  
6384.000000	64.373087  
6383.000000	64.540076  
6382.000000	64.692926  
6381.000000	64.796805  
6380.000000	64.828300  
6379.000000	64.784240  
6378.000000	64.679193  
6377.000000	64.545655  
6376.000000	64.425039  
6375.000000	64.358234  
6374.000000	64.375567  
6373.000000	64.487910  
6372.000000	64.685893  
6371.000000	64.939212  
6370.000000	65.205502  
6369.000000	65.439081  
6368.000000	65.602827  
6367.000000	65.675544  
6366.000000	65.655827  
6365.000000	65.560770  
6364.000000	65.419602  
6363.000000	65.265297  
6362.000000	65.125966  
6361.000000	65.020251  
6360.000000	64.955210  
6359.000000	64.928555  
6358.000000	64.933037  
6357.000000	64.961719  
6356.000000	65.011620  
6355.000000	65.084671  
6354.000000	65.186643  
6353.000000	65.322279  
6352.000000	65.492439  
6351.000000	65.689086  
6350.000000	65.896320  
6349.000000	66.093206  
6348.000000	66.256594  
6347.000000	66.368985  
6346.000000	66.417837  
6345.000000	66.400408  
6344.000000	66.319775  
6343.000000	66.186022  
6342.000000	66.010141  
6341.000000	65.803241  
6340.000000	65.574383  
6339.000000	65.331673  
6338.000000	65.083622  
6337.000000	64.841675  
6336.000000	64.619350  
6335.000000	64.431548  
6334.000000	64.292287  
6333.000000	64.211702  
6332.000000	64.191961  
6331.000000	64.226484  
6330.000000	64.298653  
6329.000000	64.386415  
6328.000000	64.465904  
6327.000000	64.518690  
6326.000000	64.534687  
6325.000000	64.516115  
6324.000000	64.474558  
6323.000000	64.429378  
6322.000000	64.401531  
6321.000000	64.408278  
6320.000000	64.457869  
6319.000000	64.547801  
6318.000000	64.666867  
6317.000000	64.796471  
6316.000000	64.916253  
6315.000000	65.008020  
6314.000000	65.060830  
6313.000000	65.070986  
6312.000000	65.042400  
6311.000000	64.983463  
6310.000000	64.903521  
6309.000000	64.812397  
6308.000000	64.718747  
6307.000000	64.629507  
6306.000000	64.550042  
6305.000000	64.487004  
6304.000000	64.448022  
6303.000000	64.439702  
6302.000000	64.466571  
6301.000000	64.528942  
6300.000000	64.622235  
6299.000000	64.736390  
6298.000000	64.857196  
6297.000000	64.968872  
6296.000000	65.056228  
6295.000000	65.108633  
6294.000000	65.120053  
6293.000000	65.090417  
6292.000000	65.023374  
6291.000000	64.925599  
6290.000000	64.805054  
6289.000000	64.668822  
6288.000000	64.524960  
6287.000000	64.383053  
6286.000000	64.254450  
6285.000000	64.151573  
6284.000000	64.087390  
6283.000000	64.073324  
6282.000000	64.116024  
6281.000000	64.214968  
6280.000000	64.362931  
6279.000000	64.546465  
6278.000000	64.747452  
6277.000000	64.945769  
6276.000000	65.122199  
6275.000000	65.261054  
6274.000000	65.352129  
6273.000000	65.391755  
6272.000000	65.382790  
6271.000000	65.332770  
6270.000000	65.254592  
6269.000000	65.161013  
6268.000000	65.064668  
6267.000000	64.972496  
6266.000000	64.889025  
6265.000000	64.811515  
6264.000000	64.733076  
6263.000000	64.643836  
6262.000000	64.535021  
6261.000000	64.402365  
6260.000000	64.248132  
6259.000000	64.082098  
6258.000000	63.919901  
6257.000000	63.777947  
6256.000000	63.668894  
6255.000000	63.597464  
6254.000000	63.558745  
6253.000000	63.539910  
6252.000000	63.524103  
6251.000000	63.494873  
6250.000000	63.441801  
6249.000000	63.363361  
6248.000000	63.268852  
6247.000000	63.174033  
6246.000000	63.099145  
6245.000000	63.062429  
6244.000000	63.077569  
6243.000000	63.149213  
6242.000000	63.273930  
6241.000000	63.441038  
6240.000000	63.635754  
6239.000000	63.842844  
6238.000000	64.048051  
6237.000000	64.239025  
6236.000000	64.406371  
6235.000000	64.543390  
6234.000000	64.646148  
6233.000000	64.713239  
6232.000000	64.745593  
6231.000000	64.747905  
6230.000000	64.724326  
6229.000000	64.678835  
6228.000000	64.613819  
6227.000000	64.531660  
6226.000000	64.433526  
6225.000000	64.321231  
6224.000000	64.199137  
6223.000000	64.075541  
6222.000000	63.962197  
6221.000000	63.873553  
6220.000000	63.823723  
6219.000000	63.824367  
6218.000000	63.881611  
6217.000000	63.994765  
6216.000000	64.154529  
6215.000000	64.344787  
6214.000000	64.545989  
6213.000000	64.737439  
6212.000000	64.899897  
6211.000000	65.018725  
6210.000000	65.085530  
6209.000000	65.099310  
6208.000000	65.064024  
6207.000000	64.990568  
6206.000000	64.894556  
6205.000000	64.794921  
6204.000000	64.711833  
6203.000000	64.662241  
6202.000000	64.657664  
6201.000000	64.701247  
6200.000000	64.788055  
6199.000000	64.903736  
6198.000000	65.027856  
6197.000000	65.138554  
6196.000000	65.217304  
6195.000000	65.252256  
6194.000000	65.240025  
6193.000000	65.186929  
6192.000000	65.104794  
6191.000000	65.008091  
6190.000000	64.907836  
6189.000000	64.809203  
6188.000000	64.709258  
6187.000000	64.600181  
6186.000000	64.472079  
6185.000000	64.317774  
6184.000000	64.137840  
6183.000000	63.941431  
6182.000000	63.748264  
6181.000000	63.581871  
6180.000000	63.469004  
6179.000000	63.431620  
6178.000000	63.484144  
6177.000000	63.627457  
6176.000000	63.851571  
6175.000000	64.136099  
6174.000000	64.455628  
6173.000000	64.783501  
6172.000000	65.097594  
6171.000000	65.381884  
6170.000000	65.627837  
6169.000000	65.831542  
6168.000000	65.990495  
6167.000000	66.099786  
6166.000000	66.152691  
6165.000000	66.140007  
6164.000000	66.053867  
6163.000000	65.891027  
6162.000000	65.659880  
6161.000000	65.380072  
6160.000000	65.081691  
6159.000000	64.800429  
6158.000000	64.572715  
6157.000000	64.427042  
6156.000000	64.379286  
6155.000000	64.427971  
6154.000000	64.554595  
6153.000000	64.727997  
6152.000000	64.911055  
6151.000000	65.068602  
6150.000000	65.173435  
6149.000000	65.212488  
6148.000000	65.186905  
6147.000000	65.110635  
6146.000000	65.004563  
6145.000000	64.892768  
6144.000000	64.796590  
6143.000000	64.730978  
6142.000000	64.703321  
6141.000000	64.715695  
6140.000000	64.767241  
6139.000000	64.856195  
6138.000000	64.981555  
6137.000000	65.144586  
6136.000000	65.345454  
6135.000000	65.581107  
6134.000000	65.840601  
6133.000000	66.104507  
6132.000000	66.344475  
6131.000000	66.529226  
6130.000000	66.628742  
6129.000000	66.621994  
6128.000000	66.501688  
6127.000000	66.280198  
6126.000000	65.984749  
6125.000000	65.653920  
6124.000000	65.328121  
6123.000000	65.042901  
6122.000000	64.821124  
6121.000000	64.671087  
6120.000000	64.586329  
6119.000000	64.550232  
6118.000000	64.544439  
6117.000000	64.555454  
6116.000000	64.577054  
6115.000000	64.611077  
6114.000000	64.664936  
6113.000000	64.747190  
6112.000000	64.859962  
6111.000000	64.997363  
6110.000000	65.144419  
6109.000000	65.280604  
6108.000000	65.385413  
6107.000000	65.443277  
6106.000000	65.449714  
6105.000000	65.410780  
6104.000000	65.342712  
6103.000000	65.265321  
6102.000000	65.197610  
6101.000000	65.150833  
6100.000000	65.127158  
6099.000000	65.118265  
6098.000000	65.109705  
6097.000000	65.084815  
6096.000000	65.032148  
6095.000000	64.945983  
6094.000000	64.828705  
6093.000000	64.688730  
6092.000000	64.538097  
6091.000000	64.386534  
6090.000000	64.238858  
6089.000000	64.095044  
6088.000000	63.951873  
6087.000000	63.805580  
6086.000000	63.655352  
6085.000000	63.505887  
6084.000000	63.368010  
6083.000000	63.255262  
6082.000000	63.182306  
6081.000000	63.158035  
6080.000000	63.186240  
6079.000000	63.262319  
6078.000000	63.376975  
6077.000000	63.515424  
6076.000000	63.664007  
6075.000000	63.813018  
6074.000000	63.957667  
6073.000000	64.097070  
6072.000000	64.232420  
6071.000000	64.363670  
6070.000000	64.488291  
6069.000000	64.600610  
6068.000000	64.692306  
6067.000000	64.754986  
6066.000000	64.783120  
6065.000000	64.777350  
6064.000000	64.743518  
6063.000000	64.692592  
6062.000000	64.638972  
6061.000000	64.598250  
6060.000000	64.584612  
6059.000000	64.608073  
6058.000000	64.675235  
6057.000000	64.785623  
6056.000000	64.932680  
6055.000000	65.101075  
6054.000000	65.270566  
6053.000000	65.416026  
6052.000000	65.511488  
6051.000000	65.535020  
6050.000000	65.472626  
6049.000000	65.323448  
6048.000000	65.100407  
6047.000000	64.830160  
6046.000000	64.548873  
6045.000000	64.295458  
6044.000000	64.104628  
6043.000000	63.999485  
6042.000000	63.987636  
6041.000000	64.060473  
6040.000000	64.196348  
6039.000000	64.366364  
6038.000000	64.541411  
6037.000000	64.698457  
6036.000000	64.824151  
6035.000000	64.915084  
6034.000000	64.975762  
6033.000000	65.014672  
6032.000000	65.039849  
6031.000000	65.055632  
6030.000000	65.060973  
6029.000000	65.052008  
6028.000000	65.023088  
6027.000000	64.971756  
6026.000000	64.899325  
6025.000000	64.813065  
6024.000000	64.724397  
6023.000000	64.645266  
6022.000000	64.587521  
6021.000000	64.559268  
6020.000000	64.565348  
6019.000000	64.605069  
6018.000000	64.675712  
6017.000000	64.773011  
6016.000000	64.893555  
6015.000000	65.034985  
6014.000000	65.195345  
6013.000000	65.370917  
6012.000000	65.556478  
6011.000000	65.744042  
6010.000000	65.922784  
6009.000000	66.079568  
6008.000000	66.201496  
6007.000000	66.277599  
6006.000000	66.302347  
6005.000000	66.275715  
6004.000000	66.203260  
6003.000000	66.094088  
6002.000000	65.960669  
6001.000000	65.814948  
6000.000000	65.668463  
5999.000000	65.529370  
5998.000000	65.403604  
5997.000000	65.292978  
5996.000000	65.198040  
5995.000000	65.117120  
5994.000000	65.046691  
5993.000000	64.984011  
5992.000000	64.925622  
5991.000000	64.871907  
5990.000000	64.825248  
5989.000000	64.792442  
5988.000000	64.781665  
5987.000000	64.801859  
5986.000000	64.859580  
5985.000000	64.955377  
5984.000000	65.081667  
5983.000000	65.222978  
5982.000000	65.358233  
5981.000000	65.463638  
5980.000000	65.518140  
5979.000000	65.508270  
5978.000000	65.431976  
5977.000000	65.299153  
5976.000000	65.130472  
5975.000000	64.953041  
5974.000000	64.794921  
5973.000000	64.679360  
5972.000000	64.620566  
5971.000000	64.621853  
5970.000000	64.676260  
5969.000000	64.769864  
5968.000000	64.885210  
5967.000000	65.005397  
5966.000000	65.117001  
5965.000000	65.211200  
5964.000000	65.283608  
5963.000000	65.332126  
5962.000000	65.356135  
5961.000000	65.355134  
5960.000000	65.328478  
5959.000000	65.275645  
5958.000000	65.198802  
5957.000000	65.104126  
5956.000000	65.001821  
5955.000000	64.905214  
5954.000000	64.828991  
5953.000000	64.785885  
5952.000000	64.783430  
5951.000000	64.821839  
5950.000000	64.892888  
5949.000000	64.981651  
5948.000000	65.070819  
5947.000000	65.143108  
5946.000000	65.185046  
5945.000000	65.188479  
5944.000000	65.151143  
5943.000000	65.076518  
5942.000000	64.971208  
5941.000000	64.844965  
5940.000000	64.708089  
5939.000000	64.572048  
5938.000000	64.448285  
5937.000000	64.347958  
5936.000000	64.281201  
5935.000000	64.256238  
5934.000000	64.277434  
5933.000000	64.345240  
5932.000000	64.454960  
5931.000000	64.597845  
5930.000000	64.761734  
5929.000000	64.933395  
5928.000000	65.099740  
5927.000000	65.249657  
5926.000000	65.373945  
5925.000000	65.465521  
5924.000000	65.518283  
5923.000000	65.527653  
5922.000000	65.490221  
5921.000000	65.405106  
5920.000000	65.273857  
5919.000000	65.103769  
5918.000000	64.905643  
5917.000000	64.694380  
5916.000000	64.486384  
5915.000000	64.297223  
5914.000000	64.140534  
5913.000000	64.024543  
5912.000000	63.954424  
5911.000000	63.930487  
5910.000000	63.951778  
5909.000000	64.014959  
5908.000000	64.116954  
5907.000000	64.253711  
5906.000000	64.419341  
5905.000000	64.604592  
5904.000000	64.796209  
5903.000000	64.977169  
5902.000000	65.128874  
5901.000000	65.234231  
5900.000000	65.281033  
5899.000000	65.264773  
5898.000000	65.191650  
5897.000000	65.077042  
5896.000000	64.942288  
5895.000000	64.809918  
5894.000000	64.699625  
5893.000000	64.624428  
5892.000000	64.588499  
5891.000000	64.588594  
5890.000000	64.616870  
5889.000000	64.664435  
5888.000000	64.725255  
5887.000000	64.796996  
5886.000000	64.879488  
5885.000000	64.974427  
5884.000000	65.081954  
5883.000000	65.199422  
5882.000000	65.318965  
5881.000000	65.430259  
5880.000000	65.522766  
5879.000000	65.587544  
5878.000000	65.620136  
5877.000000	65.620326  
5876.000000	65.592598  
5875.000000	65.542650  
5874.000000	65.475940  
5873.000000	65.394783  
5872.000000	65.298223  
5871.000000	65.183949  
5870.000000	65.050148  
5869.000000	64.898276  
5868.000000	64.734530  
5867.000000	64.570069  
5866.000000	64.419770  
5865.000000	64.298295  
5864.000000	64.218449  
5863.000000	64.186596  
5862.000000	64.203405  
5861.000000	64.262604  
5860.000000	64.354300  
5859.000000	64.465951  
5858.000000	64.586114  
5857.000000	64.704942  
5856.000000	64.816522  
5855.000000	64.918184  
5854.000000	65.009379  
5853.000000	65.089106  
5852.000000	65.156173  
5851.000000	65.208458  
5850.000000	65.243196  
5849.000000	65.258121  
5848.000000	65.252637  
5847.000000	65.228557  
5846.000000	65.190315  
5845.000000	65.144181  
5844.000000	65.096712  
5843.000000	65.053558  
5842.000000	65.018534  
5841.000000	64.993548  
5840.000000	64.977884  
5839.000000	64.970135  
5838.000000	64.969325  
5837.000000	64.976000  
5836.000000	64.992451  
5835.000000	65.021824  
5834.000000	65.067172  
5833.000000	65.128874  
5832.000000	65.203571  
5831.000000	65.283203  
5830.000000	65.356159  
5829.000000	65.409159  
5828.000000	65.430927  
5827.000000	65.414500  
5826.000000	65.359544  
5825.000000	65.272665  
5824.000000	65.166354  
5823.000000	65.055894  
5822.000000	64.956164  
5821.000000	64.878582  
5820.000000	64.829087  
5819.000000	64.807486  
5818.000000	64.808511  
5817.000000	64.824461  
5816.000000	64.847517  
5815.000000	64.871406  
5814.000000	64.892482  
5813.000000	64.909100  
5812.000000	64.921116  
5811.000000	64.928197  
5810.000000	64.929127  
5809.000000	64.920473  
5808.000000	64.898109  
5807.000000	64.858841  
5806.000000	64.801859  
5805.000000	64.729213  
5804.000000	64.647054  
5803.000000	64.564681  
5802.000000	64.493489  
5801.000000	64.444184  
5800.000000	64.425420  
5799.000000	64.441490  
5798.000000	64.491796  
5797.000000	64.570808  
5796.000000	64.668726  
5795.000000	64.773225  
5794.000000	64.870142  
5793.000000	64.945554  
5792.000000	64.987635  
5791.000000	64.988660  
5790.000000	64.945578  
5789.000000	64.861702  
5788.000000	64.746356  
5787.000000	64.614677  
5786.000000	64.485454  
5785.000000	64.378762  
5784.000000	64.312553  
5783.000000	64.299869  
5782.000000	64.346456  
5781.000000	64.449977  
5780.000000	64.600205  
5779.000000	64.781188  
5778.000000	64.973592  
5777.000000	65.158557  
5776.000000	65.319943  
5775.000000	65.447449  
5774.000000	65.536665  
5773.000000	65.589785  
5772.000000	65.613555  
5771.000000	65.618062  
5770.000000	65.614175  
5769.000000	65.612125  
5768.000000	65.619921  
5767.000000	65.641689  
5766.000000	65.677428  
5765.000000	65.722894  
5764.000000	65.770888  
5763.000000	65.813064  
5762.000000	65.841794  
5761.000000	65.851020  
5760.000000	65.838217  
5759.000000	65.805292  
5758.000000	65.758299  
5757.000000	65.706205  
5756.000000	65.658903  
5755.000000	65.625643  
5754.000000	65.612149  
5753.000000	65.620684  
5752.000000	65.648150  
5751.000000	65.687489  
5750.000000	65.728831  
5749.000000	65.761780  
5748.000000	65.778040  
5747.000000	65.773487  
5746.000000	65.748953  
5745.000000	65.709376  
5744.000000	65.662980  
5743.000000	65.618991  
5742.000000	65.584826  
5741.000000	65.563893  
5740.000000	65.555071  
5739.000000	65.552949  
5738.000000	65.548610  
5737.000000	65.532088  
5736.000000	65.494990  
5735.000000	65.432643  
5734.000000	65.344858  
5733.000000	65.236473  
5732.000000	65.116524  
5731.000000	64.996528  
5730.000000	64.887738  
5729.000000	64.799571  
5728.000000	64.737272  
5727.000000	64.702200  
5726.000000	64.691495  
5725.000000	64.700126  
5724.000000	64.721393  
5723.000000	64.750385  
5722.000000	64.783859  
5721.000000	64.822101  
5720.000000	64.866852  
5719.000000	64.920878  
5718.000000	64.985632  
5717.000000	65.059471  
5716.000000	65.136909  
5715.000000	65.208172  
5714.000000	65.261006  
5713.000000	65.282869  
5712.000000	65.263819  
5711.000000	65.199494  
5710.000000	65.092706  
5709.000000	64.952778  
5708.000000	64.794254  
5707.000000	64.634752  
5706.000000	64.491629  
5705.000000	64.378833  
5704.000000	64.304876  
5703.000000	64.272189  
5702.000000	64.277839  
5701.000000	64.314031  
5700.000000	64.371824  
5699.000000	64.441823  
5698.000000	64.517974  
5697.000000	64.596700  
5696.000000	64.677643  
5695.000000	64.761161  
5694.000000	64.847087  
5693.000000	64.932990  
5692.000000	65.012931  
5691.000000	65.078306  
5690.000000	65.119099  
5689.000000	65.126800  
5688.000000	65.097284  
5687.000000	65.032720  
5686.000000	64.942097  
5685.000000	64.840054  
5684.000000	64.744353  
5683.000000	64.672422  
5682.000000	64.637184  
5681.000000	64.644622  
5680.000000	64.693236  
5679.000000	64.774870  
5678.000000	64.877295  
5677.000000	64.986968  
5676.000000	65.092635  
5675.000000	65.185809  
5674.000000	65.261054  
5673.000000	65.315055  
5672.000000	65.345621  
5671.000000	65.350651  
5670.000000	65.327715  
5669.000000	65.275239  
5668.000000	65.193867  
5667.000000	65.087842  
5666.000000	64.966225  
5665.000000	64.841556  
5664.000000	64.728474  
5663.000000	64.641070  
5662.000000	64.590072  
5661.000000	64.581036  
5660.000000	64.612984  
5659.000000	64.680004  
5658.000000	64.772820  
5657.000000	64.881324  
5656.000000	64.996457  
5655.000000	65.111136  
5654.000000	65.220522  
5653.000000	65.320706  
5652.000000	65.408229  
5651.000000	65.478944  
5650.000000	65.528655  
5649.000000	65.553760  
5648.000000	65.552425  
5647.000000	65.527200  
5646.000000	65.483927  
5645.000000	65.432047  
5644.000000	65.381908  
5643.000000	65.343761  
5642.000000	65.324115  
5641.000000	65.324783  
5640.000000	65.342569  
5639.000000	65.370297  
5638.000000	65.399837  
5637.000000	65.424656  
5636.000000	65.441823  
5635.000000	65.452218  
5634.000000	65.460801  
5633.000000	65.474343  
5632.000000	65.498828  
5631.000000	65.536832  
5630.000000	65.586304  
5629.000000	65.640306  
5628.000000	65.689277  
5627.000000	65.722584  
5626.000000	65.731215  
5625.000000	65.709328  
5624.000000	65.656542  
5623.000000	65.577006  
5622.000000	65.477919  
5621.000000	65.368270  
5620.000000	65.256619  
5619.000000	65.150547  
5618.000000	65.055394  
5617.000000	64.975380  
5616.000000	64.913725  
5615.000000	64.873909  
5614.000000	64.858722  
5613.000000	64.871549  
5612.000000	64.914727  
5611.000000	64.989399  
5610.000000	65.093612  
5609.000000	65.222048  
5608.000000	65.365409  
5607.000000	65.511631  
5606.000000	65.646934  
5605.000000	65.757036  
5604.000000	65.829014  
5603.000000	65.853047  
5602.000000	65.824127  
5601.000000	65.742492  
5600.000000	65.614604  
5599.000000	65.452814  
5598.000000	65.274238  
5597.000000	65.099525  
5596.000000	64.949131  
5595.000000	64.841890  
5594.000000	64.789772  
5593.000000	64.796710  
5592.000000	64.856052  
5591.000000	64.952445  
5590.000000	65.063905  
5589.000000	65.165162  
5588.000000	65.234637  
5587.000000	65.256857  
5586.000000	65.228748  
5585.000000	65.158343  
5584.000000	65.064954  
5583.000000	64.973020  
5582.000000	64.907717  
5581.000000	64.888715  
5580.000000	64.925503  
5579.000000	65.015220  
5578.000000	65.144538  
5577.000000	65.293192  
5576.000000	65.438342  
5575.000000	65.559935  
5574.000000	65.644121  
5573.000000	65.686106  
5572.000000	65.689015  
5571.000000	65.662956  
5570.000000	65.621161  
5569.000000	65.577101  
5568.000000	65.542912  
5567.000000	65.525746  
5566.000000	65.528059  
5565.000000	65.546393  
5564.000000	65.575003  
5563.000000	65.605306  
5562.000000	65.628480  
5561.000000	65.636730  
5560.000000	65.624737  
5559.000000	65.590691  
5558.000000	65.536713  
5557.000000	65.467333  
5556.000000	65.388369  
5555.000000	65.305209  
5554.000000	65.222072  
5553.000000	65.140771  
5552.000000	65.061020  
5551.000000	64.982485  
5550.000000	64.906620  
5549.000000	64.837837  
5548.000000	64.783763  
5547.000000	64.754462  
5546.000000	64.759969  
5545.000000	64.807128  
5544.000000	64.896917  
5543.000000	65.022921  
5542.000000	65.171670  
5541.000000	65.324234  
5540.000000	65.460014  
5539.000000	65.561318  
5538.000000	65.616559  
5537.000000	65.622758  
5536.000000	65.584921  
5535.000000	65.514707  
5534.000000	65.426468  
5533.000000	65.334868  
5532.000000	65.250110  
5531.000000	65.177226  
5530.000000	65.114927  
5529.000000	65.058946  
5528.000000	65.001630  
5527.000000	64.935803  
5526.000000	64.856290  
5525.000000	64.762067  
5524.000000	64.656782  
5523.000000	64.548611  
5522.000000	64.449167  
5521.000000	64.371395  
5520.000000	64.328289  
5519.000000	64.329862  
5518.000000	64.381599  
5517.000000	64.481759  
5516.000000	64.620828  
5515.000000	64.781665  
5514.000000	64.941835  
5513.000000	65.077280  
5512.000000	65.165901  
5511.000000	65.193247  
5510.000000	65.154099  
5509.000000	65.056180  
5508.000000	64.917945  
5507.000000	64.766192  
5506.000000	64.630627  
5505.000000	64.537739  
5504.000000	64.506101  
5503.000000	64.542102  
5502.000000	64.640140  
5501.000000	64.782643  
5500.000000	64.945149  
5499.000000	65.100169  
5498.000000	65.223312  
5497.000000	65.296983  
5496.000000	65.313386  
5495.000000	65.274596  
5494.000000	65.191221  
5493.000000	65.079784  
5492.000000	64.959263  
5491.000000	64.848947  
5490.000000	64.764785  
5489.000000	64.717459  
5488.000000	64.711070  
5487.000000	64.744520  
5486.000000	64.811205  
5485.000000	64.900541  
5484.000000	65.000057  
5483.000000	65.096282  
5482.000000	65.178585  
5481.000000	65.240859  
5480.000000	65.281748  
5479.000000	65.303587  
5478.000000	65.310645  
5477.000000	65.307950  
5476.000000	65.297508  
5475.000000	65.278339  
5474.000000	65.244960  
5473.000000	65.190196  
5472.000000	65.106868  
5471.000000	64.991307  
5470.000000	64.845561  
5469.000000	64.679098  
5468.000000	64.507150  
5467.000000	64.349317  
5466.000000	64.226484  
5465.000000	64.157724  
5464.000000	64.156079  
5463.000000	64.226579  
5462.000000	64.365100  
5461.000000	64.558601  
5460.000000	64.788174  
5459.000000	65.030074  
5458.000000	65.258264  
5457.000000	65.447521  
5456.000000	65.576672  
5455.000000	65.630984  
5454.000000	65.604233  
5453.000000	65.499019  
5452.000000	65.327262  
5451.000000	65.106964  
5450.000000	64.860963  
5449.000000	64.611577  
5448.000000	64.379477  
5447.000000	64.178967  
5446.000000	64.018106  
5445.000000	63.897705  
5444.000000	63.813781  
5443.000000	63.758516  
5442.000000	63.723468  
5441.000000	63.701224  
5440.000000	63.687992  
5439.000000	63.683485  
5438.000000	63.691711  
5437.000000	63.718414  
5436.000000	63.770556  
5435.000000	63.853001  
5434.000000	63.967204  
5433.000000	64.110469  
5432.000000	64.274334  
5431.000000	64.446067  
5430.000000	64.609527  
5429.000000	64.748191  
5428.000000	64.847779  
5427.000000	64.899730  
5426.000000	64.902472  
5425.000000	64.862060  
5424.000000	64.790725  
5423.000000	64.704585  
5422.000000	64.620399  
5421.000000	64.553070  
5420.000000	64.512610  
5419.000000	64.503216  
5418.000000	64.523720  
5417.000000	64.569592  
5416.000000	64.632940  
5415.000000	64.704895  
5414.000000	64.777231  
5413.000000	64.843964  
5412.000000	64.901566  
5411.000000	64.948940  
5410.000000	64.986824  
5409.000000	65.016818  
5408.000000	65.040421  
5407.000000	65.058732  
5406.000000	65.072083  
5405.000000	65.080523  
5404.000000	65.084695  
5403.000000	65.085983  
5402.000000	65.086889  
5401.000000	65.090489  
5400.000000	65.101027  
5399.000000	65.121603  
5398.000000	65.153288  
5397.000000	65.194296  
5396.000000	65.240311  
5395.000000	65.284776  
5394.000000	65.320396  
5393.000000	65.341067  
5392.000000	65.343499  
5391.000000	65.327668  
5390.000000	65.297102  
5389.000000	65.256738  
5388.000000	65.211462  
5387.000000	65.164494  
5386.000000	65.117001  
5385.000000	65.069270  
5384.000000	65.021872  
5383.000000	64.976429  
5382.000000	64.936089  
5381.000000	64.906096  
5380.000000	64.892053  
5379.000000	64.896869  
5378.000000	64.920377  
5377.000000	64.958548  
5376.000000	65.004205  
5375.000000	65.047693  
5374.000000	65.080046  
5373.000000	65.095138  
5372.000000	65.091490  
5371.000000	65.072941  
5370.000000	65.046906  
5369.000000	65.022206  
5368.000000	65.006494  
5367.000000	65.004110  
5366.000000	65.014696  
5365.000000	65.033388  
5364.000000	65.052294  
5363.000000	65.062832  
5362.000000	65.057563  
5361.000000	65.032172  
5360.000000	64.985418  
5359.000000	64.919137  
5358.000000	64.838218  
5357.000000	64.748644  
5356.000000	64.655733  
5355.000000	64.562249  
5354.000000	64.467954  
5353.000000	64.369821  
5352.000000	64.263701  
5351.000000	64.146995  
5350.000000	64.019203  
5349.000000	63.885498  
5348.000000	63.756132  
5347.000000	63.645958  
5346.000000	63.569355  
5345.000000	63.539123  
5344.000000	63.561439  
5343.000000	63.636040  
5342.000000	63.755464  
5341.000000	63.905811  
5340.000000	64.068555  
5339.000000	64.224529  
5338.000000	64.357423  
5337.000000	64.454364  
5336.000000	64.507246  
5335.000000	64.510822  
5334.000000	64.462637  
5333.000000	64.361667  
5332.000000	64.209079  
5331.000000	64.009046  
5330.000000	63.770532  
5329.000000	63.509559  
5328.000000	63.249301  
5327.000000	63.014388  
5326.000000	62.831377  
5325.000000	62.724089  
5324.000000	62.712049  
5323.000000	62.806725  
5322.000000	63.008189  
5321.000000	63.305711  
5320.000000	63.673615  
5319.000000	64.073777  
5318.000000	64.458131  
5317.000000	64.774799  
5316.000000	64.977526  
5315.000000	65.034461  
5314.000000	64.934325  
5313.000000	64.688277  
5312.000000	64.330530  
5311.000000	63.913655  
5310.000000	63.494062  
5309.000000	63.122057  
5308.000000	62.831830  
5307.000000	62.638807  
5306.000000	62.540316  
5305.000000	62.523579  
5304.000000	62.575745  
5303.000000	62.691116  
5302.000000	62.876439  
5301.000000	63.145446  
5300.000000	63.505101  
5299.000000	63.949465  
5298.000000	64.449787  
5297.000000	64.959669  
5296.000000	65.420079  
5295.000000	65.773916  
5294.000000	65.985560  
5293.000000	66.040849  
5292.000000	65.957283  
5291.000000	65.765619  
5290.000000	65.509366  
5289.000000	65.217137  
5288.000000	64.899635  
5287.000000	64.541816  
5286.000000	64.113640  
5285.000000	63.584017  
5284.000000	62.939572  
5283.000000	62.198638  
5282.000000	61.416769  
5281.000000	60.679149  
5280.000000	60.084605  
5279.000000	59.722757  
5278.000000	59.654283  
5277.000000	59.897136  
5276.000000	60.423588  
5275.000000	61.166691  
5274.000000	62.035441  
5273.000000	62.932038  
5272.000000	63.770413  
5271.000000	64.482951  
5270.000000	65.032076  
5269.000000	65.406489  
5268.000000	65.619659  
5267.000000	65.696930  
5266.000000	65.670919  
5265.000000	65.577554  
5264.000000	65.447807  
5263.000000	65.312719  
5262.000000	65.194177  
5261.000000	65.111589  
5260.000000	65.075039  
5259.000000	65.090775  
5258.000000	65.156269  
5257.000000	65.262150  
5256.000000	65.395236  
5255.000000	65.541481  
5254.000000	65.686178  
5253.000000	65.815544  
5252.000000	65.919995  
5251.000000	65.994286  
5250.000000	66.036343  
5249.000000	66.045904  
5248.000000	66.025686  
5247.000000	65.978026  
5246.000000	65.904045  
5245.000000	65.802597  
5244.000000	65.671467  
5243.000000	65.509247  
5242.000000	65.320730  
5241.000000	65.116047  
5240.000000	64.908027  
5239.000000	64.713644  
5238.000000	64.552474  
5237.000000	64.442682  
5236.000000	64.394521  
5235.000000	64.411664  
5234.000000	64.489436  
5233.000000	64.616703  
5232.000000	64.776587  
5231.000000	64.950871  
5230.000000	65.121889  
5229.000000	65.275478  
5228.000000	65.401554  
5227.000000	65.495038  
5226.000000	65.554928  
5225.000000	65.583324  
5224.000000	65.583872  
5223.000000	65.561580  
5222.000000	65.521597  
5221.000000	65.469574  
5220.000000	65.410971  
5219.000000	65.351915  
5218.000000	65.298175  
5217.000000	65.255808  
5216.000000	65.229535  
5215.000000	65.221762  
5214.000000	65.231728  
5213.000000	65.256881  
5212.000000	65.291333  
5211.000000	65.326690  
5210.000000	65.353345  
5209.000000	65.362787  
5208.000000	65.348434  
5207.000000	65.306854  
5206.000000	65.238642  
5205.000000	65.148377  
5204.000000	65.044069  
5203.000000	64.935779  
5202.000000	64.833784  
5201.000000	64.746665  
5200.000000	64.681029  
5199.000000	64.640903  
5198.000000	64.626502  
5197.000000	64.635133  
5196.000000	64.661645  
5195.000000	64.700484  
5194.000000	64.745378  
5193.000000	64.792013  
5192.000000	64.838099  
5191.000000	64.884543  
5190.000000	64.934444  
5189.000000	64.992165  
5188.000000	65.061402  
5187.000000	65.143322  
5186.000000	65.236377  
5185.000000	65.334558  
5184.000000	65.429282  
5183.000000	65.509223  
5182.000000	65.564203  
5181.000000	65.585255  
5180.000000	65.567708  
5179.000000	65.510821  
5178.000000	65.418887  
5177.000000	65.299820  
5176.000000	65.164160  
5175.000000	65.023660  
5174.000000	64.890098  
5173.000000	64.773797  
5172.000000	64.682531  
5171.000000	64.621710  
5170.000000	64.594078  
5169.000000	64.598655  
5168.000000	64.631676  
5167.000000	64.686298  
5166.000000	64.754629  
5165.000000	64.828443  
5164.000000	64.901065  
5163.000000	64.967346  
5162.000000	65.024495  
5161.000000	65.071654  
5160.000000	65.108799  
5159.000000	65.136146  
5158.000000	65.152812  
5157.000000	65.157961  
5156.000000	65.149593  
5155.000000	65.126061  
5154.000000	65.086174  
5153.000000	65.030670  
5152.000000	64.962291  
5151.000000	64.885711  
5150.000000	64.808201  
5149.000000	64.738726  
5148.000000	64.686608  
5147.000000	64.659881  
5146.000000	64.663791  
5145.000000	64.699649  
5144.000000	64.764237  
5143.000000	64.850378  
5142.000000	64.946842  
5141.000000	65.041041  
5140.000000	65.120959  
5139.000000	65.178012  
5138.000000	65.208172  
5137.000000	65.212774  
5136.000000	65.198135  
5135.000000	65.173029  
5134.000000	65.146470  
5133.000000	65.124917  
5132.000000	65.111279  
5131.000000	65.103912  
5130.000000	65.099191  
5129.000000	65.091300  
5128.000000	65.076017  
5127.000000	65.049862  
5126.000000	65.011715  
5125.000000	64.962029  
5124.000000	64.902281  
5123.000000	64.834833  
5122.000000	64.762139  
5121.000000	64.687514  
5120.000000	64.614915  
5119.000000	64.548945  
5118.000000	64.494538  
5117.000000	64.456439  
5116.000000	64.438366  
5115.000000	64.442467  
5114.000000	64.468598  
5113.000000	64.513754  
5112.000000	64.572858  
5111.000000	64.639997  
5110.000000	64.709305  
5109.000000	64.775657  
5108.000000	64.835238  
5107.000000	64.885592  
5106.000000	64.925289  
5105.000000	64.953064  
5104.000000	64.967918  
5103.000000	64.969205  
5102.000000	64.956831  
5101.000000	64.932346  
5100.000000	64.898371  
5099.000000	64.859032  
5098.000000	64.819431  
5097.000000	64.785456  
5096.000000	64.762783  
5095.000000	64.755940  
5094.000000	64.767456  
5093.000000	64.797544  
5092.000000	64.842557  
5091.000000	64.895391  
5090.000000	64.946627  
5089.000000	64.986491  
5088.000000	65.006422  
5087.000000	65.001082  
5086.000000	64.969897  
5085.000000	64.917087  
5084.000000	64.850831  
5083.000000	64.781236  
5082.000000	64.717912  
5081.000000	64.667701  
5080.000000	64.634108  
5079.000000	64.616441  
5078.000000	64.610624  
5077.000000	64.610862  
5076.000000	64.611816  
5075.000000	64.610028  
5074.000000	64.604401  
5073.000000	64.597010  
5072.000000	64.591455  
5071.000000	64.592504  
5070.000000	64.603376  
5069.000000	64.626049  
5068.000000	64.659976  
5067.000000	64.703345  
5066.000000	64.753270  
5065.000000	64.806818  
5064.000000	64.861488  
5063.000000	64.915466  
5062.000000	64.967107  
5061.000000	65.014362  
5060.000000	65.054249  
5059.000000	65.082788  
5058.000000	65.095448  
5057.000000	65.088224  
5056.000000	65.058660  
5055.000000	65.007638  
5054.000000	64.939451  
5053.000000	64.861702  
5052.000000	64.783787  
5051.000000	64.716053  
5050.000000	64.666414  
5049.000000	64.638447  
5048.000000	64.631223  
5047.000000	64.639472  
5046.000000	64.655685  
5045.000000	64.672160  
5044.000000	64.683389  
5043.000000	64.687228  
5042.000000	64.685273  
5041.000000	64.681386  
5040.000000	64.680218  
5039.000000	64.684915  
5038.000000	64.696407  
5037.000000	64.712810  
5036.000000	64.730429  
5035.000000	64.744710  
5034.000000	64.752054  
5033.000000	64.750862  
5032.000000	64.741683  
5031.000000	64.727401  
5030.000000	64.711976  
5029.000000	64.700031  
5028.000000	64.695119  
5027.000000	64.699983  
5026.000000	64.716053  
5025.000000	64.743781  
5024.000000	64.783358  
5023.000000	64.834094  
5022.000000	64.894461  
5021.000000	64.961600  
5020.000000	65.031433  
5019.000000	65.098810  
5018.000000	65.157556  
5017.000000	65.202045  
5016.000000	65.228009  
5015.000000	65.233826  
5014.000000	65.221047  
5013.000000	65.194034  
5012.000000	65.159106  
5011.000000	65.123057  
5010.000000	65.091896  
5009.000000	65.069317  
5008.000000	65.056204  
5007.000000	65.050935  
5006.000000	65.050172  
5005.000000	65.049791  
5004.000000	65.046405  
5003.000000	65.038323  
5002.000000	65.026426  
5001.000000	65.012955  
5000.000000	65.001487  
4999.000000	64.995718  
4998.000000	64.998579  
4997.000000	65.011382  
4996.000000	65.033125  
4995.000000	65.061163  
4994.000000	65.090584  
4993.000000	65.115785  
4992.000000	65.130591  
4991.000000	65.129780  
4990.000000	65.109848  
4989.000000	65.069746  
4988.000000	65.011906  
4987.000000	64.942193  
4986.000000	64.869022  
4985.000000	64.801836  
4984.000000	64.748811  
4983.000000	64.715027  
4982.000000	64.701032  
4981.000000	64.702701  
4980.000000	64.711880  
4979.000000	64.718651  
4978.000000	64.713835  
4977.000000	64.691472  
4976.000000	64.650464  
4975.000000	64.595055  
4974.000000	64.532995  
4973.000000	64.473986  
4972.000000	64.426875  
4971.000000	64.397740  
4970.000000	64.387989  
4969.000000	64.395165  
4968.000000	64.413762  
4967.000000	64.437413  
4966.000000	64.460730  
4965.000000	64.480519  
4964.000000	64.496135  
4963.000000	64.509344  
4962.000000	64.522624  
4961.000000	64.538836  
4960.000000	64.559602  
4959.000000	64.585614  
4958.000000	64.616417  
4957.000000	64.650654  
4956.000000	64.686250  
4955.000000	64.721488  
4954.000000	64.754915  
4953.000000	64.784264  
4952.000000	64.806509  
4951.000000	64.818286  
4950.000000	64.816188  
4949.000000	64.797258  
4948.000000	64.759922  
4947.000000	64.705252  
4946.000000	64.636850  
4945.000000	64.561009  
4944.000000	64.485454  
4943.000000	64.418172  
4942.000000	64.365816  
4941.000000	64.332866  
4940.000000	64.320731  
4939.000000	64.327645  
4938.000000	64.349627  
4937.000000	64.381289  
4936.000000	64.417243  
4935.000000	64.452695  
4934.000000	64.484882  
4933.000000	64.512801  
4932.000000	64.537549  
4931.000000	64.560961  
4930.000000	64.585900  
4929.000000	64.615154  
4928.000000	64.650821  
4927.000000	64.693665  
4926.000000	64.743041  
4925.000000	64.796614  
4924.000000	64.850926  
4923.000000	64.901471  
4922.000000	64.943981  
4921.000000	64.974427  
4920.000000	64.990353  
4919.000000	64.990091  
4918.000000	64.973640  
4917.000000	64.941763  
4916.000000	64.896154  
4915.000000	64.839029  
4914.000000	64.773154  
4913.000000	64.701962  
4912.000000	64.630126  
4911.000000	64.562892  
4910.000000	64.505887  
4909.000000	64.464259  
4908.000000	64.441847  
4907.000000	64.439868  
4906.000000	64.456343  
4905.000000	64.485764  
4904.000000	64.519953  
4903.000000	64.549446  
4902.000000	64.565372  
4901.000000	64.561557  
4900.000000	64.535951  
4899.000000	64.491367  
4898.000000	64.434671  
4897.000000	64.375138  
4896.000000	64.321970  
4895.000000	64.282155  
4894.000000	64.258718  
4893.000000	64.250111  
4892.000000	64.251279  
4891.000000	64.255499  
4890.000000	64.256739  
4889.000000	64.251255  
4888.000000	64.238786  
4887.000000	64.222002  
4886.000000	64.205789  
4885.000000	64.194989  
4884.000000	64.193058  
4883.000000	64.199995  
4882.000000	64.213490  
4881.000000	64.229583  
4880.000000	64.244890  
4879.000000	64.257764  
4878.000000	64.269900  
4877.000000	64.285826  
4876.000000	64.311385  
4875.000000	64.351439  
4874.000000	64.408063  
4873.000000	64.478993  
4872.000000	64.557838  
4871.000000	64.634966  
4870.000000	64.700508  
4869.000000	64.746117  
4868.000000	64.766883  
4867.000000	64.762115  
4866.000000	64.735388  
4865.000000	64.693546  
4864.000000	64.644289  
4863.000000	64.595317  
4862.000000	64.553284  
4861.000000	64.523029  
4860.000000	64.508104  
4859.000000	64.510679  
4858.000000	64.532256  
4857.000000	64.572739  
4856.000000	64.630556  
4855.000000	64.701771  
4854.000000	64.779925  
4853.000000	64.856719  
4852.000000	64.922833  
4851.000000	64.970231  
4850.000000	64.993548  
4849.000000	64.992094  
4848.000000	64.970278  
4847.000000	64.936661  
4846.000000	64.902138  
4845.000000	64.877963  
4844.000000	64.873075  
4843.000000	64.892053  
4842.000000	64.934062  
4841.000000	64.993834  
4840.000000	65.062522  
4839.000000	65.130114  
4838.000000	65.187406  
4837.000000	65.228223  
4836.000000	65.249896  
4835.000000	65.253138  
4834.000000	65.240979  
4833.000000	65.217733  
4832.000000	65.187931  
4831.000000	65.155458  
4830.000000	65.123295  
4829.000000	65.093851  
4828.000000	65.068793  
4827.000000	65.050077  
4826.000000	65.038943  
4825.000000	65.035891  
4824.000000	65.039873  
4823.000000	65.048313  
4822.000000	65.057229  
4821.000000	65.062069  
4820.000000	65.058541  
4819.000000	65.043735  
4818.000000	65.017247  
4817.000000	64.981198  
4816.000000	64.940142  
4815.000000	64.899563  
4814.000000	64.864587  
4813.000000	64.838528  
4812.000000	64.822435  
4811.000000	64.814805  
4810.000000	64.812016  
4809.000000	64.809536  
4808.000000	64.803314  
4807.000000	64.790773  
4806.000000	64.771461  
4805.000000	64.747405  
4804.000000	64.721798  
4803.000000	64.699268  
4802.000000	64.684128  
4801.000000	64.680242  
4800.000000	64.689707  
4799.000000	64.713096  
4798.000000	64.749050  
4797.000000	64.794611  
4796.000000	64.845728  
4795.000000	64.897561  
4794.000000	64.945316  
4793.000000	64.984893  
4792.000000	65.013766  
4791.000000	65.031337  
4790.000000	65.038919  
4789.000000	65.039849  
4788.000000	65.038633  
4787.000000	65.040040  
4786.000000	65.048003  
4785.000000	65.064978  
4784.000000	65.091204  
4783.000000	65.124988  
4782.000000	65.163064  
4781.000000	65.201902  
4780.000000	65.237951  
4779.000000	65.268564  
4778.000000	65.291762  
4777.000000	65.306782  
4776.000000	65.313124  
4775.000000	65.310287  
4774.000000	65.297579  
4773.000000	65.274453  
4772.000000	65.241122  
4771.000000	65.199232  
4770.000000	65.152406  
4769.000000	65.106225  
4768.000000	65.067744  
4767.000000	65.044069  
4766.000000	65.040731  
4765.000000	65.060114  
4764.000000	65.100812  
4763.000000	65.157604  
4762.000000	65.221858  
4761.000000	65.283393  
4760.000000	65.332508  
4759.000000	65.362429  
4758.000000	65.369963  
4757.000000	65.356874  
4756.000000	65.329051  
4755.000000	65.295553  
4754.000000	65.266323  
4753.000000	65.249800  
4752.000000	65.251564  
4751.000000	65.272784  
4750.000000	65.310621  
4749.000000	65.358424  
4748.000000	65.408110  
4747.000000	65.451312  
4746.000000	65.481281  
4745.000000	65.494251  
4744.000000	65.489792  
4743.000000	65.470409  
4742.000000	65.440607  
4741.000000	65.405869  
4740.000000	65.371370  
4739.000000	65.341329  
4738.000000	65.318441  
4737.000000	65.303754  
4736.000000	65.296792  
4735.000000	65.296244  
4734.000000	65.300059  
4733.000000	65.305900  
4732.000000	65.311431  
4731.000000	65.314197  
4730.000000	65.312504  
4729.000000	65.305376  
4728.000000	65.293169  
4727.000000	65.277385  
4726.000000	65.260505  
4725.000000	65.245795  
4724.000000	65.236163  
4723.000000	65.233802  
4722.000000	65.238857  
4721.000000	65.249490  
4720.000000	65.261602  
4719.000000	65.269875  
4718.000000	65.268921  
4717.000000	65.254807  
4716.000000	65.226006  
4715.000000	65.183877  
4714.000000	65.132832  
4713.000000	65.079283  
4712.000000	65.030312  
4711.000000	64.992094  
4710.000000	64.968609  
4709.000000	64.960908  
4708.000000	64.967465  
4707.000000	64.984822  
4706.000000	65.008473  
4705.000000	65.034651  
4704.000000	65.060663  
4703.000000	65.085792  
4702.000000	65.110564  
4701.000000	65.136265  
4700.000000	65.164136  
4699.000000	65.194177  
4698.000000	65.224933  
4697.000000	65.253329  
4696.000000	65.275883  
4695.000000	65.288782  
4694.000000	65.289211  
4693.000000	65.275764  
4692.000000	65.249395  
4691.000000	65.213036  
4690.000000	65.171074  
4689.000000	65.128612  
4688.000000	65.090417  
4687.000000	65.060591  
4686.000000	65.042018  
4685.000000	65.035891  
4684.000000	65.041661  
4683.000000	65.057349  
4682.000000	65.080094  
4681.000000	65.106678  
4680.000000	65.134191  
4679.000000	65.160226  
4678.000000	65.183711  
4677.000000	65.204668  
4676.000000	65.224242  
4675.000000	65.243792  
4674.000000	65.264797  
4673.000000	65.287995  
4672.000000	65.313649  
4671.000000	65.341830  
4670.000000	65.371966  
4669.000000	65.403389  
4668.000000	65.434598  
4667.000000	65.464401  
4666.000000	65.490579  
4665.000000	65.510249  
4664.000000	65.519618  
4663.000000	65.514850  
4662.000000	65.492272  
4661.000000	65.449714  
4660.000000	65.387415  
4659.000000	65.308642  
4658.000000	65.219807  
4657.000000	65.129947  
4656.000000	65.048956  
4655.000000	64.986300  
4654.000000	64.949250  
4653.000000	64.941930  
4652.000000	64.964914  
4651.000000	65.014910  
4650.000000	65.085768  
4649.000000	65.168905  
4648.000000	65.254282  
4647.000000	65.331482  
4646.000000	65.390753  
4645.000000	65.424251  
4644.000000	65.426945  
4643.000000	65.397500  
4642.000000	65.338492  
4641.000000	65.256023  
4640.000000	65.159511  
4639.000000	65.059423  
4638.000000	64.965915  
4637.000000	64.887046  
4636.000000	64.827895  
4635.000000	64.789819  
4634.000000	64.770913  
4633.000000	64.767169  
4632.000000	64.774036  
4631.000000	64.787554  
4630.000000	64.805555  
4629.000000	64.827466  
4628.000000	64.854431  
4627.000000	64.887738  
4626.000000	64.928507  
4625.000000	64.976406  
4624.000000	65.030074  
4623.000000	65.086936  
4622.000000	65.144038  
4621.000000	65.198326  
4620.000000	65.247035  
4619.000000	65.288472  
4618.000000	65.321040  
4617.000000	65.343904  
4616.000000	65.355443  
4615.000000	65.354299  
4614.000000	65.338587  
4613.000000	65.307259  
4612.000000	65.260338  
4611.000000	65.200018  
4610.000000	65.130376  
4609.000000	65.057516  
4608.000000	64.988493  
4607.000000	64.930343  
4606.000000	64.888238  
4605.000000	64.864325  
4604.000000	64.857578  
4603.000000	64.863872  
4602.000000	64.876723  
4601.000000	64.889025  
4600.000000	64.894676  
4599.000000	64.890074  
4598.000000	64.874982  
4597.000000	64.852905  
4596.000000	64.829039  
4595.000000	64.809703  
4594.000000	64.800286  
4593.000000	64.803981  
4592.000000	64.820575  
4591.000000	64.847183  
4590.000000	64.879608  
4589.000000	64.912819  
4588.000000	64.942312  
4587.000000	64.964699  
4586.000000	64.978575  
4585.000000	64.983654  
4584.000000	64.980101  
4583.000000	64.968609  
4582.000000	64.949560  
4581.000000	64.923858  
4580.000000	64.893031  
4579.000000	64.859676  
4578.000000	64.827442  
4577.000000	64.800953  
4576.000000	64.784955  
4575.000000	64.782881  
4574.000000	64.795994  
4573.000000	64.822912  
4572.000000	64.859747  
4571.000000	64.901065  
4570.000000	64.940881  
4569.000000	64.974188  
4568.000000	64.997339  
4567.000000	65.008592  
4566.000000	65.006995  
4565.000000	64.992547  
4564.000000	64.964604  
4563.000000	64.922165  
4562.000000	64.864087  
4561.000000	64.790034  
4560.000000	64.701676  
4559.000000	64.603352  
4558.000000	64.502191  
4557.000000	64.407372  
4556.000000	64.328503  
4555.000000	64.273953  
4554.000000	64.248228  
4553.000000	64.250898  
4552.000000	64.276981  
4551.000000	64.318227  
4550.000000	64.364981  
4549.000000	64.408254  
4548.000000	64.441943  
4547.000000	64.463734  
4546.000000	64.474987  
4545.000000	64.479613  
4544.000000	64.481997  
4543.000000	64.485549  
4542.000000	64.491534  
4541.000000	64.498424  
4540.000000	64.502954  
4539.000000	64.501094  
4538.000000	64.489936  
4537.000000	64.468812  
4536.000000	64.440059  
4535.000000	64.408445  
4534.000000	64.379954  
4533.000000	64.359736  
4532.000000	64.350652  
4531.000000	64.351868  
4530.000000	64.359307  
4529.000000	64.365530  
4528.000000	64.361929  
4527.000000	64.340710  
4526.000000	64.297509  
4525.000000	64.232373  
4524.000000	64.150190  
4523.000000	64.060115  
4522.000000	63.973522  
4521.000000	63.901758  
4520.000000	63.853597  
4519.000000	63.833689  
4518.000000	63.841843  
4517.000000	63.873386  
4516.000000	63.920378  
4515.000000	63.973641  
4514.000000	64.024400  
4513.000000	64.065241  
4512.000000	64.091444  
4511.000000	64.100670  
4510.000000	64.093399  
4509.000000	64.071464  
4508.000000	64.038276  
4507.000000	63.997507  
4506.000000	63.953471  
4505.000000	63.910984  
4504.000000	63.874506  
4503.000000	63.848233  
4502.000000	63.834619  
4501.000000	63.834214  
4500.000000	63.845205  
4499.000000	63.863682  
4498.000000	63.884878  
4497.000000	63.904428  
4496.000000	63.919353  
4495.000000	63.928890  
4494.000000	63.934612  
4493.000000	63.940095  
4492.000000	63.949847  
4491.000000	63.968586  
4490.000000	64.000558  
4489.000000	64.048361  
4488.000000	64.113235  
4487.000000	64.193487  
4486.000000	64.285159  
4485.000000	64.381074  
4484.000000	64.472341  
4483.000000	64.548444  
4482.000000	64.599752  
4481.000000	64.618349  
4480.000000	64.600300  
4479.000000	64.546060  
4478.000000	64.461135  
4477.000000	64.354753  
4476.000000	64.239144  
4475.000000	64.126253  
4474.000000	64.026451  
4473.000000	63.946127  
4472.000000	63.887500  
4471.000000	63.848876  
4470.000000	63.825941  
4469.000000	63.813209  
4468.000000	63.805508  
4467.000000	63.798832  
4466.000000	63.790941  
4465.000000	63.780474  
4464.000000	63.767075  
4463.000000	63.750290  
4462.000000	63.729810  
4461.000000	63.705396  
4460.000000	63.677453  
4459.000000	63.646197  
4458.000000	63.613033  
4457.000000	63.580226  
4456.000000	63.551497  
4455.000000	63.531470  
4454.000000	63.524413  
4453.000000	63.533377  
4452.000000	63.558650  
4451.000000	63.597846  
4450.000000	63.644719  
4449.000000	63.689446  
4448.000000	63.721942  
4447.000000	63.734483  
4446.000000	63.723087  
4445.000000	63.688731  
4444.000000	63.635444  
4443.000000	63.569378  
4442.000000	63.497972  
4441.000000	63.429045  
4440.000000	63.369917  
4439.000000	63.327169  
4438.000000	63.307785  
4437.000000	63.318347  
4436.000000	63.362693  
4435.000000	63.442087  
4434.000000	63.552713  
4433.000000	63.687920  
4432.000000	63.840484  
4431.000000	64.001584  
4430.000000	64.163160  
4429.000000	64.314222  
4428.000000	64.444041  
4427.000000	64.537215  
4426.000000	64.577198  
4425.000000	64.546656  
4424.000000	64.427161  
4423.000000	64.213490  
4422.000000	63.929224  
4421.000000	63.602042  
4420.000000	63.248825  
4419.000000	62.903141  
4418.000000	62.615156  
4417.000000	62.427616  
4416.000000	62.369108  
4415.000000	62.444496  
4414.000000	62.633776  
4413.000000	62.912225  
4412.000000	63.251829  
4411.000000	63.621854  
4410.000000	63.988709  
4409.000000	64.316082  
4408.000000	64.569473  
4407.000000	64.699935  
4406.000000	64.668703  
4405.000000	64.487671  
4404.000000	64.188098  
4403.000000	63.829588  
4402.000000	63.463640  
4401.000000	63.066339  
4400.000000	62.635970  
4399.000000	62.103796  
4398.000000	61.564660  
4397.000000	61.271715  
4396.000000	61.665773  
4395.000000	63.303041  
4394.000000	66.637039  
4393.000000	71.861433  
4392.000000	78.743124  
4391.000000	86.596345  
4390.000000	94.421386  
4389.000000	101.104164 
4388.000000	105.693769 
4387.000000	107.606101 
4386.000000	106.706643 
4385.000000	103.313279 
4384.000000	98.076295  
4383.000000	91.817045  
4382.000000	85.373425  
4381.000000	79.421830  
4380.000000	74.454641  
4379.000000	70.677018  
4378.000000	68.093633  
4377.000000	66.517591  
4376.000000	65.687918  
4375.000000	65.334343  
4374.000000	65.226006  
4373.000000	65.226268  
4372.000000	65.227174  
4371.000000	65.207886  
4370.000000	65.147542  
4369.000000	65.061020  
4368.000000	64.939713  
4367.000000	64.787268  
4366.000000	64.609146  
4365.000000	64.414715  
4364.000000	64.214992  
4363.000000	64.026975  
4362.000000	63.872313  
4361.000000	63.761448  
4360.000000	63.690590  
4359.000000	63.656234  
4358.000000	63.654041  
4357.000000	63.663530  
4356.000000	63.658976  
4355.000000	63.624954  
4354.000000	63.556742  
4353.000000	63.464093  
4352.000000	63.367080  
4351.000000	63.271212  
4350.000000	63.181400  
4349.000000	63.119578  
4348.000000	63.104295  
4347.000000	63.133335  
4346.000000	63.197112  
4345.000000	63.286852  
4344.000000	63.389897  
4343.000000	63.491678  
4342.000000	63.579869  
4341.000000	63.646078  
4340.000000	63.686418  
4339.000000	63.700580  
4338.000000	63.691830  
4337.000000	63.665485  
4336.000000	63.627815  
4335.000000	63.584637  
4334.000000	63.541913  
4333.000000	63.505458  
4332.000000	63.480186  
4331.000000	63.470005  
4330.000000	63.478326  
4329.000000	63.507580  
4328.000000	63.557863  
4327.000000	63.627076  
4326.000000	63.710761  
4325.000000	63.802528  
4324.000000	63.895010  
4323.000000	63.980174  
4322.000000	64.051151  
4321.000000	64.102029  
4320.000000	64.128136  
4319.000000	64.126968  
4318.000000	64.099025  
4317.000000	64.047932  
4316.000000	63.979887  
4315.000000	63.903617  
4314.000000	63.829660  
4313.000000	63.767623  
4312.000000	63.725376  
4311.000000	63.706588  
4310.000000	63.710284  
4309.000000	63.731956  
4308.000000	63.765120  
4307.000000	63.802623  
4306.000000	63.838410  
4305.000000	63.868284  
4304.000000	63.890385  
4303.000000	63.904380  
4302.000000	63.911175  
4301.000000	63.911795  
4300.000000	63.907575  
4299.000000	63.899374  
4298.000000	63.888716  
4297.000000	63.877844  
4296.000000	63.870453  
4295.000000	63.871097  
4294.000000	63.884997  
4293.000000	63.917326  
4292.000000	63.971376  
4291.000000	64.047384  
4290.000000	64.141511  
4289.000000	64.246487  
4288.000000	64.351701  
4287.000000	64.445471  
4286.000000	64.516425  
4285.000000	64.556026  
4284.000000	64.560198  
4283.000000	64.530301  
4282.000000	64.472556  
4281.000000	64.396691  
4280.000000	64.314651  
4279.000000	64.238047  
4278.000000	64.176559  
4277.000000	64.136052  
4276.000000	64.118480  
4275.000000	64.121794  
4274.000000	64.141106  
4273.000000	64.170241  
4272.000000	64.202737  
4271.000000	64.233589  
4270.000000	64.259600  
4269.000000	64.279747  
4268.000000	64.294576  
4267.000000	64.305329  
4266.000000	64.312887  
4265.000000	64.317035  
4264.000000	64.316749  
4263.000000	64.310383  
4262.000000	64.296650  
4261.000000	64.275503  
4260.000000	64.248633  
4259.000000	64.219737  
4258.000000	64.194130  
4257.000000	64.177155  
4256.000000	64.172744  
4255.000000	64.182686  
4254.000000	64.206027  
4253.000000	64.238834  
4252.000000	64.275312  
4251.000000	64.308953  
4250.000000	64.334392  
4249.000000	64.348530  
4248.000000	64.351582  
4247.000000	64.346170  
4246.000000	64.337086  
4245.000000	64.330196  
4244.000000	64.331150  
4243.000000	64.343738  
4242.000000	64.369559  
4241.000000	64.408111  
4240.000000	64.456415  
4239.000000	64.510726  
4238.000000	64.566254  
4237.000000	64.618229  
4236.000000	64.662146  
4235.000000	64.694547  
4234.000000	64.712738  
4233.000000	64.715194  
4232.000000	64.701747  
4231.000000	64.673733  
4230.000000	64.633917  
4229.000000	64.586472  
4228.000000	64.536023  
4227.000000	64.487290  
4226.000000	64.444446  
4225.000000	64.410758  
4224.000000	64.388084  
4223.000000	64.377284  
4222.000000	64.378595  
4221.000000	64.392113  
4220.000000	64.417815  
4219.000000	64.455723  
4218.000000	64.505434  
4217.000000	64.565515  
4216.000000	64.633321  
4215.000000	64.704179  
4214.000000	64.772057  
4213.000000	64.829587  
4212.000000	64.869832  
4211.000000	64.887022  
4210.000000	64.878320  
4209.000000	64.844107  
4208.000000	64.788699  
4207.000000	64.719176  
4206.000000	64.644598  
4205.000000	64.574098  
4204.000000	64.515781  
4203.000000	64.475250  
4202.000000	64.455080  
4201.000000	64.455056  
4200.000000	64.472818  
4199.000000	64.504981  
4198.000000	64.547991  
4197.000000	64.598941  
4196.000000	64.656066  
4195.000000	64.718151  
4194.000000	64.784288  
4193.000000	64.853143  
4192.000000	64.922475  
4191.000000	64.989233  
4190.000000	65.049290  
4189.000000	65.098690  
4188.000000	65.133905  
4187.000000	65.153169  
4186.000000	65.156245  
4185.000000	65.145039  
4184.000000	65.122866  
4183.000000	65.094232  
4182.000000	65.063714  
4181.000000	65.035700  
4180.000000	65.013480  
4179.000000	64.999055  
4178.000000	64.993143  
4177.000000	64.995360  
4176.000000	65.004372  
4175.000000	65.018343  
4174.000000	65.034914  
4173.000000	65.051412  
4172.000000	65.065026  
4171.000000	65.073227  
4170.000000	65.074086  
4169.000000	65.066719  
4168.000000	65.051174  
4167.000000	65.028715  
4166.000000	65.001797  
4165.000000	64.973783  
4164.000000	64.948201  
4163.000000	64.928460  
4162.000000	64.917588  
4161.000000	64.917707  
4160.000000	64.929699  
4159.000000	64.953064  
4158.000000	64.985799  
4157.000000	65.024733  
4156.000000	65.065670  
4155.000000	65.104317  
4154.000000	65.136790  
4153.000000	65.160608  
4152.000000	65.174865  
4151.000000	65.180230  
4150.000000	65.178632  
4149.000000	65.172719  
4148.000000	65.165114  
4147.000000	65.157270  
4146.000000	65.149283  
4145.000000	65.139746  
4144.000000	65.126562  
4143.000000	65.107464  
4142.000000	65.081286  
4141.000000	65.048599  
4140.000000	65.012192  
4139.000000	64.976310  
4138.000000	64.946341  
4137.000000	64.927148  
4136.000000	64.922571  
4135.000000	64.934539  
4134.000000	64.962840  
4133.000000	65.005064  
4132.000000	65.057277  
4131.000000	65.114116  
4130.000000	65.169954  
4129.000000	65.219616  
4128.000000	65.259146  
4127.000000	65.286445  
4126.000000	65.301084  
4125.000000	65.304350  
4124.000000	65.298509  
4123.000000	65.285968  
4122.000000	65.269160  
4121.000000	65.249967  
4120.000000	65.230274  
4119.000000	65.212178  
4118.000000	65.198183  
4117.000000	65.191078  
4116.000000	65.193271  
4115.000000	65.206098  
4114.000000	65.228915  
4113.000000	65.259027  
4112.000000	65.291976  
4111.000000	65.322327  
4110.000000	65.344667  
4109.000000	65.355110  
4108.000000	65.352225  
4107.000000	65.337729  
4106.000000	65.315890  
4105.000000	65.292716  
4104.000000	65.274453  
4103.000000	65.266036  
4102.000000	65.270066  
4101.000000	65.286111  
4100.000000	65.311408  
4099.000000	65.341162  
4098.000000	65.370321  
4097.000000	65.394401  
4096.000000	65.411019  
4095.000000	65.419840  
4094.000000	65.422534  
4093.000000	65.422010  
4092.000000	65.421271  
4091.000000	65.422463  
4090.000000	65.426063  
4089.000000	65.430545  
4088.000000	65.432620  
4087.000000	65.428185  
4086.000000	65.413355  
4085.000000	65.385532  
4084.000000	65.344548  
4083.000000	65.292525  
4082.000000	65.234470  
4081.000000	65.177178  
4080.000000	65.128231  
4079.000000	65.094327  
4078.000000	65.080022  
4077.000000	65.086650  
4076.000000	65.112471  
4075.000000	65.152549  
4074.000000	65.200686  
4073.000000	65.250492  
4072.000000	65.297198  
4071.000000	65.338110  
4070.000000	65.372872  
4069.000000	65.402555  
4068.000000	65.428733  
4067.000000	65.452194  
4066.000000	65.472483  
4065.000000	65.487647  
4064.000000	65.494966  
4063.000000	65.491700  
4062.000000	65.476274  
4061.000000	65.448999  
4060.000000	65.412497  
4059.000000	65.371108  
4058.000000	65.330123  
4057.000000	65.294599  
4056.000000	65.268301  
4055.000000	65.253257  
4054.000000	65.249562  
4053.000000	65.255713  
4052.000000	65.269494  
4051.000000	65.288257  
4050.000000	65.309190  
4049.000000	65.330004  
4048.000000	65.348553  
4047.000000	65.363049  
4046.000000	65.371918  
4045.000000	65.373921  
4044.000000	65.368294  
4043.000000	65.354990  
4042.000000	65.335130  
4041.000000	65.310692  
4040.000000	65.284276  
4039.000000	65.258979  
4038.000000	65.237903  
4037.000000	65.223383  
4036.000000	65.216398  
4035.000000	65.216565  
4034.000000	65.221905  
4033.000000	65.229439  
4032.000000	65.235781  
4031.000000	65.237855  
4030.000000	65.233826  
4029.000000	65.223193  
4028.000000	65.207386  
4027.000000	65.188932  
4026.000000	65.171217  
4025.000000	65.157938  
4024.000000	65.151906  
4023.000000	65.154337  
4022.000000	65.164566  
4021.000000	65.180635  
4020.000000	65.199089  
4019.000000	65.215897  
4018.000000	65.227103  
4017.000000	65.229749  
4016.000000	65.222072  
4015.000000	65.203785  
4014.000000	65.176010  
4013.000000	65.140748  
4012.000000	65.100717  
4011.000000	65.058970  
4010.000000	65.018415  
4009.000000	64.981579  
4008.000000	64.950346  
4007.000000	64.926028  
4006.000000	64.909076  
4005.000000	64.899420  
4004.000000	64.896321  
4003.000000	64.898872  
4002.000000	64.905571  
4001.000000	64.915537  
4000.000000	64.927887  
3999.000000	64.942669  
3998.000000	64.960217  
3997.000000	64.981698  
3996.000000	65.008330  
3995.000000	65.041470  
3994.000000	65.081763  
3993.000000	65.128850  
3992.000000	65.181279  
3991.000000	65.236139  
3990.000000	65.289545  
3989.000000	65.336799  
3988.000000	65.373206  
3987.000000	65.394592  
3986.000000	65.398311  
3985.000000	65.383410  
3984.000000	65.350937  
3983.000000	65.303921  
3982.000000	65.247154  
3981.000000	65.186381  
3980.000000	65.127348  
3979.000000	65.075230  
3978.000000	65.034151  
3977.000000	65.006327  
3976.000000	64.992427  
3975.000000	64.991402  
3974.000000	65.001225  
3973.000000	65.019059  
3972.000000	65.042042  
3971.000000	65.067219  
3970.000000	65.091919  
3969.000000	65.113663  
3968.000000	65.130424  
3967.000000	65.140247  
3966.000000	65.142011  
3965.000000	65.135240  
3964.000000	65.120768  
3963.000000	65.100479  
3962.000000	65.077567  
3961.000000	65.055942  
3960.000000	65.039539  
3959.000000	65.031409  
3958.000000	65.033078  
3957.000000	65.044140  
3956.000000	65.062141  
3955.000000	65.083122  
3954.000000	65.102434  
3953.000000	65.115952  
3952.000000	65.120840  
3951.000000	65.116095  
3950.000000	65.102767  
3949.000000	65.083384  
3948.000000	65.061354  
3947.000000	65.040397  
3946.000000	65.023398  
3945.000000	65.012288  
3944.000000	65.007877  
3943.000000	65.010046  
3942.000000	65.018415  
3941.000000	65.032196  
3940.000000	65.050554  
3939.000000	65.072441  
3938.000000	65.096449  
3937.000000	65.120697  
3936.000000	65.142750  
3935.000000	65.160179  
3934.000000	65.170621  
3933.000000	65.172839  
3932.000000	65.167021  
3931.000000	65.154600  
3930.000000	65.137934  
3929.000000	65.120100  
3928.000000	65.103936  
3927.000000	65.091490  
3926.000000	65.083193  
3925.000000	65.078377  
3924.000000	65.075230  
3923.000000	65.071678  
3922.000000	65.065646  
3921.000000	65.055632  
3920.000000	65.041065  
3919.000000	65.022182  
3918.000000	64.999914  
3917.000000	64.975285  
3916.000000	64.949488  
3915.000000	64.923739  
3914.000000	64.899444  
3913.000000	64.877820  
3912.000000	64.860606  
3911.000000	64.849615  
3910.000000	64.846944  
3909.000000	64.853930  
3908.000000	64.871454  
3907.000000	64.899325  
3906.000000	64.936399  
3905.000000	64.980387  
3904.000000	65.028333  
3903.000000	65.076875  
3902.000000	65.122914  
3901.000000	65.163707  
3900.000000	65.197014  
3899.000000	65.221142  
3898.000000	65.235233  
3897.000000	65.239119  
3896.000000	65.233612  
3895.000000	65.220046  
3894.000000	65.201139  
3893.000000	65.179705  
3892.000000	65.158748  
3891.000000	65.140223  
3890.000000	65.125322  
3889.000000	65.113472  
3888.000000	65.102934  
3887.000000	65.090942  
3886.000000	65.074610  
3885.000000	65.051817  
3884.000000	65.021800  
3883.000000	64.985632  
3882.000000	64.945983  
3881.000000	64.907026  
3880.000000	64.873337  
3879.000000	64.849209  
3878.000000	64.837431  
3877.000000	64.839267  
3876.000000	64.854216  
3875.000000	64.880132  
3874.000000	64.913749  
3873.000000	64.951300  
3872.000000	64.989423  
3871.000000	65.025162  
3870.000000	65.056419  
3869.000000	65.081906  
3868.000000	65.101099  
3867.000000	65.114092  
3866.000000	65.121459  
3865.000000	65.124225  
3864.000000	65.123391  
3863.000000	65.120410  
3862.000000	65.116357  
3861.000000	65.112233  
3860.000000	65.108323  
3859.000000	65.104961  
3858.000000	65.101718  
3857.000000	65.097832  
3856.000000	65.092253  
3855.000000	65.084314  
3854.000000	65.073227  
3853.000000	65.058231  
3852.000000	65.038800  
3851.000000	65.014958  
3850.000000	64.987063  
3849.000000	64.955973  
3848.000000	64.923453  
3847.000000	64.892148  
3846.000000	64.865612  
3845.000000	64.847803  
3844.000000	64.842200  
3843.000000	64.850997  
3842.000000	64.874386  
3841.000000	64.910101  
3840.000000	64.952945  
3839.000000	64.996170  
3838.000000	65.032553  
3837.000000	65.056109  
3836.000000	65.063142  
3835.000000	65.053486  
3834.000000	65.030264  
3833.000000	64.999556  
3832.000000	64.968752  
3831.000000	64.945554  
3830.000000	64.936232  
3829.000000	64.944696  
3828.000000	64.971995  
3827.000000	65.016245  
3826.000000	65.073537  
3825.000000	65.138363  
3824.000000	65.204811  
3823.000000	65.267229  
3822.000000	65.320634  
3821.000000	65.361404  
3820.000000	65.387177  
3819.000000	65.396976  
3818.000000	65.391135  
3817.000000	65.371561  
3816.000000	65.341091  
3815.000000	65.303397  
3814.000000	65.262341  
3813.000000	65.221929  
3812.000000	65.185546  
3811.000000	65.156102  
3810.000000	65.135288  
3809.000000	65.123939  
3808.000000	65.121483  
3807.000000	65.126419  
3806.000000	65.136384  
3805.000000	65.148186  
3804.000000	65.158677  
3803.000000	65.165066  
3802.000000	65.165519  
3801.000000	65.159153  
3800.000000	65.146350  
3799.000000	65.128469  
3798.000000	65.107440  
3797.000000	65.085530  
3796.000000	65.064930  
3795.000000	65.047430  
3794.000000	65.034079  
3793.000000	65.025258  
3792.000000	65.020680  
3791.000000	65.019893  
3790.000000	65.022015  
3789.000000	65.026307  
3788.000000	65.032219  
3787.000000	65.039849  
3786.000000	65.049290  
3785.000000	65.061020  
3784.000000	65.075421  
3783.000000	65.092849  
3782.000000	65.113401  
3781.000000	65.136742  
3780.000000	65.161848  
3779.000000	65.187144  
3778.000000	65.211224  
3777.000000	65.232515  
3776.000000	65.249705  
3775.000000	65.261673  
3774.000000	65.268206  
3773.000000	65.269374  
3772.000000	65.265512  
3771.000000	65.257310  
3770.000000	65.245795  
3769.000000	65.232276  
3768.000000	65.218353  
3767.000000	65.205860  
3766.000000	65.196561  
3765.000000	65.191674  
3764.000000	65.191388  
3763.000000	65.194773  
3762.000000	65.199518  
3761.000000	65.202355  
3760.000000	65.199875  
3759.000000	65.189099  
3758.000000	65.168690  
3757.000000	65.139389  
3756.000000	65.104436  
3755.000000	65.068674  
3754.000000	65.037941  
3753.000000	65.017724  
3752.000000	65.012097  
3751.000000	65.022563  
3750.000000	65.048217  
3749.000000	65.085721  
3748.000000	65.130329  
3747.000000	65.176796  
3746.000000	65.220379  
3745.000000	65.257620  
3744.000000	65.286612  
3743.000000	65.306854  
3742.000000	65.318942  
3741.000000	65.323972  
3740.000000	65.323233  
3739.000000	65.317797  
3738.000000	65.308356  
3737.000000	65.295338  
3736.000000	65.279197  
3735.000000	65.260338  
3734.000000	65.239143  
3733.000000	65.216112  
3732.000000	65.191817  
3731.000000	65.167045  
3730.000000	65.142965  
3729.000000	65.120816  
3728.000000	65.102195  
3727.000000	65.088701  
3726.000000	65.081334  
3725.000000	65.080571  
3724.000000	65.085840  
3723.000000	65.096044  
3722.000000	65.109276  
3721.000000	65.123987  
3720.000000	65.138602  
3719.000000	65.152478  
3718.000000	65.165591  
3717.000000	65.178442  
3716.000000	65.191483  
3715.000000	65.204906  
3714.000000	65.218353  
3713.000000	65.230703  
3712.000000	65.240168  
3711.000000	65.245079  
3710.000000	65.244460  
3709.000000	65.238380  
3708.000000	65.228080  
3707.000000	65.215802  
3706.000000	65.204119  
3705.000000	65.195655  
3704.000000	65.192317  
3703.000000	65.194749  
3702.000000	65.201997  
3701.000000	65.212583  
3700.000000	65.224123  
3699.000000	65.234231  
3698.000000	65.240836  
3697.000000	65.242791  
3696.000000	65.239834  
3695.000000	65.232610  
3694.000000	65.222525  
3693.000000	65.211272  
3692.000000	65.200686  
3691.000000	65.192270  
3690.000000	65.187001  
3689.000000	65.184903  
3688.000000	65.185213  
3687.000000	65.186357  
3686.000000	65.186166  
3685.000000	65.182542  
3684.000000	65.173959  
3683.000000	65.160250  
3682.000000	65.142750  
3681.000000	65.124320  
3680.000000	65.109062  
3679.000000	65.101456  
3678.000000	65.105199  
3677.000000	65.122246  
3676.000000	65.151977  
3675.000000	65.191125  
3674.000000	65.234303  
3673.000000	65.274858  
3672.000000	65.306711  
3671.000000	65.325307  
3670.000000	65.328812  
3669.000000	65.318393  
3668.000000	65.297746  
3667.000000	65.272188  
3666.000000	65.247321  
3665.000000	65.227699  
3664.000000	65.215945  
3663.000000	65.212416  
3662.000000	65.215635  
3661.000000	65.222787  
3660.000000	65.230798  
3659.000000	65.237116  
3658.000000	65.240502  
3657.000000	65.241050  
3656.000000	65.240168  
3655.000000	65.239739  
3654.000000	65.241932  
3653.000000	65.248370  
3652.000000	65.259909  
3651.000000	65.276622  
3650.000000	65.297460  
3649.000000	65.320515  
3648.000000	65.343260  
3647.000000	65.362977  
3646.000000	65.377259  
3645.000000	65.384340  
3644.000000	65.383529  
3643.000000	65.375161  
3642.000000	65.360569  
3641.000000	65.342116  
3640.000000	65.322422  
3639.000000	65.303921  
3638.000000	65.288400  
3637.000000	65.276813  
3636.000000	65.269041  
3635.000000	65.264201  
3634.000000	65.260767  
3633.000000	65.257215  
3632.000000	65.252423  
3631.000000	65.245938  
3630.000000	65.238118  
3629.000000	65.230035  
3628.000000	65.223240  
3627.000000	65.219712  
3626.000000	65.221548  
3625.000000	65.230464  
3624.000000	65.247702  
3623.000000	65.272974  
3622.000000	65.304923  
3621.000000	65.340399  
3620.000000	65.375041  
3619.000000	65.403842  
3618.000000	65.422034  
3617.000000	65.425920  
3616.000000	65.413975  
3615.000000	65.386819  
3614.000000	65.347480  
3613.000000	65.300345  
3612.000000	65.250849  
3611.000000	65.203785  
3610.000000	65.162777  
3609.000000	65.129828  
3608.000000	65.105438  
3607.000000	65.089082  
3606.000000	65.079927  
3605.000000	65.077447  
3604.000000	65.081572  
3603.000000	65.092420  
3602.000000	65.110015  
3601.000000	65.133476  
3600.000000	65.160727  
3599.000000	65.188479  
3598.000000	65.212774  
3597.000000	65.229606  
3596.000000	65.235924  
3595.000000	65.230393  
3594.000000	65.213727  
3593.000000	65.188598  
3592.000000	65.159034  
3591.000000	65.129518  
3590.000000	65.104389  
3589.000000	65.086865  
3588.000000	65.078902  
3587.000000	65.081191  
3586.000000	65.093135  
3585.000000	65.113544  
3584.000000	65.140151  
3583.000000	65.169906  
3582.000000	65.199255  
3581.000000	65.224409  
3580.000000	65.241909  
3579.000000	65.248966  
3578.000000	65.244483  
3577.000000	65.229439  
3576.000000	65.206551  
3575.000000	65.180063  
3574.000000	65.154767  
3573.000000	65.135073  
3572.000000	65.123987  
3571.000000	65.122461  
3570.000000	65.129303  
3569.000000	65.141487  
3568.000000	65.155363  
3567.000000	65.167546  
3566.000000	65.175604  
3565.000000	65.178775  
3564.000000	65.177655  
3563.000000	65.174341  
3562.000000	65.170907  
3561.000000	65.169763  
3560.000000	65.172576  
3559.000000	65.180420  
3558.000000	65.193605  
3557.000000	65.211510  
3556.000000	65.233063  
3555.000000	65.256714  
3554.000000	65.280699  
3553.000000	65.303659  
3552.000000	65.324735  
3551.000000	65.343713  
3550.000000	65.360379  
3549.000000	65.374970  
3548.000000	65.387368  
3547.000000	65.397167  
3546.000000	65.403342  
3545.000000	65.404415  
3544.000000	65.398764  
3543.000000	65.385413  
3542.000000	65.364193  
3541.000000	65.336298  
3540.000000	65.303945  
3539.000000	65.270590  
3538.000000	65.239787  
3537.000000	65.214419  
3536.000000	65.196299  
3535.000000	65.185475  
3534.000000	65.180683  
3533.000000	65.180110  
3532.000000	65.181422  
3531.000000	65.182876  
3530.000000	65.182924  
3529.000000	65.180563  
3528.000000	65.174794  
3527.000000	65.164518  
3526.000000	65.148830  
3525.000000	65.127205  
3524.000000	65.100049  
3523.000000	65.068864  
3522.000000	65.036249  
3521.000000	65.005803  
3520.000000	64.981293  
3519.000000	64.966297  
3518.000000	64.963030  
3517.000000	64.972209  
3516.000000	64.992475  
3515.000000	65.020847  
3514.000000	65.053439  
3513.000000	65.086150  
3512.000000	65.115308  
3511.000000	65.138316  
3510.000000	65.153646  
3509.000000	65.160918  
3508.000000	65.160536  
3507.000000	65.153336  
3506.000000	65.140175  
3505.000000	65.121698  
3504.000000	65.098762  
3503.000000	65.072154  
3502.000000	65.043044  
3501.000000	65.013074  
3500.000000	64.984631  
3499.000000	64.960956  
3498.000000	64.945650  
3497.000000	64.942574  
3496.000000	64.954662  
3495.000000	64.983129  
3494.000000	65.026736  
3493.000000	65.081667  
3492.000000	65.141582  
3491.000000	65.198397  
3490.000000	65.243506  
3489.000000	65.269517  
3488.000000	65.271711  
3487.000000	65.248775  
3486.000000	65.203356  
3485.000000	65.141916  
3484.000000	65.072989  
3483.000000	65.005922  
3482.000000	64.948654  
3481.000000	64.906764  
3480.000000	64.882063  
3479.000000	64.873003  
3478.000000	64.875221  
3477.000000	64.882898  
3476.000000	64.890599  
3475.000000	64.894461  
3474.000000	64.893198  
3473.000000	64.888167  
3472.000000	64.883160  
3471.000000	64.883112  
3470.000000	64.892792  
3469.000000	64.915347  
3468.000000	64.951467  
3467.000000	64.999055  
3466.000000	65.053653  
3465.000000	65.109395  
3464.000000	65.160536  
3463.000000	65.202522  
3462.000000	65.232944  
3461.000000	65.251994  
3460.000000	65.262007  
3459.000000	65.266633  
3458.000000	65.269732  
3457.000000	65.274453  
3456.000000	65.282654  
3455.000000	65.294480  
3454.000000	65.309119  
3453.000000	65.324711  
3452.000000	65.339350  
3451.000000	65.351343  
3450.000000	65.360045  
3449.000000	65.365195  
3448.000000	65.366911  
3447.000000	65.365290  
3446.000000	65.360116  
3445.000000	65.351057  
3444.000000	65.337586  
3443.000000	65.319347  
3442.000000	65.296530  
3441.000000	65.270209  
3440.000000	65.242218  
3439.000000	65.214920  
3438.000000	65.190982  
3437.000000	65.172886  
3436.000000	65.162587  
3435.000000	65.160822  
3434.000000	65.167427  
3433.000000	65.181303  
3432.000000	65.200638  
3431.000000	65.223002  
3430.000000	65.245580  
3429.000000	65.265607  
3428.000000	65.280461  
3427.000000	65.287971  
3426.000000	65.286803  
3425.000000	65.276741  
3424.000000	65.258669  
3423.000000	65.234708  
3422.000000	65.207552  
3421.000000	65.180397  
3420.000000	65.156054  
3419.000000	65.136694  
3418.000000	65.123367  
3417.000000	65.115857  
3416.000000	65.113091  
3415.000000	65.113544  
3414.000000	65.115284  
3413.000000	65.116691  
3412.000000	65.116381  
3411.000000	65.113902  
3410.000000	65.109157  
3409.000000	65.103030  
3408.000000	65.096640  
3407.000000	65.091562  
3406.000000	65.089678  
3405.000000	65.092396  
3404.000000	65.101051  
3403.000000	65.115737  
3402.000000	65.135335  
3401.000000	65.157008  
3400.000000	65.176749  
3399.000000	65.189814  
3398.000000	65.191602  
3397.000000	65.179038  
3396.000000	65.151143  
3395.000000	65.109944  
3394.000000	65.060305  
3393.000000	65.009379  
3392.000000	64.965271  
3391.000000	64.935564  
3390.000000	64.925670  
3389.000000	64.937853  
3388.000000	64.970612  
3387.000000	65.018701  
3386.000000	65.074133  
3385.000000	65.127873  
3384.000000	65.171527  
3383.000000	65.198826  
3382.000000	65.206933  
3381.000000	65.196633  
3380.000000	65.172123  
3379.000000	65.139818  
3378.000000	65.106868  
3377.000000	65.079879  
3376.000000	65.063285  
3375.000000	65.059232  
3374.000000	65.066695  
3373.000000	65.082812  
3372.000000	65.102982  
3371.000000	65.122437  
3370.000000	65.136885  
3369.000000	65.143299  
3368.000000	65.140461  
3367.000000	65.128636  
3366.000000	65.109682  
3365.000000	65.086317  
3364.000000	65.061783  
3363.000000	65.039062  
3362.000000	65.020895  
3361.000000	65.009403  
3360.000000	65.005707  
3359.000000	65.009808  
3358.000000	65.020966  
3357.000000	65.037608  
3356.000000	65.057730  
3355.000000	65.078949  
3354.000000	65.098881  
3353.000000	65.115547  
3352.000000	65.127539  
3351.000000	65.134501  
3350.000000	65.136671  
3349.000000	65.135002  
3348.000000	65.130829  
3347.000000	65.125870  
3346.000000	65.121698  
3345.000000	65.119457  
3344.000000	65.119695  
3343.000000	65.122413  
3342.000000	65.127229  
3341.000000	65.133500  
3340.000000	65.140652  
3339.000000	65.148234  
3338.000000	65.156102  
3337.000000	65.164375  
3336.000000	65.173435  
3335.000000	65.183568  
3334.000000	65.194940  
3333.000000	65.207362  
3332.000000	65.220308  
3331.000000	65.233135  
3330.000000	65.244960  
3329.000000	65.255069  
3328.000000	65.262770  
3327.000000	65.267682  
3326.000000	65.269494  
3325.000000	65.268206  
3324.000000	65.263748  
3323.000000	65.256142  
3322.000000	65.245366  
3321.000000	65.231633  
3320.000000	65.215253  
3319.000000	65.197110  
3318.000000	65.178275  
3317.000000	65.160202  
3316.000000	65.144348  
3315.000000	65.132141  
3314.000000	65.124583  
3313.000000	65.122032  
3312.000000	65.124082  
3311.000000	65.129590  
3310.000000	65.136909  
3309.000000	65.144228  
3308.000000	65.149784  
3307.000000	65.152335  
3306.000000	65.151453  
3305.000000	65.147495  
3304.000000	65.141463  
3303.000000	65.134716  
3302.000000	65.128374  
3301.000000	65.123271  
3300.000000	65.119481  
3299.000000	65.116620  
3298.000000	65.114092  
3297.000000	65.111517  
3296.000000	65.108966  
3295.000000	65.107250  
3294.000000	65.107727  
3293.000000	65.112018  
3292.000000	65.121579  
3291.000000	65.137052  
3290.000000	65.158009  
3289.000000	65.182876  
3288.000000	65.209102  
3287.000000	65.233612  
3286.000000	65.253400  
3285.000000	65.266275  
3284.000000	65.271186  
3283.000000	65.268468  
3282.000000	65.259695  
3281.000000	65.247321  
3280.000000	65.234041  
3279.000000	65.222334  
3278.000000	65.213871  
3277.000000	65.209436  
3276.000000	65.208601  
3275.000000	65.210342  
3274.000000	65.213251  
3273.000000	65.215921  
3272.000000	65.217614  
3271.000000	65.218114  
3270.000000	65.218281  
3269.000000	65.219354  
3268.000000	65.222883  
3267.000000	65.229964  
3266.000000	65.240836  
3265.000000	65.254855  
3264.000000	65.270233  
3263.000000	65.284609  
3262.000000	65.295362  
3261.000000	65.300250  
3260.000000	65.297913  
3259.000000	65.288019  
3258.000000	65.271592  
3257.000000	65.250611  
3256.000000	65.227651  
3255.000000	65.205311  
3254.000000	65.185832  
3253.000000	65.170526  
3252.000000	65.159726  
3251.000000	65.152788  
3250.000000	65.148401  
3249.000000	65.145111  
3248.000000	65.141630  
3247.000000	65.137434  
3246.000000	65.132665  
3245.000000	65.128159  
3244.000000	65.125203  
3243.000000	65.124845  
3242.000000	65.127563  
3241.000000	65.133070  
3240.000000	65.140199  
3239.000000	65.147185  
3238.000000	65.152001  
3237.000000	65.153312  
3236.000000	65.150499  
3235.000000	65.144491  
3234.000000	65.137028  
3233.000000	65.130877  
3232.000000	65.128874  
3231.000000	65.133333  
3230.000000	65.145349  
3229.000000	65.164494  
3228.000000	65.188813  
3227.000000	65.215420  
3226.000000	65.240979  
3225.000000	65.262246  
3224.000000	65.276575  
3223.000000	65.282654  
3222.000000	65.280413  
3221.000000	65.270781  
3220.000000	65.255522  
3219.000000	65.236783  
3218.000000	65.216732  
3217.000000	65.197396  
3216.000000	65.180253  
3215.000000	65.166521  
3214.000000	65.156841  
3213.000000	65.151429  
3212.000000	65.149950  
3211.000000	65.151715  
3210.000000	65.155529  
3209.000000	65.159606  
3208.000000	65.162014  
3207.000000	65.160870  
3206.000000	65.154719  
3205.000000	65.142989  
3204.000000	65.126299  
3203.000000	65.106439  
3202.000000	65.086412  
3201.000000	65.069770  
3200.000000	65.060162  
3199.000000	65.060353  
3198.000000	65.071845  
3197.000000	65.094327  
3196.000000	65.125632  
3195.000000	65.162038  
3194.000000	65.198993  
3193.000000	65.232014  
3192.000000	65.257239  
3191.000000	65.272474  
3190.000000	65.277218  
3189.000000	65.273094  
3188.000000	65.263009  
3187.000000	65.250921  
3186.000000	65.240883  
3185.000000	65.236115  
3184.000000	65.238881  
3183.000000	65.249657  
3182.000000	65.267491  
3181.000000	65.289902  
3180.000000	65.313863  
3179.000000	65.335679  
3178.000000	65.352129  
3177.000000	65.360379  
3176.000000	65.358829  
3175.000000	65.346932  
3174.000000	65.325236  
3173.000000	65.295267  
3172.000000	65.259528  
3171.000000	65.221023  
3170.000000	65.182995  
3169.000000	65.148568  
3168.000000	65.120387  
3167.000000	65.100383  
3166.000000	65.089321  
3165.000000	65.086793  
3164.000000	65.091347  
3163.000000	65.100622  
3162.000000	65.111947  
3161.000000	65.122342  
3160.000000	65.129637  
3159.000000	65.132403  
3158.000000	65.130543  
3157.000000	65.124964  
3156.000000	65.117526  
3155.000000	65.110445  
3154.000000	65.106010  
3153.000000	65.106010  
3152.000000	65.111565  
3151.000000	65.122914  
3150.000000	65.139269  
3149.000000	65.159273  
3148.000000	65.180921  
3147.000000	65.202045  
3146.000000	65.220451  
3145.000000	65.234279  
3144.000000	65.242028  
3143.000000	65.243077  
3142.000000	65.237545  
3141.000000	65.226483  
3140.000000	65.211582  
3139.000000	65.194773  
3138.000000	65.178227  
3137.000000	65.163850  
3136.000000	65.152835  
3135.000000	65.145754  
3134.000000	65.142393  
3133.000000	65.142273  
3132.000000	65.144824  
3131.000000	65.149760  
3130.000000	65.157032  
3129.000000	65.166974  
3128.000000	65.179729  
3127.000000	65.195417  
3126.000000	65.213394  
3125.000000	65.232491  
3124.000000	65.250921  
3123.000000	65.266728  
3122.000000	65.278148  
3121.000000	65.284037  
3120.000000	65.284132  
3119.000000	65.279054  
3118.000000	65.270256  
3117.000000	65.259695  
3116.000000	65.249633  
3115.000000	65.241956  
3114.000000	65.237975  
3113.000000	65.238261  
3112.000000	65.242385  
3111.000000	65.249252  
3110.000000	65.257000  
3109.000000	65.263628  
3108.000000	65.267014  
3107.000000	65.265583  
3106.000000	65.258502  
3105.000000	65.245795  
3104.000000	65.228796  
3103.000000	65.209436  
3102.000000	65.190529  
3101.000000	65.174961  
3100.000000	65.165185  
3099.000000	65.162634  
3098.000000	65.167498  
3097.000000	65.178632  
3096.000000	65.193748  
3095.000000	65.210008  
3094.000000	65.224671  
3093.000000	65.235543  
3092.000000	65.241670  
3091.000000	65.243101  
3090.000000	65.240883  
3089.000000	65.236735  
3088.000000	65.232229  
3087.000000	65.228295  
3086.000000	65.225028  
3085.000000	65.221643  
3084.000000	65.216779  
3083.000000	65.209197  
3082.000000	65.198040  
3081.000000	65.183281  
3080.000000	65.166020  
3079.000000	65.148091  
3078.000000	65.131425  
3077.000000	65.117835  
3076.000000	65.108346  
3075.000000	65.103387  
3074.000000	65.102529  
3073.000000	65.105223  
3072.000000	65.110802  
3071.000000	65.119004  
3070.000000	65.129590  
3069.000000	65.142536  
3068.000000	65.157437  
3067.000000	65.173292  
3066.000000	65.188264  
3065.000000	65.199971  
3064.000000	65.205788  
3063.000000	65.203571  
3062.000000	65.192341  
3061.000000	65.172696  
3060.000000	65.146923  
3059.000000	65.118527  
3058.000000	65.091872  
3057.000000	65.071058  
3056.000000	65.059185  
3055.000000	65.057826  
3054.000000	65.066933  
3053.000000	65.084838  
3052.000000	65.108776  
3051.000000	65.135407  
3050.000000	65.161418  
3049.000000	65.184044  
3048.000000	65.201640  
3047.000000	65.213441  
3046.000000	65.219783  
3045.000000	65.221762  
3044.000000	65.220665  
3043.000000	65.217852  
3042.000000	65.214395  
3041.000000	65.211153  
3040.000000	65.208530  
3039.000000	65.206670  
3038.000000	65.205478  
3037.000000	65.204811  
3036.000000	65.204286  
3035.000000	65.203475  
3034.000000	65.201687  
3033.000000	65.198302  
3032.000000	65.192627  
3031.000000	65.184330  
3030.000000	65.173530  
3029.000000	65.160799  
3028.000000	65.147352  
3027.000000	65.134906  
3026.000000	65.125226  
3025.000000	65.119886  
3024.000000	65.119862  
3023.000000	65.125107  
3022.000000	65.134429  
3021.000000	65.146064  
3020.000000	65.158081  
3019.000000	65.168666  
3018.000000	65.176606  
3017.000000	65.181517  
3016.000000	65.184044  
3015.000000	65.185427  
3014.000000	65.187144  
3013.000000	65.190505  
3012.000000	65.196228  
3011.000000	65.204310  
3010.000000	65.214037  
3009.000000	65.224266  
3008.000000	65.233492  
3007.000000	65.240406  
3006.000000	65.243911  
3005.000000	65.243434  
3004.000000	65.238714  
3003.000000	65.230035  
3002.000000	65.217900  
3001.000000	65.203142  
3000.000000	65.186715  
2999.000000	65.169668  
2998.000000	65.152764  
2997.000000	65.136671  
2996.000000	65.121603  
2995.000000	65.107512  
2994.000000	65.094089  
2993.000000	65.080809  
2992.000000	65.067338  
2991.000000	65.053629  
2990.000000	65.040087  
2989.000000	65.027499  
2988.000000	65.016961  
2987.000000	65.009450  
2986.000000	65.005612  
2985.000000	65.005612  
2984.000000	65.008854  
2983.000000	65.014171  
2982.000000	65.020012  
2981.000000	65.024757  
2980.000000	65.027070  
2979.000000	65.026116  
2978.000000	65.021276  
2977.000000	65.012598  
2976.000000	65.000200  
2975.000000	64.984416  
2974.000000	64.965820  
2973.000000	64.945054  
2972.000000	64.923191  
2971.000000	64.901542  
2970.000000	64.881730  
2969.000000	64.865517  
2968.000000	64.854359  
2967.000000	64.849567  
2966.000000	64.851689  
2965.000000	64.860463  
2964.000000	64.874720  
2963.000000	64.892649  
2962.000000	64.911794  
2961.000000	64.929842  
2960.000000	64.944791  
2959.000000	64.955329  
2958.000000	64.961028  
2957.000000	64.962339  
2956.000000	64.960575  
2955.000000	64.957499  
2954.000000	64.954948  
2953.000000	64.954590  
2952.000000	64.957451  
2951.000000	64.963936  
2950.000000	64.973640  
2949.000000	64.985704  
2948.000000	64.998912  
2947.000000	65.012001  
2946.000000	65.023803  
2945.000000	65.033602  
2944.000000	65.040636  
2943.000000	65.044283  
2942.000000	65.043807  
2941.000000	65.038561  
2940.000000	65.028047  
2939.000000	65.011906  
2938.000000	64.990401  
2937.000000	64.964628  
2936.000000	64.936375  
2935.000000	64.908075  
2934.000000	64.882206  
2933.000000	64.861035  
2932.000000	64.845824  
2931.000000	64.836621  
2930.000000	64.832162  
2929.000000	64.830112  
2928.000000	64.827656  
2927.000000	64.822626  
2926.000000	64.813470  
2925.000000	64.800143  
2924.000000	64.783644  
2923.000000	64.766263  
2922.000000	64.750623  
2921.000000	64.739441  
2920.000000	64.735007  
2919.000000	64.738845  
2918.000000	64.751505  
2917.000000	64.772439  
2916.000000	64.800286  
2915.000000	64.832901  
2914.000000	64.867568  
2913.000000	64.901518  
2912.000000	64.932131  
2911.000000	64.957356  
2910.000000	64.976048  
2909.000000	64.987993  
2908.000000	64.993786  
2907.000000	64.994812  
2906.000000	64.992928  
2905.000000	64.989805  
2904.000000	64.986538  
2903.000000	64.983773  
2902.000000	64.981675  
2901.000000	64.980101  
2900.000000	64.978885  
2899.000000	64.978194  
2898.000000	64.978575  
2897.000000	64.980864  
2896.000000	64.985847  
2895.000000	64.993858  
2894.000000	65.004801  
2893.000000	65.018010  
2892.000000	65.032505  
2891.000000	65.047121  
2890.000000	65.060853  
2889.000000	65.072989  
2888.000000	65.083074  
2887.000000	65.091085  
2886.000000	65.097117  
2885.000000	65.101361  
2884.000000	65.103888  
2883.000000	65.104651  
2882.000000	65.103602  
2881.000000	65.100955  
2880.000000	65.097022  
2879.000000	65.092444  
2878.000000	65.088033  
2877.000000	65.084505  
2876.000000	65.082287  
2875.000000	65.081381  
2874.000000	65.081334  
2873.000000	65.081286  
2872.000000	65.080213  
2871.000000	65.076947  
2870.000000	65.070462  
2869.000000	65.060067  
2868.000000	65.045547  
2867.000000	65.027379  
2866.000000	65.006709  
2865.000000	64.985537  
2864.000000	64.966225  
2863.000000	64.951252  
2862.000000	64.942789  
2861.000000	64.942026  
2860.000000	64.949107  
2859.000000	64.962935  
2858.000000	64.981603  
2857.000000	65.002775  
2856.000000	65.023946  
2855.000000	65.043377  
2854.000000	65.060234  
2853.000000	65.074586  
2852.000000	65.087175  
2851.000000	65.098953  
2850.000000	65.110540  
2849.000000	65.121817  
2848.000000	65.131950  
2847.000000	65.139436  
2846.000000	65.142655  
2845.000000	65.140604  
2844.000000	65.133190  
2843.000000	65.121531  
2842.000000	65.107655  
2841.000000	65.094470  
2840.000000	65.084934  
2839.000000	65.081501  
2838.000000	65.085625  
2837.000000	65.097355  
2836.000000	65.115547  
2835.000000	65.137767  
2834.000000	65.160942  
2833.000000	65.181851  
2832.000000	65.197825  
2831.000000	65.207171  
2830.000000	65.209293  
2829.000000	65.204834  
2828.000000	65.195250  
2827.000000	65.182542  
2826.000000	65.168762  
2825.000000	65.155601  
2824.000000	65.144276  
2823.000000	65.135407  
2822.000000	65.129160  
2821.000000	65.125560  
2820.000000	65.124654  
2819.000000	65.126895  
2818.000000	65.132975  
2817.000000	65.143537  
2816.000000	65.159344  
2815.000000	65.180587  
2814.000000	65.206718  
2813.000000	65.236353  
2812.000000	65.267395  
2811.000000	65.297126  
2810.000000	65.322875  
2809.000000	65.342283  
2808.000000	65.353488  
2807.000000	65.355753  
2806.000000	65.349221  
2805.000000	65.335416  
2804.000000	65.316581  
2803.000000	65.295553  
2802.000000	65.275216  
2801.000000	65.258097  
2800.000000	65.246105  
2799.000000	65.240073  
2798.000000	65.239787  
2797.000000	65.244126  
2796.000000	65.251541  
2795.000000	65.260457  
2794.000000	65.269422  
2793.000000	65.277624  
2792.000000	65.284609  
2791.000000	65.290427  
2790.000000	65.295481  
2789.000000	65.299963  
2788.000000	65.303826  
2787.000000	65.306687  
2786.000000	65.307927  
2785.000000	65.307164  
2784.000000	65.304255  
2783.000000	65.299630  
2782.000000	65.293931  
2781.000000	65.288257  
2780.000000	65.283513  
2779.000000	65.280270  
2778.000000	65.278172  
2777.000000	65.276455  
2776.000000	65.273785  
2775.000000	65.268683  
2774.000000	65.260195  
2773.000000	65.247821  
2772.000000	65.232229  
2771.000000	65.214896  
2770.000000	65.198159  
2769.000000	65.184617  
2768.000000	65.176677  
2767.000000	65.176343  
2766.000000	65.184569  
2765.000000	65.201330  
2764.000000	65.225315  
2763.000000	65.254330  
2762.000000	65.285348  
2761.000000	65.315055  
2760.000000	65.340089  
2759.000000	65.357565  
2758.000000	65.365576  
2757.000000	65.363407  
2756.000000	65.351748  
2755.000000	65.332579  
2754.000000	65.308952  
2753.000000	65.284419  
2752.000000	65.262556  
2751.000000	65.245938  
2750.000000	65.236043  
2749.000000	65.232920  
2748.000000	65.235280  
2747.000000	65.241098  
2746.000000	65.248036  
2745.000000	65.254211  
2744.000000	65.258598  
2743.000000	65.261077  
2742.000000	65.262460  
2741.000000	65.263748  
2740.000000	65.265965  
2739.000000	65.269565  
2738.000000	65.274024  
2737.000000	65.278267  
2736.000000	65.280628  
2735.000000	65.279531  
2734.000000	65.273857  
2733.000000	65.263223  
2732.000000	65.248179  
2731.000000	65.230035  
2730.000000	65.210652  
2729.000000	65.191793  
2728.000000	65.175032  
2727.000000	65.161514  
2726.000000	65.151762  
2725.000000	65.145897  
2724.000000	65.143680  
2723.000000	65.144610  
2722.000000	65.148162  
2721.000000	65.153861  
2720.000000	65.161204  
2719.000000	65.169668  
2718.000000	65.178966  
2717.000000	65.188717  
2716.000000	65.198779  
2715.000000	65.209174  
2714.000000	65.220046  
2713.000000	65.231657  
2712.000000	65.244078  
2711.000000	65.257287  
2710.000000	65.270996  
2709.000000	65.284585  
2708.000000	65.297269  
2707.000000	65.308094  
2706.000000	65.316271  
2705.000000	65.321159  
2704.000000	65.322422  
2703.000000	65.319919  
2702.000000	65.313959  
2701.000000	65.304827  
2700.000000	65.293145  
2699.000000	65.279650  
2698.000000	65.265488  
2697.000000	65.251898  
2696.000000	65.240120  
2695.000000	65.231251  
2694.000000	65.226197  
2693.000000	65.225195  
2692.000000	65.227746  
2691.000000	65.232586  
2690.000000	65.237808  
2689.000000	65.241432  
2688.000000	65.241789  
2687.000000	65.237975  
2686.000000	65.230035  
2685.000000	65.219235  
2684.000000	65.207695  
2683.000000	65.197920  
2682.000000	65.192127  
2681.000000	65.191793  
2680.000000	65.197253  
2679.000000	65.207552  
2678.000000	65.220761  
2677.000000	65.234589  
2676.000000	65.246796  
2675.000000	65.255761  
2674.000000	65.260887  
2673.000000	65.262532  
2672.000000	65.261912  
2671.000000	65.260577  
2670.000000	65.260219  
2669.000000	65.261960  
2668.000000	65.266370  
2667.000000	65.273427  
2666.000000	65.282344  
2665.000000	65.291762  
2664.000000	65.300130  
2663.000000	65.306091  
2662.000000	65.308547  
2661.000000	65.307068  
2660.000000	65.301918  
2659.000000	65.294027  
2658.000000	65.284943  
2657.000000	65.276265  
2656.000000	65.269446  
2655.000000	65.265536  
2654.000000	65.264749  
2653.000000	65.266442  
2652.000000	65.269351  
2651.000000	65.271687  
2650.000000	65.271902  
2649.000000	65.268778  
2648.000000	65.261864  
2647.000000	65.251731  
2646.000000	65.239667  
2645.000000	65.227627  
2644.000000	65.217542  
2643.000000	65.211176  
2642.000000	65.209770  
2641.000000	65.213847  
2640.000000	65.223360  
2639.000000	65.237617  
2638.000000	65.255641  
2637.000000	65.276288  
2636.000000	65.298509  
2635.000000	65.321159  
2634.000000	65.343165  
2633.000000	65.363550  
2632.000000	65.381479  
2631.000000	65.396428  
2630.000000	65.407848  
2629.000000	65.415811  
2628.000000	65.420579  
2627.000000	65.422654  
2626.000000	65.422296  
2625.000000	65.419697  
2624.000000	65.414762  
2623.000000	65.407037  
2622.000000	65.395903  
2621.000000	65.381002  
2620.000000	65.362358  
2619.000000	65.340781  
2618.000000	65.317702  
2617.000000	65.295171  
2616.000000	65.275263  
2615.000000	65.259838  
2614.000000	65.250039  
2613.000000	65.246033  
2612.000000	65.247368  
2611.000000	65.252804  
2610.000000	65.261101  
2609.000000	65.271091  
2608.000000	65.282011  
2607.000000	65.293622  
2606.000000	65.305781  
2605.000000	65.318369  
2604.000000	65.330958  
2603.000000	65.342926  
2602.000000	65.353393  
2601.000000	65.361499  
2600.000000	65.366768  
2599.000000	65.369153  
2598.000000	65.369319  
2597.000000	65.368270  
2596.000000	65.366864  
2595.000000	65.365815  
2594.000000	65.364980  
2593.000000	65.363931  
2592.000000	65.361714  
2591.000000	65.357565  
2590.000000	65.351319  
2589.000000	65.343499  
2588.000000	65.335464  
2587.000000	65.328955  
2586.000000	65.325641  
2585.000000	65.326452  
2584.000000	65.331172  
2583.000000	65.338468  
2582.000000	65.346026  
2581.000000	65.351581  
2580.000000	65.353298  
2579.000000	65.350604  
2578.000000	65.344238  
2577.000000	65.336251  
2576.000000	65.329384  
2575.000000	65.326070  
2574.000000	65.328025  
2573.000000	65.335559  
2572.000000	65.347647  
2571.000000	65.362429  
2570.000000	65.377545  
2569.000000	65.391063  
2568.000000	65.401554  
2567.000000	65.408635  
2566.000000	65.412640  
2565.000000	65.414285  
2564.000000	65.414237  
2563.000000	65.412712  
2562.000000	65.409302  
2561.000000	65.403079  
2560.000000	65.392875  
2559.000000	65.378046  
2558.000000	65.358495  
2557.000000	65.335226  
2556.000000	65.310096  
2555.000000	65.285444  
2554.000000	65.263366  
2553.000000	65.245532  
2552.000000	65.232419  
2551.000000	65.223503  
2550.000000	65.217614  
2549.000000	65.213370  
2548.000000	65.209555  
2547.000000	65.205931  
2546.000000	65.202927  
2545.000000	65.201759  
2544.000000	65.203928  
2543.000000	65.210628  
2542.000000	65.222454  
2541.000000	65.238904  
2540.000000	65.258622  
2539.000000	65.279579  
2538.000000	65.299439  
2537.000000	65.315937  
2536.000000	65.327572  
2535.000000	65.333652  
2534.000000	65.334630  
2533.000000	65.331816  
2532.000000	65.327072  
2531.000000	65.322232  
2530.000000	65.318584  
2529.000000	65.316605  
2528.000000	65.316033  
2527.000000	65.315866  
2526.000000	65.315008  
2525.000000	65.312433  
2524.000000	65.307664  
2523.000000	65.300703  
2522.000000	65.292000  
2521.000000	65.282392  
2520.000000	65.272855  
2519.000000	65.264368  
2518.000000	65.257883  
2517.000000	65.254044  
2516.000000	65.253376  
2515.000000	65.256214  
2514.000000	65.262579  
2513.000000	65.272140  
2512.000000	65.284204  
2511.000000	65.297627  
2510.000000	65.311050  
2509.000000	65.322923  
2508.000000	65.332007  
2507.000000	65.337443  
2506.000000	65.339064  
2505.000000	65.337252  
2504.000000	65.332889  
2503.000000	65.327048  
2502.000000	65.320801  
2501.000000	65.315008  
2500.000000	65.310263  
2499.000000	65.306949  
2498.000000	65.305376  
2497.000000	65.305924  
2496.000000	65.308594  
2495.000000	65.313220  
2494.000000	65.319156  
2493.000000	65.325379  
2492.000000	65.330553  
2491.000000	65.333437  
2490.000000	65.332913  
2489.000000	65.328574  
2488.000000	65.320611  
2487.000000	65.310192  
2486.000000	65.298986  
2485.000000	65.288925  
2484.000000	65.281844  
2483.000000	65.279030  
2482.000000	65.280890  
2481.000000	65.286898  
2480.000000	65.296030  
2479.000000	65.306568  
2478.000000	65.316843  
2477.000000	65.325355  
2476.000000	65.331029  
2475.000000	65.333580  
2474.000000	65.333318  
2473.000000	65.331244  
2472.000000	65.328645  
2471.000000	65.327048  
2470.000000	65.327596  
2469.000000	65.330886  
2468.000000	65.336704  
2467.000000	65.343952  
2466.000000	65.350961  
2465.000000	65.356016  
2464.000000	65.357804  
2463.000000	65.355610  
2462.000000	65.349626  
2461.000000	65.340733  
2460.000000	65.330266  
2459.000000	65.319490  
2458.000000	65.309214  
2457.000000	65.299630  
2456.000000	65.290498  
2455.000000	65.281128  
2454.000000	65.271210  
2453.000000	65.260839  
2452.000000	65.251111  
2451.000000	65.243816  
2450.000000	65.241098  
2449.000000	65.244913  
2448.000000	65.256381  
2447.000000	65.275287  
2446.000000	65.300202  
2445.000000	65.328526  
2444.000000	65.357184  
2443.000000	65.383052  
2442.000000	65.403509  
2441.000000	65.416979  
2440.000000	65.422773  
2439.000000	65.421247  
2438.000000	65.413355  
2437.000000	65.400624  
2436.000000	65.384840  
2435.000000	65.367889  
2434.000000	65.351843  
2433.000000	65.338563  
2432.000000	65.330004  
2431.000000	65.327668  
2430.000000	65.332484  
2429.000000	65.344405  
2428.000000	65.362429  
2427.000000	65.384364  
2426.000000	65.407395  
2425.000000	65.428328  
2424.000000	65.444350  
2423.000000	65.453457  
2422.000000	65.454792  
2421.000000	65.448904  
2420.000000	65.437388  
2419.000000	65.422487  
2418.000000	65.406703  
2417.000000	65.392184  
2416.000000	65.380120  
2415.000000	65.370941  
2414.000000	65.364241  
2413.000000	65.359115  
2412.000000	65.354704  
2411.000000	65.350389  
2410.000000	65.346240  
2409.000000	65.342879  
2408.000000	65.341448  
2407.000000	65.342950  
2406.000000	65.348076  
2405.000000	65.356755  
2404.000000	65.367984  
2403.000000	65.379619  
2402.000000	65.388965  
2401.000000	65.393447  
2400.000000	65.390968  
2399.000000	65.380692  
2398.000000	65.363335  
2397.000000	65.340995  
2396.000000	65.316677  
2395.000000	65.293741  
2394.000000	65.274882  
2393.000000	65.261673  
2392.000000	65.254259  
2391.000000	65.251374  
2390.000000	65.250754  
2389.000000	65.249943  
2388.000000	65.247058  
2387.000000	65.241336  
2386.000000	65.233302  
2385.000000	65.224766  
2384.000000	65.218138  
2383.000000	65.215849  
2382.000000	65.219736  
2381.000000	65.230631  
2380.000000	65.248155  
2379.000000	65.270853  
2378.000000	65.296745  
2377.000000	65.323567  
2376.000000	65.348982  
2375.000000	65.371060  
2374.000000	65.388393  
2373.000000	65.399932  
2372.000000	65.405106  
2371.000000	65.403842  
2370.000000	65.396547  
2369.000000	65.383958  
2368.000000	65.367341  
2367.000000	65.348172  
2366.000000	65.328288  
2365.000000	65.309429  
2364.000000	65.293073  
2363.000000	65.280270  
2362.000000	65.271592  
2361.000000	65.267038  
2360.000000	65.266299  
2359.000000	65.268635  
2358.000000	65.273213  
2357.000000	65.279173  
2356.000000	65.285825  
2355.000000	65.292453  
2354.000000	65.298509  
2353.000000	65.303540  
2352.000000	65.307450  
2351.000000	65.310287  
2350.000000	65.312314  
2349.000000	65.314006  
2348.000000	65.315961  
2347.000000	65.318775  
2346.000000	65.322995  
2345.000000	65.329027  
2344.000000	65.336918  
2343.000000	65.346479  
2342.000000	65.357255  
2341.000000	65.368700  
2340.000000	65.380048  
2339.000000	65.390658  
2338.000000	65.399718  
2337.000000	65.406441  
2336.000000	65.410113  
2335.000000	65.410161  
2334.000000	65.406179  
2333.000000	65.397977  
2332.000000	65.385890  
2331.000000	65.370941  
2330.000000	65.354490  
2329.000000	65.338230  
2328.000000	65.324044  
2327.000000	65.313482  
2326.000000	65.307641  
2325.000000	65.306949  
2324.000000	65.311002  
2323.000000	65.318679  
2322.000000	65.328550  
2321.000000	65.339064  
2320.000000	65.348768  
2319.000000	65.356612  
2318.000000	65.362024  
2317.000000	65.364980  
2316.000000	65.365743  
2315.000000	65.364909  
2314.000000	65.363192  
2313.000000	65.361261  
2312.000000	65.359783  
2311.000000	65.359306  
2310.000000	65.360355  
2309.000000	65.363192  
2308.000000	65.367889  
2307.000000	65.374302  
2306.000000	65.382099  
2305.000000	65.390586  
2304.000000	65.399074  
2303.000000	65.406751  
2302.000000	65.412998  
2301.000000	65.417551  
2300.000000	65.420174  
2299.000000	65.420937  
2298.000000	65.419864  
2297.000000	65.417122  
2296.000000	65.412759  
2295.000000	65.406918  
2294.000000	65.399813  
2293.000000	65.391850  
2292.000000	65.383768  
2291.000000	65.376400  
2290.000000	65.370678  
2289.000000	65.367341  
2288.000000	65.366697  
2287.000000	65.368580  
2286.000000	65.372157  
2285.000000	65.376210  
2284.000000	65.379214  
2283.000000	65.379810  
2282.000000	65.376996  
2281.000000	65.370392  
2280.000000	65.360283  
2279.000000	65.347671  
2278.000000	65.333771  
2277.000000	65.320038  
2276.000000	65.307760  
2275.000000	65.298056  
2274.000000	65.291571  
2273.000000	65.288543  
2272.000000	65.289020  
2271.000000	65.292763  
2270.000000	65.299344  
2269.000000	65.308260  
2268.000000	65.318799  
2267.000000	65.330219  
2266.000000	65.341520  
2265.000000	65.351867  
2264.000000	65.360403  
2263.000000	65.366530  
2262.000000	65.370130  
2261.000000	65.371441  
2260.000000	65.371227  
2259.000000	65.370583  
2258.000000	65.370607  
2257.000000	65.372252  
2256.000000	65.376067  
2255.000000	65.381956  
2254.000000	65.389251  
2253.000000	65.397143  
2252.000000	65.404701  
2251.000000	65.411233  
2250.000000	65.416336  
2249.000000	65.420079  
2248.000000	65.422797  
2247.000000	65.424990  
2246.000000	65.426826  
2245.000000	65.428233  
2244.000000	65.428614  
2243.000000	65.427255  
2242.000000	65.423393  
2241.000000	65.416646  
2240.000000	65.407133  
2239.000000	65.395593  
2238.000000	65.383315  
2237.000000	65.371870  
2236.000000	65.362787  
2235.000000	65.357112  
2234.000000	65.355348  
2233.000000	65.357160  
2232.000000	65.361690  
2231.000000	65.367698  
2230.000000	65.373706  
2229.000000	65.378355  
2228.000000	65.380477  
2227.000000	65.379333  
2226.000000	65.374684  
2225.000000	65.366673  
2224.000000	65.355682  
2223.000000	65.342640  
2222.000000	65.328526  
2221.000000	65.314674  
2220.000000	65.302395  
2219.000000	65.292668  
2218.000000	65.286087  
2217.000000	65.282726  
2216.000000	65.282034  
2215.000000	65.283060  
2214.000000	65.284609  
2213.000000	65.285778  
2212.000000	65.285801  
2211.000000	65.284824  
2210.000000	65.283417  
2209.000000	65.282869  
2208.000000	65.284371  
2207.000000	65.289187  
2206.000000	65.298056  
2205.000000	65.311169  
2204.000000	65.328001  
2203.000000	65.347480  
2202.000000	65.368080  
2201.000000	65.388083  
2200.000000	65.405964  
2199.000000	65.420484  
2198.000000	65.430927  
2197.000000	65.437078  
2196.000000	65.439200  
2195.000000	65.438079  
2194.000000	65.434813  
2193.000000	65.430808  
2192.000000	65.427017  
2191.000000	65.424513  
2190.000000	65.423440  
2189.000000	65.423703  
2188.000000	65.424489  
2187.000000	65.424919  
2186.000000	65.423846  
2185.000000	65.420627  
2184.000000	65.415024  
2183.000000	65.407276  
2182.000000	65.398097  
2181.000000	65.388822  
2180.000000	65.380573  
2179.000000	65.374302  
2178.000000	65.370416  
2177.000000	65.368819  
2176.000000	65.368914  
2175.000000	65.369725  
2174.000000	65.370225  
2173.000000	65.369367  
2172.000000	65.366363  
2171.000000	65.360665  
2170.000000	65.352082  
2169.000000	65.340638  
2168.000000	65.326738  
2167.000000	65.311098  
2166.000000	65.294504  
2165.000000	65.278029  
2164.000000	65.262675  
2163.000000	65.249633  
2162.000000	65.239787  
2161.000000	65.234017  
2160.000000	65.232992  
2159.000000	65.237569  
2158.000000	65.248250  
2157.000000	65.265464  
2156.000000	65.289402  
2155.000000	65.319633  
2154.000000	65.354967  
2153.000000	65.393233  
2152.000000	65.431451  
2151.000000	65.465927  
2150.000000	65.492987  
2149.000000	65.509510  
2148.000000	65.513730  
2147.000000	65.505671  
2146.000000	65.487217  
2145.000000	65.461611  
2144.000000	65.432953  
2143.000000	65.405154  
2142.000000	65.381288  
2141.000000	65.363049  
2140.000000	65.350556  
2139.000000	65.342760  
2138.000000	65.338015  
2137.000000	65.334463  
2136.000000	65.330910  
2135.000000	65.326809  
2134.000000	65.322732  
2133.000000	65.319585  
2132.000000	65.318465  
2131.000000	65.320062  
2130.000000	65.324401  
2129.000000	65.330743  
2128.000000	65.337753  
2127.000000	65.343761  
2126.000000	65.347218  
2125.000000	65.347027  
2124.000000	65.342640  
2123.000000	65.334296  
2122.000000	65.322852  
2121.000000	65.309691  
2120.000000	65.296387  
2119.000000	65.284347  
2118.000000	65.274691  
2117.000000	65.268182  
2116.000000	65.265107  
2115.000000	65.265297  
2114.000000	65.268301  
2113.000000	65.273451  
2112.000000	65.280127  
2111.000000	65.287756  
2110.000000	65.295720  
2109.000000	65.303397  
2108.000000	65.310406  
2107.000000	65.316367  
2106.000000	65.320897  
2105.000000	65.323853  
2104.000000	65.324950  
2103.000000	65.324282  
2102.000000	65.322089  
2101.000000	65.318822  
2100.000000	65.315151  
2099.000000	65.311741  
2098.000000	65.309262  
2097.000000	65.308356  
2096.000000	65.309453  
2095.000000	65.312886  
2094.000000	65.318751  
2093.000000	65.327024  
2092.000000	65.337538  
2091.000000	65.349698  
2090.000000	65.362620  
2089.000000	65.375161  
2088.000000	65.385961  
2087.000000	65.393757  
2086.000000	65.397405  
2085.000000	65.396595  
2084.000000	65.391612  
2083.000000	65.383362  
2082.000000	65.373253  
2081.000000	65.362882  
2080.000000	65.353655  
2079.000000	65.346288  
2078.000000	65.340900  
2077.000000	65.336894  
2076.000000	65.333175  
2075.000000	65.328288  
2074.000000	65.321135  
2073.000000	65.311145  
2072.000000	65.298676  
2071.000000	65.285015  
2070.000000	65.272140  
2069.000000	65.262031  
2068.000000	65.256333  
2067.000000	65.255737  
2066.000000	65.259838  
2065.000000	65.267229  
2064.000000	65.275979  
2063.000000	65.284252  
2062.000000	65.290784  
2061.000000	65.295195  
2060.000000	65.298008  
2059.000000	65.300416  
2058.000000	65.303778  
2057.000000	65.309143  
2056.000000	65.316987  
2055.000000	65.327191  
2054.000000	65.339112  
2053.000000	65.351819  
2052.000000	65.364408  
2051.000000	65.376210  
2050.000000	65.387010  
2049.000000	65.396761  
2048.000000	65.405488  
2047.000000	65.413117  
2046.000000	65.419268  
2045.000000	65.423393  
2044.000000	65.424919  
2043.000000	65.423464  
2042.000000	65.419197  
2041.000000	65.412688  
2040.000000	65.404939  
2039.000000	65.397095  
2038.000000	65.390276  
2037.000000	65.384960  
2036.000000	65.381073  
2035.000000	65.377855  
2034.000000	65.374279  
2033.000000	65.369272  
2032.000000	65.362191  
2031.000000	65.353012  
2030.000000	65.342378  
2029.000000	65.331602  
2028.000000	65.322303  
2027.000000	65.315842  
2026.000000	65.313053  
2025.000000	65.313911  
2024.000000	65.317463  
2023.000000	65.322065  
2022.000000	65.325927  
2021.000000	65.327239  
2020.000000	65.325045  
2019.000000	65.319275  
2018.000000	65.310883  
2017.000000	65.301704  
2016.000000	65.294003  
2015.000000	65.289974  
2014.000000	65.291380  
2013.000000	65.298986  
2012.000000	65.312361  
2011.000000	65.330028  
2010.000000	65.349721  
2009.000000	65.368771  
2008.000000	65.384721  
2007.000000	65.395569  
2006.000000	65.400338  
2005.000000	65.398836  
2004.000000	65.391874  
2003.000000	65.380859  
2002.000000	65.367412  
2001.000000	65.353083  
2000.000000	65.339207  
1999.000000	65.326833  
1998.000000	65.316724  
1997.000000	65.309500  
1996.000000	65.305614  
1995.000000	65.305590  
1994.000000	65.309691  
1993.000000	65.318036  
1992.000000	65.330243  
1991.000000	65.345549  
1990.000000	65.362596  
1989.000000	65.379810  
1988.000000	65.395569  
1987.000000	65.408396  
1986.000000	65.417361  
1985.000000	65.422105  
1984.000000	65.422868  
1983.000000	65.420293  
1982.000000	65.415239  
1981.000000	65.408492  
1980.000000	65.400695  
1979.000000	65.392827  
1978.000000	65.385866  
1977.000000	65.380954  
1976.000000	65.378975  
1975.000000	65.380740  
1974.000000	65.386438  
1973.000000	65.395355  
1972.000000	65.406179  
1971.000000	65.416979  
1970.000000	65.425634  
1969.000000	65.430450  
1968.000000	65.430474  
1967.000000	65.425658  
1966.000000	65.417218  
1965.000000	65.406990  
1964.000000	65.397334  
1963.000000	65.390634  
1962.000000	65.388774  
1961.000000	65.392804  
1960.000000	65.402746  
1959.000000	65.417480  
1958.000000	65.435028  
1957.000000	65.452623  
1956.000000	65.467309  
1955.000000	65.476298  
1954.000000	65.477204  
1953.000000	65.468668  
1952.000000	65.450406  
1951.000000	65.423583  
1950.000000	65.390586  
1949.000000	65.355062  
1948.000000	65.320944  
1947.000000	65.292215  
1946.000000	65.271997  
1945.000000	65.262246  
1944.000000	65.263342  
1943.000000	65.274143  
1942.000000	65.292096  
1941.000000	65.314006  
1940.000000	65.336513  
1939.000000	65.356659  
1938.000000	65.372371  
1937.000000	65.382742  
1936.000000	65.387868  
1935.000000	65.388679  
1934.000000	65.386366  
1933.000000	65.381956  
1932.000000	65.375900  
1931.000000	65.368294  
1930.000000	65.358853  
1929.000000	65.347313  
1928.000000	65.333819  
1927.000000	65.319108  
1926.000000	65.304684  
1925.000000	65.292477  
1924.000000	65.284395  
1923.000000	65.281796  
1922.000000	65.285110  
1921.000000	65.293717  
1920.000000	65.306019  
1919.000000	65.319776  
1918.000000	65.332722  
1917.000000	65.343070  
1916.000000	65.349912  
1915.000000	65.353322  
1914.000000	65.354418  
1913.000000	65.354800  
1912.000000	65.356159  
1911.000000	65.359616  
1910.000000	65.365672  
1909.000000	65.374064  
1908.000000	65.383887  
1907.000000	65.393924  
1906.000000	65.403056  
1905.000000	65.410733  
1904.000000	65.416979  
1903.000000	65.422344  
1902.000000	65.427947  
1901.000000	65.434718  
1900.000000	65.443420  
1899.000000	65.453958  
1898.000000	65.465497  
1897.000000	65.476274  
1896.000000	65.484237  
1895.000000	65.487551  
1894.000000	65.484881  
1893.000000	65.476036  
1892.000000	65.462088  
1891.000000	65.445160  
1890.000000	65.427970  
1889.000000	65.412902  
1888.000000	65.401744  
1887.000000	65.394878  
1886.000000	65.391659  
1885.000000	65.390205  
1884.000000	65.388250  
1883.000000	65.383839  
1882.000000	65.375852  
1881.000000	65.364360  
1880.000000	65.350699  
1879.000000	65.336775  
1878.000000	65.324831  
1877.000000	65.316343  
1876.000000	65.311861  
1875.000000	65.310859  
1874.000000	65.311908  
1873.000000	65.313291  
1872.000000	65.313386  
1871.000000	65.311503  
1870.000000	65.307831  
1869.000000	65.303468  
1868.000000	65.300083  
1867.000000	65.299248  
1866.000000	65.301966  
1865.000000	65.308094  
1864.000000	65.316748  
1863.000000	65.326118  
1862.000000	65.334367  
1861.000000	65.339827  
1860.000000	65.341734  
1859.000000	65.340280  
1858.000000	65.336775  
1857.000000	65.333080  
1856.000000	65.331506  
1855.000000	65.333843  
1854.000000	65.341258  
1853.000000	65.353846  
1852.000000	65.370655  
1851.000000	65.389871  
1850.000000	65.409183  
1849.000000	65.426230  
1848.000000	65.439033  
1847.000000	65.446543  
1846.000000	65.448594  
1845.000000	65.445995  
1844.000000	65.440273  
1843.000000	65.433168  
1842.000000	65.426421  
1841.000000	65.421104  
1840.000000	65.417695  
1839.000000	65.415716  
1838.000000	65.414309  
1837.000000	65.412259  
1836.000000	65.408587  
1835.000000	65.402865  
1834.000000	65.395450  
1833.000000	65.387439  
1832.000000	65.380334  
1831.000000	65.375661  
1830.000000	65.374445  
1829.000000	65.377187  
1828.000000	65.383744  
1827.000000	65.393304  
1826.000000	65.404486  
1825.000000	65.415954  
1824.000000	65.426445  
1823.000000	65.435051  
1822.000000	65.441250  
1821.000000	65.444850  
1820.000000	65.445971  
1819.000000	65.444803  
1818.000000	65.441465  
1817.000000	65.436124  
1816.000000	65.428829  
1815.000000	65.419793  
1814.000000	65.409469  
1813.000000	65.398550  
1812.000000	65.388059  
1811.000000	65.379261  
1810.000000	65.373468  
1809.000000	65.371799  
1808.000000	65.374636  
1807.000000	65.381979  
1806.000000	65.392875  
1805.000000	65.405678  
1804.000000	65.418100  
1803.000000	65.427803  
1802.000000	65.432786  
1801.000000	65.431594  
1800.000000	65.423870  
1799.000000	65.410327  
1798.000000	65.392684  
1797.000000	65.373134  
1796.000000	65.354132  
1795.000000	65.337753  
1794.000000	65.325450  
1793.000000	65.317893  
1792.000000	65.314888  
1791.000000	65.315532  
1790.000000	65.318751  
1789.000000	65.323472  
1788.000000	65.328884  
1787.000000	65.334677  
1786.000000	65.340852  
1785.000000	65.347719  
1784.000000	65.355587  
1783.000000	65.364503  
1782.000000	65.374112  
1781.000000	65.383934  
1780.000000	65.393090  
1779.000000	65.400838  
1778.000000	65.406680  
1777.000000	65.410614  
1776.000000	65.413093  
1775.000000	65.414786  
1774.000000	65.416455  
1773.000000	65.418648  
1772.000000	65.421342  
1771.000000	65.424156  
1770.000000	65.426206  
1769.000000	65.426468  
1768.000000	65.423941  
1767.000000	65.417909  
1766.000000	65.408301  
1765.000000	65.395641  
1764.000000	65.381097  
1763.000000	65.366339  
1762.000000	65.353178  
1761.000000	65.343236  
1760.000000	65.337800  
1759.000000	65.337276  
1758.000000	65.341210  
1757.000000	65.348315  
1756.000000	65.356469  
1755.000000	65.363216  
1754.000000	65.366268  
1753.000000	65.363907  
1752.000000	65.355372  
1751.000000	65.340948  
1750.000000	65.321898  
1749.000000	65.300416  
1748.000000	65.278720  
1747.000000	65.258741  
1746.000000	65.241503  
1745.000000	65.227150  
1744.000000	65.214776  
1743.000000	65.202808  
1742.000000	65.189504  
1741.000000	65.173506  
1740.000000	65.154170  
1739.000000	65.131735  
1738.000000	65.107250  
1737.000000	65.082383  
1736.000000	65.058875  
1735.000000	65.038251  
1734.000000	65.021395  
1733.000000	65.008568  
1732.000000	64.999341  
1731.000000	64.993190  
1730.000000	64.989423  
1729.000000	64.987850  
1728.000000	64.988589  
1727.000000	64.992380  
1726.000000	65.000247  
1725.000000	65.013408  
1724.000000	65.032935  
1723.000000	65.059423  
1722.000000	65.092706  
1721.000000	65.131688  
1720.000000	65.174460  
1719.000000	65.218496  
1718.000000	65.261077  
1717.000000	65.299677  
1716.000000	65.332221  
1715.000000	65.357589  
1714.000000	65.375685  
1713.000000	65.387034  
1712.000000	65.392398  
1711.000000	65.392756  
1710.000000	65.388751  
1709.000000	65.380692  
1708.000000	65.368556  
1707.000000	65.352463  
1706.000000	65.333056  
1705.000000	65.311527  
1704.000000	65.289735  
1703.000000	65.270256  
1702.000000	65.255451  
1701.000000	65.247082  
1700.000000	65.245890  
1699.000000	65.250945  
1698.000000	65.260314  
1697.000000	65.271043  
1696.000000	65.280270  
1695.000000	65.285634  
1694.000000	65.286159  
1693.000000	65.282177  
1692.000000	65.275478  
1691.000000	65.268397  
1690.000000	65.263390  
1689.000000	65.262293  
1688.000000	65.265750  
1687.000000	65.272974  
1686.000000	65.282177  
1685.000000	65.290927  
1684.000000	65.296888  
1683.000000	65.298199  
1682.000000	65.294098  
1681.000000	65.285134  
1680.000000	65.272688  
1679.000000	65.258598  
1678.000000	65.244841  
1677.000000	65.232992  
1676.000000	65.223979  
1675.000000	65.217900  
1674.000000	65.213990  
1673.000000	65.211272  
1672.000000	65.208697  
1671.000000	65.205621  
1670.000000	65.201830  
1669.000000	65.197825  
1668.000000	65.194630  
1667.000000	65.193414  
1666.000000	65.195131  
1665.000000	65.200233  
1664.000000	65.208435  
1663.000000	65.218853  
1662.000000	65.230035  
1661.000000	65.240406  
1660.000000	65.248465  
1659.000000	65.253067  
1658.000000	65.253520  
1657.000000	65.249705  
1656.000000	65.241980  
1655.000000	65.231084  
1654.000000	65.217924  
1653.000000	65.203380  
1652.000000	65.188360  
1651.000000	65.173864  
1650.000000	65.160822  
1649.000000	65.150284  
1648.000000	65.143251  
1647.000000	65.140509  
1646.000000	65.142703  
1645.000000	65.149974  
1644.000000	65.162110  
1643.000000	65.178084  
1642.000000	65.196537  
1641.000000	65.215706  
1640.000000	65.233826  
1639.000000	65.249276  
1638.000000	65.260982  
1637.000000	65.268492  
1636.000000	65.272259  
1635.000000	65.273523  
1634.000000	65.274000  
1633.000000	65.275382  
1632.000000	65.279102  
1631.000000	65.285754  
1630.000000	65.294909  
1629.000000	65.305161  
1628.000000	65.314626  
1627.000000	65.321254  
1626.000000	65.323472  
1625.000000	65.320420  
1624.000000	65.312290  
1623.000000	65.300250  
1622.000000	65.286135  
1621.000000	65.272021  
1620.000000	65.259790  
1619.000000	65.250825  
1618.000000	65.245819  
1617.000000	65.244698  
1616.000000	65.247082  
1615.000000	65.252184  
1614.000000	65.259075  
1613.000000	65.266633  
1612.000000	65.273761  
1611.000000	65.279269  
1610.000000	65.281867  
1609.000000	65.280485  
1608.000000	65.274381  
1607.000000	65.263366  
1606.000000	65.247893  
1605.000000	65.229105  
1604.000000	65.208697  
1603.000000	65.188527  
1602.000000	65.170168  
1601.000000	65.155005  
1600.000000	65.143942  
1599.000000	65.137171  
1598.000000	65.134501  
1597.000000	65.135455  
1596.000000	65.139365  
1595.000000	65.145468  
1594.000000	65.152692  
1593.000000	65.159583  
1592.000000	65.164422  
1591.000000	65.165233  
1590.000000	65.160417  
1589.000000	65.148687  
1588.000000	65.130043  
1587.000000	65.105748  
1586.000000	65.078449  
1585.000000	65.051651  
1584.000000	65.029096  
1583.000000	65.013957  
1582.000000	65.007948  
1581.000000	65.010809  
1580.000000	65.020513  
1579.000000	65.033483  
1578.000000	65.045595  
1577.000000	65.053296  
1576.000000	65.054130  
1575.000000	65.047574  
1574.000000	65.034675  
1573.000000	65.018153  
1572.000000	65.001201  
1571.000000	64.987206  
1570.000000	64.979052  
1569.000000	64.978694  
1568.000000	64.987206  
1567.000000	65.004372  
1566.000000	65.029120  
1565.000000	65.059447  
1564.000000	65.092730  
1563.000000	65.125966  
1562.000000	65.156126  
1561.000000	65.180778  
1560.000000	65.198087  
1559.000000	65.207362  
1558.000000	65.209293  
1557.000000	65.205764  
1556.000000	65.199446  
1555.000000	65.193009  
1554.000000	65.188360  
1553.000000	65.186500  
1552.000000	65.187215  
1551.000000	65.189170  
1550.000000	65.190529  
1549.000000	65.189766  
1548.000000	65.185952  
1547.000000	65.179038  
1546.000000	65.169668  
1545.000000	65.158891  
1544.000000	65.147876  
1543.000000	65.137410  
1542.000000	65.127849  
1541.000000	65.118980  
1540.000000	65.110135  
1539.000000	65.100622  
1538.000000	65.089869  
1537.000000	65.077590  
1536.000000	65.064215  
1535.000000	65.050554  
1534.000000	65.037894  
1533.000000	65.027451  
1532.000000	65.020394  
1531.000000	65.017652  
1530.000000	65.019774  
1529.000000	65.026640  
1528.000000	65.037846  
1527.000000	65.052556  
1526.000000	65.069842  
1525.000000	65.088677  
1524.000000	65.108275  
1523.000000	65.128183  
1522.000000	65.148448  
1521.000000	65.169024  
1520.000000	65.189814  
1519.000000	65.210103  
1518.000000	65.228724  
1517.000000	65.243816  
1516.000000	65.253233  
1515.000000	65.254855  
1514.000000	65.247344  
1513.000000	65.230369  
1512.000000	65.204954  
1511.000000	65.173530  
1510.000000	65.139412  
1509.000000	65.106463  
1508.000000	65.078330  
1507.000000	65.057802  
1506.000000	65.046477  
1505.000000	65.044474  
1504.000000	65.050458  
1503.000000	65.062189  
1502.000000	65.076923  
1501.000000	65.091800  
1500.000000	65.104389  
1499.000000	65.113067  
1498.000000	65.117120  
1497.000000	65.117120  
1496.000000	65.114831  
1495.000000	65.112733  
1494.000000	65.113496  
1493.000000	65.119576  
1492.000000	65.132260  
1491.000000	65.151691  
1490.000000	65.176200  
1489.000000	65.203022  
1488.000000	65.228343  
1487.000000	65.248417  
1486.000000	65.260148  
1485.000000	65.261530  
1484.000000	65.252161  
1483.000000	65.233254  
1482.000000	65.207815  
1481.000000	65.179705  
1480.000000	65.153336  
1479.000000	65.132784  
1478.000000	65.120720  
1477.000000	65.118098  
1476.000000	65.123796  
1475.000000	65.135192  
1474.000000	65.148520  
1473.000000	65.159988  
1472.000000	65.166449  
1471.000000	65.166163  
1470.000000	65.159058  
1469.000000	65.146589  
1468.000000	65.131354  
1467.000000	65.116405  
1466.000000	65.104770  
1465.000000	65.099000  
1464.000000	65.100741  
1463.000000	65.110588  
1462.000000	65.128207  
1461.000000	65.152454  
1460.000000	65.181422  
1459.000000	65.212607  
1458.000000	65.243053  
1457.000000	65.269684  
1456.000000	65.289354  
1455.000000	65.299677  
1454.000000	65.299224  
1453.000000	65.287780  
1452.000000	65.266656  
1451.000000	65.238237  
1450.000000	65.205693  
1449.000000	65.172505  
1448.000000	65.142011  
1447.000000	65.117096  
1446.000000	65.099906  
1445.000000	65.091776  
1444.000000	65.093207  
1443.000000	65.103983  
1442.000000	65.123128  
1441.000000	65.148901  
1440.000000	65.178680  
1439.000000	65.209507  
1438.000000	65.238356  
1437.000000	65.262341  
1436.000000	65.279603  
1435.000000	65.289473  
1434.000000	65.292596  
1433.000000	65.290999  
1432.000000	65.287208  
1431.000000	65.284013  
1430.000000	65.283441  
1429.000000	65.286421  
1428.000000	65.292525  
1427.000000	65.300464  
1426.000000	65.308094  
1425.000000	65.313458  
1424.000000	65.314841  
1423.000000	65.311598  
1422.000000	65.303778  
1421.000000	65.292000  
1420.000000	65.277123  
1419.000000	65.259981  
1418.000000	65.241289  
1417.000000	65.221643  
1416.000000	65.201592  
1415.000000	65.181994  
1414.000000	65.164136  
1413.000000	65.149807  
1412.000000	65.140652  
1411.000000	65.138101  
1410.000000	65.142679  
1409.000000	65.153741  
1408.000000	65.169501  
1407.000000	65.187358  
1406.000000	65.204167  
1405.000000	65.217280  
1404.000000	65.225100  
1403.000000	65.227341  
1402.000000	65.224957  
1401.000000	65.219736  
1400.000000	65.213632  
1399.000000	65.208029  
1398.000000	65.203642  
1397.000000	65.199947  
1396.000000	65.195894  
1395.000000	65.190052  
1394.000000	65.181303  
1393.000000	65.169215  
1392.000000	65.154218  
1391.000000	65.137481  
1390.000000	65.120673  
1389.000000	65.105581  
1388.000000	65.094041  
1387.000000	65.087461  
1386.000000	65.086936  
1385.000000	65.093040  
1384.000000	65.105581  
1383.000000	65.123820  
1382.000000	65.146350  
1381.000000	65.171098  
1380.000000	65.195536  
1379.000000	65.216922  
1378.000000	65.232872  
1377.000000	65.241718  
1376.000000	65.243029  
1375.000000	65.237784  
1374.000000	65.228080  
1373.000000	65.217065  
1372.000000	65.207695  
1371.000000	65.202474  
1370.000000	65.202260  
1369.000000	65.206336  
1368.000000	65.212488  
1367.000000	65.217661  
1366.000000	65.218973  
1365.000000	65.214538  
1364.000000	65.204191  
1363.000000	65.189528  
1362.000000	65.173554  
1361.000000	65.159869  
1360.000000	65.151596  
1359.000000	65.150547  
1358.000000	65.156555  
1357.000000	65.167689  
1356.000000	65.180826  
1355.000000	65.192437  
1354.000000	65.199804  
1353.000000	65.201282  
1352.000000	65.196895  
1351.000000	65.187859  
1350.000000	65.176391  
1349.000000	65.164947  
1348.000000	65.155148  
1347.000000	65.148043  
1346.000000	65.144109  
1345.000000	65.143251  
1344.000000	65.145468  
1343.000000	65.150642  
1342.000000	65.158891  
1341.000000	65.170121  
1340.000000	65.183997  
1339.000000	65.199708  
1338.000000	65.215945  
1337.000000	65.231299  
1336.000000	65.244412  
1335.000000	65.254735  
1334.000000	65.262389  
1333.000000	65.268540  
1332.000000	65.274834  
1331.000000	65.283012  
1330.000000	65.294241  
1329.000000	65.308737  
1328.000000	65.325355  
1327.000000	65.341711  
1326.000000	65.354776  
1325.000000	65.361618  
1324.000000	65.360236  
1323.000000	65.350079  
1322.000000	65.332150  
1321.000000	65.308928  
1320.000000	65.283799  
1319.000000	65.260243  
1318.000000	65.241169  
1317.000000	65.228271  
1316.000000	65.221810  
1315.000000	65.220713  
1314.000000	65.222978  
1313.000000	65.226387  
1312.000000	65.228962  
1311.000000	65.229511  
1310.000000	65.227627  
1309.000000	65.223598  
1308.000000	65.218353  
1307.000000	65.213012  
1306.000000	65.208530  
1305.000000	65.205574  
1304.000000	65.204644  
1303.000000	65.206122  
1302.000000	65.210199  
1301.000000	65.216851  
1300.000000	65.225911  
1299.000000	65.236902  
1298.000000	65.248942  
1297.000000	65.260648  
1296.000000	65.270185  
1295.000000	65.275859  
1294.000000	65.276288  
1293.000000	65.270805  
1292.000000	65.259790  
1291.000000	65.244555  
1290.000000	65.227508  
1289.000000	65.211176  
1288.000000	65.197873  
1287.000000	65.189051  
1286.000000	65.185117  
1285.000000	65.185308  
1284.000000	65.188050  
1283.000000	65.191268  
1282.000000	65.192914  
1281.000000	65.191364  
1280.000000	65.185737  
1279.000000	65.175914  
1278.000000	65.162301  
1277.000000	65.145874  
1276.000000	65.127897  
1275.000000	65.109729  
1274.000000	65.092706  
1273.000000	65.077733  
1272.000000	65.065574  
1271.000000	65.056800  
1270.000000	65.052127  
1269.000000	65.052032  
1268.000000	65.057373  
1267.000000	65.068864  
1266.000000	65.087008  
1265.000000	65.111756  
1264.000000	65.142107  
1263.000000	65.176057  
1262.000000	65.210366  
1261.000000	65.240979  
1260.000000	65.263581  
1259.000000	65.274333  
1258.000000	65.270829  
1257.000000	65.252542  
1256.000000	65.221261  
1255.000000	65.180754  
1254.000000	65.136313  
1253.000000	65.093684  
1252.000000	65.057969  
1251.000000	65.032958  
1250.000000	65.020585  
1249.000000	65.020751  
1248.000000	65.031743  
1247.000000	65.050697  
1246.000000	65.074300  
1245.000000	65.099740  
1244.000000	65.124440  
1243.000000	65.147042  
1242.000000	65.166807  
1241.000000	65.183997  
1240.000000	65.199017  
1239.000000	65.212559  
1238.000000	65.225148  
1237.000000	65.236973  
1236.000000	65.248060  
1235.000000	65.257906  
1234.000000	65.265846  
1233.000000	65.270900  
1232.000000	65.272140  
1231.000000	65.268754  
1230.000000	65.260362  
1229.000000	65.247011  
1228.000000	65.229392  
1227.000000	65.208888  
1226.000000	65.187311  
1225.000000	65.166783  
1224.000000	65.149235  
1223.000000	65.136289  
1222.000000	65.128731  
1221.000000	65.126466  
1220.000000	65.128421  
1219.000000	65.132570  
1218.000000	65.136289  
1217.000000	65.136933  
1216.000000	65.132522  
1215.000000	65.121960  
1214.000000	65.105628  
1213.000000	65.085172  
1212.000000	65.063405  
1211.000000	65.043783  
1210.000000	65.029716  
1209.000000	65.023612  
1208.000000	65.026688  
1207.000000	65.038514  
1206.000000	65.057182  
1205.000000	65.079641  
1204.000000	65.102458  
1203.000000	65.122556  
1202.000000	65.137648  
1201.000000	65.146374  
1200.000000	65.148138  
1199.000000	65.142941  
1198.000000	65.131092  
1197.000000	65.112972  
1196.000000	65.089297  
1195.000000	65.061211  
1194.000000	65.030550  
1193.000000	64.999914  
1192.000000	64.972400  
1191.000000	64.951276  
1190.000000	64.939355  
1189.000000	64.938545  
1188.000000	64.949059  
1187.000000	64.969372  
1186.000000	64.996480  
1185.000000	65.026283  
1184.000000	65.054416  
1183.000000	65.076971  
1182.000000	65.091109  
1181.000000	65.095567  
1180.000000	65.090513  
1179.000000	65.077590  
1178.000000	65.059304  
1177.000000	65.038824  
1176.000000	65.019297  
1175.000000	65.003442  
1174.000000	64.993190  
1173.000000	64.989233  
1172.000000	64.990973  
1171.000000	64.996504  
1170.000000	65.003252  
1169.000000	65.008306  
1168.000000	65.009474  
1167.000000	65.005517  
1166.000000	64.996719  
1165.000000	64.984726  
1164.000000	64.972043  
1163.000000	64.961695  
1162.000000	64.956212  
1161.000000	64.957022  
1160.000000	64.963865  
1159.000000	64.975190  
1158.000000	64.987850  
1157.000000	64.998126  
1156.000000	65.002369  
1155.000000	64.997935  
1154.000000	64.983820  
1153.000000	64.960861  
1152.000000	64.931678  
1151.000000	64.900040  
1150.000000	64.870166  
1149.000000	64.845967  
1148.000000	64.830064  
1147.000000	64.823579  
1146.000000	64.825987  
1145.000000	64.835572  
1144.000000	64.849662  
1143.000000	64.865493  
1142.000000	64.880728  
1141.000000	64.893984  
1140.000000	64.904546  
1139.000000	64.912724  
1138.000000	64.918971  
1137.000000	64.924049  
1136.000000	64.928460  
1135.000000	64.932560  
1134.000000	64.936327  
1133.000000	64.939856  
1132.000000	64.943337  
1131.000000	64.947366  
1130.000000	64.952683  
1129.000000	64.960336  
1128.000000	64.971089  
1127.000000	64.985561  
1126.000000	65.003824  
1125.000000	65.025329  
1124.000000	65.048885  
1123.000000	65.072584  
1122.000000	65.093922  
1121.000000	65.110135  
1120.000000	65.118694  
1119.000000	65.117621  
1118.000000	65.105915  
1117.000000	65.083956  
1116.000000	65.053534  
1115.000000	65.017557  
1114.000000	64.979720  
1113.000000	64.943957  
1112.000000	64.913964  
1111.000000	64.892816  
1110.000000	64.882373  
1109.000000	64.883160  
1108.000000	64.894032  
1107.000000	64.912557  
1106.000000	64.935255  
1105.000000	64.957809  
1104.000000	64.976358  
1103.000000	64.987802  
1102.000000	64.990901  
1101.000000	64.985966  
1100.000000	64.975142  
1099.000000	64.961695  
1098.000000	64.949297  
1097.000000	64.941287  
1096.000000	64.939689  
1095.000000	64.944887  
1094.000000	64.955496  
1093.000000	64.968705  
1092.000000	64.981031  
1091.000000	64.989161  
1090.000000	64.990425  
1089.000000	64.983797  
1088.000000	64.969682  
1087.000000	64.950084  
1086.000000	64.927983  
1085.000000	64.906501  
1084.000000	64.888143  
1083.000000	64.874124  
1082.000000	64.864635  
1081.000000	64.858913  
1080.000000	64.855217  
1079.000000	64.851975  
1078.000000	64.848041  
1077.000000	64.843606  
1076.000000	64.839601  
1075.000000	64.838171  
1074.000000	64.841341  
1073.000000	64.850926  
1072.000000	64.867734  
1071.000000	64.891171  
1070.000000	64.919114  
1069.000000	64.948439  
1068.000000	64.975476  
1067.000000	64.996838  
1066.000000	65.010046  
1065.000000	65.014028  
1064.000000	65.009284  
1063.000000	64.997696  
1062.000000	64.982128  
1061.000000	64.966082  
1060.000000	64.953184  
1059.000000	64.946389  
1058.000000	64.947628  
1057.000000	64.957714  
1056.000000	64.976072  
1055.000000	65.001106  
1054.000000	65.030431  
1053.000000	65.061044  
1052.000000	65.089988  
1051.000000	65.114688  
1050.000000	65.133333  
1049.000000	65.144681  
1048.000000	65.148591  
1047.000000	65.145707  
1046.000000	65.137505  
1045.000000	65.125870  
1044.000000	65.112948  
1043.000000	65.100884  
1042.000000	65.091538  
1041.000000	65.086245  
1040.000000	65.085387  
1039.000000	65.088510  
1038.000000	65.093922  
1037.000000	65.099120  
1036.000000	65.101051  
1035.000000	65.096855  
1034.000000	65.084648  
1033.000000	65.063977  
1032.000000	65.036082  
1031.000000	65.003871  
1030.000000	64.971041  
1029.000000	64.941668  
1028.000000	64.919042  
1027.000000	64.905381  
1026.000000	64.901423  
1025.000000	64.906716  
1024.000000	64.919686  
1023.000000	64.938306  
1022.000000	64.960765  
1021.000000	64.985179  
1020.000000	65.009808  
1019.000000	65.032887  
1018.000000	65.052342  
1017.000000	65.065956  
1016.000000	65.071439  
1015.000000	65.067148  
1014.000000	65.052628  
1013.000000	65.029168  
1012.000000	64.999699  
1011.000000	64.968681  
1010.000000	64.941048  
1009.000000	64.921331  
1008.000000	64.912462  
1007.000000	64.915299  
1006.000000	64.928293  
1005.000000	64.947962  
1004.000000	64.969825  
1003.000000	64.989399  
1002.000000	65.003108  
1001.000000	65.009164  
1000.000000	65.007376  
999.000000	 64.998841  
998.000000	 64.985632  
997.000000	 64.969754  
996.000000	 64.952826  
995.000000	 64.936017  
994.000000	 64.919829  
993.000000	 64.904785  
992.000000	 64.891552  
991.000000	 64.881229  
990.000000	 64.874982  
989.000000	 64.873814  
988.000000	 64.878034  
987.000000	 64.887261  
986.000000	 64.900040  
985.000000	 64.914083  
984.000000	 64.926934  
983.000000	 64.936637  
982.000000	 64.942240  
981.000000	 64.943838  
980.000000	 64.942932  
979.000000	 64.941453  
978.000000	 64.941382  
977.000000	 64.943838  
976.000000	 64.948463  
975.000000	 64.953541  
974.000000	 64.956474  
973.000000	 64.954853  
972.000000	 64.947342  
971.000000	 64.934158  
970.000000	 64.917492  
969.000000	 64.900779  
968.000000	 64.887475  
967.000000	 64.880347  
966.000000	 64.880084  
965.000000	 64.885449  
964.000000	 64.893293  
963.000000	 64.899754  
962.000000	 64.901471  
961.000000	 64.896082  
960.000000	 64.882802  
959.000000	 64.862751  
958.000000	 64.838576  
957.000000	 64.813399  
956.000000	 64.790201  
955.000000	 64.770960  
954.000000	 64.756464  
953.000000	 64.746546  
952.000000	 64.740324  
951.000000	 64.736223  
950.000000	 64.733028  
949.000000	 64.730286  
948.000000	 64.728307  
947.000000	 64.728021  
946.000000	 64.730525  
945.000000	 64.736866  
944.000000	 64.747476  
943.000000	 64.761877  
942.000000	 64.778876  
941.000000	 64.796376  
940.000000	 64.812302  
939.000000	 64.824509  
938.000000	 64.832258  
937.000000	 64.836359  
936.000000	 64.839792  
935.000000	 64.846706  
934.000000	 64.862155  
933.000000	 64.890456  
932.000000	 64.933872  
931.000000	 64.991354  
930.000000	 65.058445  
929.000000	 65.127444  
928.000000	 65.188264  
927.000000	 65.230321  
926.000000	 65.244340  
925.000000	 65.224647  
924.000000	 65.170788  
923.000000	 65.088129  
922.000000	 64.986824  
921.000000	 64.880156  
920.000000	 64.782738  
919.000000	 64.706659  
918.000000	 64.659667  
917.000000	 64.643073  
916.000000	 64.652347  
915.000000	 64.678406  
914.000000	 64.709901  
913.000000	 64.736366  
912.000000	 64.750242  
911.000000	 64.749002  
910.000000	 64.735126  
909.000000	 64.714312  
908.000000	 64.692902  
907.000000	 64.675021  
906.000000	 64.660668  
905.000000	 64.645171  
904.000000	 64.620590  
903.000000	 64.578986  
902.000000	 64.515566  
901.000000	 64.431309  
900.000000	 64.333939  
899.000000	 64.236497  
898.000000	 64.154982  
897.000000	 64.103770  
896.000000	 64.092803  
895.000000	 64.125108  
894.000000	 64.196252  
893.000000	 64.295840  
892.000000	 64.409255  
891.000000	 64.521098  
890.000000	 64.617681  
889.000000	 64.689469  
888.000000	 64.731860  
887.000000	 64.744186  
886.000000	 64.729595  
885.000000	 64.693570  
884.000000	 64.642810  
883.000000	 64.584088  
882.000000	 64.523649  
881.000000	 64.467334  
880.000000	 64.419031  
879.000000	 64.381194  
878.000000	 64.354133  
877.000000	 64.336824  
876.000000	 64.327359  
875.000000	 64.323949  
874.000000	 64.325380  
873.000000	 64.331698  
872.000000	 64.343523  
871.000000	 64.361953  
870.000000	 64.387392  
869.000000	 64.419817  
868.000000	 64.457774  
867.000000	 64.499306  
866.000000	 64.542031  
865.000000	 64.583611  
864.000000	 64.621853  
863.000000	 64.655184  
862.000000	 64.682817  
861.000000	 64.704918  
860.000000	 64.722657  
859.000000	 64.737725  
858.000000	 64.752101  
857.000000	 64.767432  
856.000000	 64.785146  
855.000000	 64.805793  
854.000000	 64.829158  
853.000000	 64.853715  
852.000000	 64.876937  
851.000000	 64.895868  
850.000000	 64.907646  
849.000000	 64.910340  
848.000000	 64.903378  
847.000000	 64.887928  
846.000000	 64.866566  
845.000000	 64.842605  
844.000000	 64.819574  
843.000000	 64.800000  
842.000000	 64.785146  
841.000000	 64.775562  
840.000000	 64.771056  
839.000000	 64.770889  
838.000000	 64.774250  
837.000000	 64.780640  
836.000000	 64.790177  
835.000000	 64.802670  
834.000000	 64.818716  
833.000000	 64.839005  
832.000000	 64.864540  
831.000000	 64.895868  
830.000000	 64.933180  
829.000000	 64.976072  
828.000000	 65.022921  
827.000000	 65.071105  
826.000000	 65.116906  
825.000000	 65.156102  
824.000000	 65.184450  
823.000000	 65.198612  
822.000000	 65.196752  
821.000000	 65.178871  
820.000000	 65.146899  
819.000000	 65.103840  
818.000000	 65.052986  
817.000000	 64.997458  
816.000000	 64.939332  
815.000000	 64.879965  
814.000000	 64.820599  
813.000000	 64.762616  
812.000000	 64.708423  
811.000000	 64.661073  
810.000000	 64.623880  
809.000000	 64.599537  
808.000000	 64.588999  
807.000000	 64.591503  
806.000000	 64.603924  
805.000000	 64.621877  
804.000000	 64.640164  
803.000000	 64.654660  
802.000000	 64.662837  
801.000000	 64.664578  
800.000000	 64.661383  
799.000000	 64.656138  
798.000000	 64.651823  
797.000000	 64.650321  
796.000000	 64.651679  
795.000000	 64.654564  
794.000000	 64.656782  
793.000000	 64.655923  
792.000000	 64.650011  
791.000000	 64.638352  
790.000000	 64.621400  
789.000000	 64.600396  
788.000000	 64.577269  
787.000000	 64.553737  
786.000000	 64.531683  
785.000000	 64.512610  
784.000000	 64.497900  
783.000000	 64.488792  
782.000000	 64.486408  
781.000000	 64.491915  
780.000000	 64.505839  
779.000000	 64.527773  
778.000000	 64.556026  
777.000000	 64.587688  
776.000000	 64.618730  
775.000000	 64.644384  
774.000000	 64.659905  
773.000000	 64.661836  
772.000000	 64.648056  
771.000000	 64.618468  
770.000000	 64.574980  
769.000000	 64.521121  
768.000000	 64.461326  
767.000000	 64.400196  
766.000000	 64.341974  
765.000000	 64.289879  
764.000000	 64.245533  
763.000000	 64.208912  
762.000000	 64.178776  
761.000000	 64.153242  
760.000000	 64.130210  
759.000000	 64.108276  
758.000000	 64.086532  
757.000000	 64.065551  
756.000000	 64.046335  
755.000000	 64.030647  
754.000000	 64.020037  
753.000000	 64.015769  
752.000000	 64.018440  
751.000000	 64.027953  
750.000000	 64.043474  
749.000000	 64.063739  
748.000000	 64.087057  
747.000000	 64.112067  
746.000000	 64.137530  
745.000000	 64.163041  
744.000000	 64.188599  
743.000000	 64.214730  
742.000000	 64.241981  
741.000000	 64.270615  
740.000000	 64.300251  
739.000000	 64.329910  
738.000000	 64.357948  
737.000000	 64.382362  
736.000000	 64.401030  
735.000000	 64.412569  
734.000000	 64.416313  
733.000000	 64.412832  
732.000000	 64.402866  
731.000000	 64.388132  
730.000000	 64.369964  
729.000000	 64.349293  
728.000000	 64.326500  
727.000000	 64.301633  
726.000000	 64.275169  
725.000000	 64.248108  
724.000000	 64.222693  
723.000000	 64.201927  
722.000000	 64.188814  
721.000000	 64.185714  
720.000000	 64.193201  
719.000000	 64.209532  
718.000000	 64.231443  
717.000000	 64.254641  
716.000000	 64.275074  
715.000000	 64.289498  
714.000000	 64.296627  
713.000000	 64.296984  
712.000000	 64.292311  
711.000000	 64.284610  
710.000000	 64.275431  
709.000000	 64.264965  
708.000000	 64.252090  
707.000000	 64.234566  
706.000000	 64.210391  
705.000000	 64.178633  
704.000000	 64.140224  
703.000000	 64.098453  
702.000000	 64.058017  
701.000000	 64.024543  
700.000000	 64.002823  
699.000000	 63.996005  
698.000000	 64.004564  
697.000000	 64.026117  
696.000000	 64.055848  
695.000000	 64.087080  
694.000000	 64.112710  
693.000000	 64.126443  
692.000000	 64.124107  
691.000000	 64.104723  
690.000000	 64.070320  
689.000000	 64.026141  
688.000000	 63.979196  
687.000000	 63.936710  
686.000000	 63.904404  
685.000000	 63.885426  
684.000000	 63.879752  
683.000000	 63.884806  
682.000000	 63.896179  
681.000000	 63.908934  
680.000000	 63.918805  
679.000000	 63.923215  
678.000000	 63.921689  
677.000000	 63.915109  
676.000000	 63.905549  
675.000000	 63.895392  
674.000000	 63.886308  
673.000000	 63.878989  
672.000000	 63.872647  
671.000000	 63.865256  
670.000000	 63.854622  
669.000000	 63.839197  
668.000000	 63.819169  
667.000000	 63.796329  
666.000000	 63.774561  
665.000000	 63.758802  
664.000000	 63.754129  
663.000000	 63.764405  
662.000000	 63.790988  
661.000000	 63.832068  
660.000000	 63.882970  
659.000000	 63.936972  
658.000000	 63.986706  
657.000000	 64.025306  
656.000000	 64.048027  
655.000000	 64.052534  
654.000000	 64.039325  
653.000000	 64.010691  
652.000000	 63.969731  
651.000000	 63.919568  
650.000000	 63.862681  
649.000000	 63.801240  
648.000000	 63.737773  
647.000000	 63.675689  
646.000000	 63.619804  
645.000000	 63.576102  
644.000000	 63.550734  
643.000000	 63.548707  
642.000000	 63.572311  
641.000000	 63.620066  
640.000000	 63.686060  
639.000000	 63.761162  
638.000000	 63.834166  
637.000000	 63.894319  
636.000000	 63.933372  
635.000000	 63.947153  
634.000000	 63.936233  
633.000000	 63.905191  
632.000000	 63.861227  
631.000000	 63.812303  
630.000000	 63.765263  
629.000000	 63.724803  
628.000000	 63.692808  
627.000000	 63.668918  
626.000000	 63.651108  
625.000000	 63.637280  
624.000000	 63.626122  
623.000000	 63.617014  
622.000000	 63.610672  
621.000000	 63.608050  
620.000000	 63.610816  
619.000000	 63.619756  
618.000000	 63.635468  
617.000000	 63.657259  
616.000000	 63.684058  
615.000000	 63.714265  
614.000000	 63.746142  
613.000000	 63.778185  
612.000000	 63.808917  
611.000000	 63.837051  
610.000000	 63.861274  
609.000000	 63.880324  
608.000000	 63.893342  
607.000000	 63.899874  
606.000000	 63.900613  
605.000000	 63.897085  
604.000000	 63.891363  
603.000000	 63.884830  
602.000000	 63.877582  
601.000000	 63.868093  
600.000000	 63.852906  
599.000000	 63.828158  
598.000000	 63.791322  
597.000000	 63.742518  
596.000000	 63.685703  
595.000000	 63.627457  
594.000000	 63.576126  
593.000000	 63.538932  
592.000000	 63.519954  
591.000000	 63.519072  
590.000000	 63.531732  
589.000000	 63.550233  
588.000000	 63.565683  
587.000000	 63.570570  
586.000000	 63.560271  
585.000000	 63.534784  
584.000000	 63.498258  
583.000000	 63.458156  
582.000000	 63.422799  
581.000000	 63.399410  
580.000000	 63.391757  
579.000000	 63.398694  
578.000000	 63.413953  
577.000000	 63.427805  
576.000000	 63.429164  
575.000000	 63.408470  
574.000000	 63.359975  
573.000000	 63.283300  
572.000000	 63.183689  
571.000000	 63.070154  
570.000000	 62.954092  
569.000000	 62.846755  
568.000000	 62.757325  
567.000000	 62.691354  
566.000000	 62.650489  
565.000000	 62.633013  
564.000000	 62.635016  
563.000000	 62.651562  
562.000000	 62.678480  
561.000000	 62.711954  
560.000000	 62.750339  
559.000000	 62.792658  
558.000000	 62.839388  
557.000000	 62.890601  
556.000000	 62.946438  
555.000000	 63.006281  
554.000000	 63.068222  
553.000000	 63.128948  
552.000000	 63.183760  
551.000000	 63.227462  
550.000000	 63.254714  
549.000000	 63.261938  
548.000000	 63.248467  
547.000000	 63.217735  
546.000000	 63.177442  
545.000000	 63.137984  
544.000000	 63.110804  
543.000000	 63.104772  
542.000000	 63.125038  
541.000000	 63.170075  
540.000000	 63.232111  
539.000000	 63.297963  
538.000000	 63.352990  
537.000000	 63.383698  
536.000000	 63.380861  
535.000000	 63.342213  
534.000000	 63.273215  
533.000000	 63.185000  
532.000000	 63.091564  
531.000000	 63.005995  
530.000000	 62.937545  
529.000000	 62.889337  
528.000000	 62.858510  
527.000000	 62.836790  
526.000000	 62.813663  
525.000000	 62.779116  
524.000000	 62.727212  
523.000000	 62.656402  
522.000000	 62.571215  
521.000000	 62.481331  
520.000000	 62.399864  
519.000000	 62.339258  
518.000000	 62.308907  
517.000000	 62.312650  
516.000000	 62.347984  
515.000000	 62.406516  
514.000000	 62.476825  
513.000000	 62.546157  
512.000000	 62.604975  
511.000000	 62.647962  
510.000000	 62.675857  
509.000000	 62.694239  
508.000000	 62.711334  
507.000000	 62.734508  
506.000000	 62.768101  
505.000000	 62.812256  
504.000000	 62.861824  
503.000000	 62.908315  
502.000000	 62.941336  
501.000000	 62.951707  
500.000000	 62.933945  
499.000000	 62.887930  
498.000000	 62.817430  
497.000000	 62.729096  
496.000000	 62.630724  
495.000000	 62.529969  
494.000000	 62.432551  
493.000000	 62.342929  
492.000000	 62.264728  
491.000000	 62.202143  
490.000000	 62.160325  
489.000000	 62.144804  
488.000000	 62.161326  
487.000000	 62.212204  
486.000000	 62.294769  
485.000000	 62.399172  
484.000000	 62.509417  
483.000000	 62.604808  
482.000000	 62.663483  
481.000000	 62.667870  
480.000000	 62.608098  
479.000000	 62.486481  
478.000000	 62.317585  
477.000000	 62.126278  
476.000000	 61.942553  
475.000000	 61.795401  
474.000000	 61.706519  
473.000000	 61.686110  
472.000000	 61.731386  
471.000000	 61.829257  
470.000000	 61.960649  
469.000000	 62.103486  
468.000000	 62.238430  
467.000000	 62.352514  
466.000000	 62.441182  
465.000000	 62.504577  
464.000000	 62.547993  
463.000000	 62.578439  
462.000000	 62.603545  
461.000000	 62.630534  
460.000000	 62.664055  
459.000000	 62.706875  
458.000000	 62.758255  
457.000000	 62.816953  
456.000000	 62.878775  
455.000000	 62.937307  
454.000000	 62.985634  
453.000000	 63.017916  
452.000000	 63.031315  
451.000000	 63.026452  
450.000000	 63.008117  
449.000000	 62.984967  
448.000000	 62.964844  
447.000000	 62.952446  
446.000000	 62.945556  
445.000000	 62.934541  
444.000000	 62.899374  
443.000000	 62.814354  
442.000000	 62.653803  
441.000000	 62.400603  
440.000000	 62.052845  
439.000000	 61.628222  
438.000000	 61.162376  
437.000000	 60.704278  
436.000000	 60.304737  
435.000000	 60.009431  
434.000000	 59.843277  
433.000000	 59.814405  
432.000000	 59.914946  
431.000000	 60.125398  
430.000000	 60.416340  
429.000000	 60.757756  
428.000000	 61.120080  
427.000000	 61.480355  
426.000000	 61.819434  
425.000000	 62.124466  
424.000000	 62.381362  
423.000000	 62.585091  
422.000000	 62.739968  
421.000000	 62.854218  
420.000000	 62.937235  
419.000000	 62.998151  
418.000000	 63.043689  
417.000000	 63.077902  
416.000000	 63.103246  
415.000000	 63.115525  
414.000000	 63.107633  
413.000000	 63.082671  
412.000000	 63.048052  
411.000000	 63.020372  
410.000000	 63.009190  
409.000000	 63.011288  
408.000000	 63.001441  
407.000000	 62.940883  
406.000000	 62.782597  
405.000000	 62.468099  
404.000000	 61.969208  
403.000000	 61.299324  
402.000000	 60.532975  
401.000000	 59.779715  
400.000000	 59.193658  
399.000000	 58.930468  
398.000000	 59.130430  
397.000000	 59.881448  
396.000000	 61.191415  
395.000000	 62.986993  
394.000000	 65.077543  
393.000000	 67.176389  
392.000000	 68.972492  
391.000000	 70.196485  
390.000000	 70.623469  
389.000000	 70.124197  
388.000000	 68.720602  
387.000000	 66.585564  
386.000000	 63.998103  
385.000000	 61.308670  
384.000000	 58.857583  
383.000000	 56.947422  
382.000000	 55.816912  
381.000000	 55.623459  
380.000000	 56.396031  
379.000000	 58.077144  
378.000000	 60.589599  
377.000000	 63.789176  
376.000000	 67.438530  
375.000000	 71.241855  
374.000000	 74.854803  
373.000000	 77.946996  
372.000000	 80.183243  
371.000000	 81.411337  
370.000000	 81.653523  

