PE IR       SPECTRUM    SPECTRUM    ASCII       PEDS        1.60        
  -1
C-9A64~1.ASC
17/05/02
12:41:22.00
17/05/02
12:41:22.00
tln
$C-4040-8_t0022$<tbV0>[-2.5,2.0,8.0,0.0,22,1,0]
370.000000
64









2002,4.07    
MIRTGS : RIGHTBACK : INTERNAL 2
MIR : ON : INTERNAL 2
OPTKBR

0.200000
8
8.000000
FILLER
RATIO
SPECTRUM
UNLOCKED 256

DOUBLE
64
COMBINED
1
0
0


1.000000
RATIO


1
0
TRUE
51149
0
LEFT NOT FITTED RIGHT NOT FITTED 0
NONE
NONE
15600
12.000000
4.427000
51148
TRUE
1 0 8 72 0 0 0 0 

15798.010000






#HDR
-1
-1
#GR
CM-1
%T
0.00002384185791015625
0.0
7800.000000
-1.000000
7431
8
83.180069
47.495055
#DATA
7800.000000	73.266315 
7799.000000	71.529269 
7798.000000	69.810628 
7797.000000	68.341803 
7796.000000	67.256665 
7795.000000	66.575574 
7794.000000	66.209578 
7793.000000	66.008019 
7792.000000	65.823006 
7791.000000	65.574145 
7790.000000	65.262198 
7789.000000	64.988279 
7788.000000	64.939427 
7787.000000	65.338349 
7786.000000	66.366124 
7785.000000	68.098855 
7784.000000	70.478749 
7783.000000	73.291015 
7782.000000	76.205205 
7781.000000	78.824520 
7780.000000	80.780076 
7779.000000	81.797623 
7778.000000	81.764483 
7777.000000	80.740642 
7776.000000	78.946447 
7775.000000	76.701927 
7774.000000	74.369049 
7773.000000	72.254133 
7772.000000	70.567011 
7771.000000	69.373083 
7770.000000	68.621063 
7769.000000	68.163347 
7768.000000	67.826247 
7767.000000	67.467713 
7766.000000	67.027354 
7765.000000	66.559553 
7764.000000	66.217255 
7763.000000	66.204333 
7762.000000	66.705346 
7761.000000	67.821884 
7760.000000	69.520711 
7759.000000	71.619939 
7758.000000	73.816514 
7757.000000	75.759625 
7756.000000	77.123880 
7755.000000	77.695012 
7754.000000	77.410840 
7753.000000	76.362085 
7752.000000	74.779510 
7751.000000	72.960066 
7750.000000	71.224737 
7749.000000	69.857907 
7748.000000	69.051861 
7747.000000	68.899393 
7746.000000	69.363212 
7745.000000	70.318102 
7744.000000	71.554517 
7743.000000	72.839117 
7742.000000	73.931503 
7741.000000	74.625611 
7740.000000	74.777793 
7739.000000	74.324822 
7738.000000	73.284292 
7737.000000	71.747875 
7736.000000	69.870018 
7735.000000	67.845416 
7734.000000	65.885496 
7733.000000	64.191985 
7732.000000	62.932205 
7731.000000	62.222051 
7730.000000	62.114763 
7729.000000	62.602162 
7728.000000	63.608264 
7727.000000	65.015387 
7726.000000	66.677117 
7725.000000	68.443155 
7724.000000	70.157122 
7723.000000	71.688103 
7722.000000	72.932910 
7721.000000	73.826456 
7720.000000	74.342370 
7719.000000	74.483633 
7718.000000	74.276757 
7717.000000	73.767638 
7716.000000	73.026728 
7715.000000	72.130608 
7714.000000	71.163129 
7713.000000	70.207667 
7712.000000	69.345927 
7711.000000	68.650007 
7710.000000	68.177533 
7709.000000	67.960190 
7708.000000	67.999958 
7707.000000	68.268442 
7706.000000	68.710112 
7705.000000	69.247794 
7704.000000	69.796347 
7703.000000	70.265984 
7702.000000	70.585393 
7701.000000	70.710015 
7700.000000	70.634222 
7699.000000	70.383095 
7698.000000	70.012640 
7697.000000	69.596529 
7696.000000	69.210433 
7695.000000	68.921184 
7694.000000	68.768835 
7693.000000	68.760013 
7692.000000	68.873023 
7691.000000	69.072604 
7690.000000	69.313240 
7689.000000	69.550061 
7688.000000	69.751977 
7687.000000	69.906330 
7686.000000	70.013141 
7685.000000	70.078730 
7684.000000	70.105385 
7683.000000	70.085668 
7682.000000	70.001792 
7681.000000	69.831109 
7680.000000	69.556045 
7679.000000	69.174599 
7678.000000	68.707847 
7677.000000	68.201351 
7676.000000	67.717003 
7675.000000	67.324113 
7674.000000	67.079973 
7673.000000	67.023110 
7672.000000	67.165493 
7671.000000	67.488908 
7670.000000	67.953062 
7669.000000	68.494939 
7668.000000	69.041109 
7667.000000	69.514727 
7666.000000	69.846534 
7665.000000	69.985342 
7664.000000	69.905567 
7663.000000	69.609951 
7662.000000	69.128251 
7661.000000	68.510770 
7660.000000	67.819738 
7659.000000	67.117261 
7658.000000	66.456413 
7657.000000	65.868020 
7656.000000	65.358662 
7655.000000	64.913344 
7654.000000	64.504814 
7653.000000	64.097809 
7652.000000	63.666296 
7651.000000	63.199162 
7650.000000	62.713360 
7649.000000	62.241506 
7648.000000	61.838912 
7647.000000	61.560869 
7646.000000	61.462092 
7645.000000	61.583757 
7644.000000	61.939287 
7643.000000	62.510848 
7642.000000	63.237762 
7641.000000	64.027786 
7640.000000	64.761853 
7639.000000	65.311837 
7638.000000	65.570759 
7637.000000	65.473008 
7636.000000	65.017080 
7635.000000	64.266562 
7634.000000	63.343572 
7633.000000	62.402439 
7632.000000	61.605024 
7631.000000	61.088156 
7630.000000	60.942220 
7629.000000	61.197185 
7628.000000	61.822152 
7627.000000	62.736201 
7626.000000	63.831377 
7625.000000	64.990830 
7624.000000	66.109490 
7623.000000	67.100524 
7622.000000	67.896556 
7621.000000	68.446493 
7620.000000	68.717455 
7619.000000	68.686413 
7618.000000	68.343663 
7617.000000	67.691993 
7616.000000	66.769099 
7615.000000	65.633130 
7614.000000	64.362072 
7613.000000	63.054394 
7612.000000	61.816883 
7611.000000	60.766649 
7610.000000	60.019087 
7609.000000	59.668302 
7608.000000	59.772515 
7607.000000	60.323357 
7606.000000	61.240601 
7605.000000	62.367200 
7604.000000	63.493347 
7603.000000	64.395499 
7602.000000	64.881801 
7601.000000	64.834666 
7600.000000	64.237642 
7599.000000	63.168740 
7598.000000	61.791491 
7597.000000	60.309910 
7596.000000	58.941555 
7595.000000	57.883429 
7594.000000	57.282686 
7593.000000	57.222342 
7592.000000	57.709097 
7591.000000	58.685398 
7590.000000	60.035538 
7589.000000	61.606478 
7588.000000	63.231062 
7587.000000	64.741444 
7586.000000	66.002869 
7585.000000	66.917729 
7584.000000	67.447805 
7583.000000	67.605304 
7582.000000	67.454433 
7581.000000	67.095708 
7580.000000	66.641044 
7579.000000	66.194486 
7578.000000	65.834450 
7577.000000	65.606927 
7576.000000	65.523481 
7575.000000	65.567302 
7574.000000	65.701770 
7573.000000	65.880203 
7572.000000	66.048693 
7571.000000	66.159653 
7570.000000	66.166853 
7569.000000	66.047787 
7568.000000	65.801715 
7567.000000	65.466547 
7566.000000	65.112686 
7565.000000	64.835286 
7564.000000	64.733219 
7563.000000	64.883875 
7562.000000	65.328764 
7561.000000	66.048574 
7560.000000	66.968345 
7559.000000	67.959594 
7558.000000	68.866634 
7557.000000	69.538617 
7556.000000	69.868469 
7555.000000	69.805097 
7554.000000	69.363665 
7553.000000	68.614673 
7552.000000	67.666077 
7551.000000	66.635680 
7550.000000	65.628480 
7549.000000	64.728498 
7548.000000	63.992476 
7547.000000	63.459634 
7546.000000	63.154649 
7545.000000	63.086533 
7544.000000	63.251519 
7543.000000	63.628005 
7542.000000	64.179921 
7541.000000	64.850950 
7540.000000	65.573954 
7539.000000	66.273975 
7538.000000	66.879963 
7537.000000	67.331004 
7536.000000	67.586565 
7535.000000	67.630672 
7534.000000	67.473292 
7533.000000	67.148518 
7532.000000	66.707468 
7531.000000	66.212439 
7530.000000	65.724563 
7529.000000	65.299963 
7528.000000	64.977049 
7527.000000	64.776825 
7526.000000	64.698100 
7525.000000	64.724302 
7524.000000	64.824056 
7523.000000	64.960289 
7522.000000	65.104484 
7521.000000	65.244793 
7520.000000	65.388941 
7519.000000	65.562415 
7518.000000	65.798044 
7517.000000	66.125965 
7516.000000	66.564035 
7515.000000	67.108750 
7514.000000	67.732143 
7513.000000	68.383908 
7512.000000	69.006633 
7511.000000	69.540667 
7510.000000	69.939470 
7509.000000	70.173311 
7508.000000	70.234251 
7507.000000	70.135855 
7506.000000	69.913339 
7505.000000	69.612073 
7504.000000	69.280624 
7503.000000	68.961572 
7502.000000	68.691682 
7501.000000	68.490004 
7500.000000	68.364477 
7499.000000	68.299484 
7498.000000	68.263792 
7497.000000	68.211650 
7496.000000	68.095517 
7495.000000	67.872977 
7494.000000	67.520403 
7493.000000	67.039799 
7492.000000	66.465139 
7491.000000	65.859293 
7490.000000	65.306997 
7489.000000	64.895081 
7488.000000	64.697360 
7487.000000	64.765048 
7486.000000	65.107989 
7485.000000	65.691494 
7484.000000	66.434288 
7483.000000	67.226457 
7482.000000	67.942762 
7481.000000	68.462610 
7480.000000	68.696737 
7479.000000	68.601799 
7478.000000	68.192434 
7477.000000	67.534089 
7476.000000	66.732096 
7475.000000	65.907740 
7474.000000	65.176439 
7473.000000	64.628148 
7472.000000	64.311242 
7471.000000	64.230680 
7470.000000	64.353084 
7469.000000	64.621257 
7468.000000	64.969038 
7467.000000	65.335774 
7466.000000	65.673828 
7465.000000	65.951490 
7464.000000	66.146826 
7463.000000	66.243648 
7462.000000	66.226339 
7461.000000	66.079807 
7460.000000	65.791630 
7459.000000	65.358710 
7458.000000	64.798784 
7457.000000	64.149570 
7456.000000	63.465738 
7455.000000	62.813949 
7454.000000	62.261366 
7453.000000	61.867284 
7452.000000	61.671400 
7451.000000	61.688208 
7450.000000	61.905407 
7449.000000	62.282967 
7448.000000	62.759375 
7447.000000	63.260459 
7446.000000	63.711047 
7445.000000	64.045619 
7444.000000	64.216303 
7443.000000	64.203143 
7442.000000	64.015030 
7441.000000	63.685560 
7440.000000	63.265371 
7439.000000	62.816357 
7438.000000	62.400555 
7437.000000	62.072896 
7436.000000	61.872220 
7435.000000	61.817431 
7434.000000	61.906027 
7433.000000	62.117552 
7432.000000	62.420392 
7431.000000	62.770915 
7430.000000	63.131642 
7429.000000	63.471484 
7428.000000	63.780665 
7427.000000	64.060664 
7426.000000	64.333295 
7425.000000	64.628958 
7424.000000	64.980530 
7423.000000	65.414571 
7422.000000	65.936660 
7421.000000	66.527605 
7420.000000	67.142724 
7419.000000	67.723321 
7418.000000	68.205618 
7417.000000	68.537211 
7416.000000	68.689489 
7415.000000	68.665695 
7414.000000	68.498611 
7413.000000	68.241834 
7412.000000	67.959308 
7411.000000	67.707633 
7410.000000	67.524743 
7409.000000	67.417955 
7408.000000	67.371249 
7407.000000	67.343688 
7406.000000	67.284631 
7405.000000	67.142462 
7404.000000	66.879773 
7403.000000	66.481423 
7402.000000	65.955519 
7401.000000	65.337514 
7400.000000	64.674520 
7399.000000	64.028525 
7398.000000	63.464260 
7397.000000	63.039922 
7396.000000	62.793517 
7395.000000	62.740826 
7394.000000	62.872028 
7393.000000	63.155865 
7392.000000	63.541626 
7391.000000	63.979148 
7390.000000	64.425516 
7389.000000	64.857387 
7388.000000	65.269303 
7387.000000	65.672516 
7386.000000	66.083455 
7385.000000	66.512489 
7384.000000	66.953682 
7383.000000	67.382621 
7382.000000	67.758440 
7381.000000	68.037891 
7380.000000	68.183708 
7379.000000	68.180918 
7378.000000	68.036389 
7377.000000	67.786908 
7376.000000	67.480206 
7375.000000	67.167210 
7374.000000	66.882729 
7373.000000	66.640543 
7372.000000	66.429853 
7371.000000	66.222071 
7370.000000	65.986156 
7369.000000	65.703058 
7368.000000	65.378332 
7367.000000	65.043711 
7366.000000	64.753913 
7365.000000	64.569854 
7364.000000	64.545464 
7363.000000	64.709186 
7362.000000	65.056157 
7361.000000	65.544843 
7360.000000	66.110348 
7359.000000	66.677474 
7358.000000	67.177033 
7357.000000	67.557787 
7356.000000	67.793917 
7355.000000	67.883801 
7354.000000	67.842769 
7353.000000	67.694926 
7352.000000	67.464423 
7351.000000	67.171335 
7350.000000	66.834020 
7349.000000	66.468238 
7348.000000	66.096758 
7347.000000	65.743494 
7346.000000	65.439605 
7345.000000	65.210080 
7344.000000	65.071010 
7343.000000	65.020155 
7342.000000	65.034866 
7341.000000	65.076971 
7340.000000	65.099430 
7339.000000	65.060997 
7338.000000	64.935588 
7337.000000	64.720940 
7336.000000	64.437818 
7335.000000	64.127659 
7334.000000	63.841915 
7333.000000	63.629007 
7332.000000	63.523101 
7331.000000	63.540244 
7330.000000	63.676881 
7329.000000	63.913321 
7328.000000	64.220476 
7327.000000	64.567017 
7326.000000	64.925265 
7325.000000	65.275645 
7324.000000	65.605020 
7323.000000	65.902543 
7322.000000	66.155862 
7321.000000	66.351938 
7320.000000	66.472792 
7319.000000	66.500616 
7318.000000	66.418528 
7317.000000	66.220855 
7316.000000	65.913033 
7315.000000	65.515398 
7314.000000	65.062975 
7313.000000	64.600920 
7312.000000	64.182400 
7311.000000	63.859128 
7310.000000	63.677978 
7309.000000	63.671851 
7308.000000	63.858485 
7307.000000	64.236617 
7306.000000	64.783811 
7305.000000	65.458416 
7304.000000	66.205382 
7303.000000	66.963219 
7302.000000	67.671799 
7301.000000	68.277978 
7300.000000	68.746709 
7299.000000	69.055891 
7298.000000	69.199442 
7297.000000	69.175028 
7296.000000	68.988633 
7295.000000	68.641757 
7294.000000	68.142986 
7293.000000	67.499017 
7292.000000	66.726636 
7291.000000	65.850806 
7290.000000	64.912486 
7289.000000	63.966321 
7288.000000	63.074660 
7287.000000	62.305903 
7286.000000	61.721086 
7285.000000	61.370706 
7284.000000	61.281585 
7283.000000	61.456990 
7282.000000	61.870718 
7281.000000	62.476658 
7280.000000	63.213443 
7279.000000	64.013123 
7278.000000	64.809417 
7277.000000	65.548157 
7276.000000	66.191339 
7275.000000	66.720390 
7274.000000	67.131161 
7273.000000	67.431569 
7272.000000	67.629241 
7271.000000	67.734646 
7270.000000	67.747426 
7269.000000	67.662334 
7268.000000	67.466068 
7267.000000	67.153668 
7266.000000	66.727209 
7265.000000	66.207313 
7264.000000	65.630078 
7263.000000	65.043163 
7262.000000	64.503073 
7261.000000	64.063739 
7260.000000	63.773012 
7259.000000	63.659477 
7258.000000	63.737487 
7257.000000	64.002060 
7256.000000	64.435672 
7255.000000	65.008044 
7254.000000	65.685391 
7253.000000	66.431021 
7252.000000	67.212104 
7251.000000	67.997217 
7250.000000	68.755817 
7249.000000	69.452691 
7248.000000	70.051670 
7247.000000	70.511102 
7246.000000	70.788884 
7245.000000	70.845317 
7244.000000	70.658659 
7243.000000	70.227718 
7242.000000	69.581460 
7241.000000	68.775677 
7240.000000	67.892360 
7239.000000	67.024135 
7238.000000	66.265439 
7237.000000	65.691232 
7236.000000	65.346598 
7235.000000	65.238094 
7234.000000	65.336060 
7233.000000	65.582466 
7232.000000	65.903234 
7231.000000	66.225934 
7230.000000	66.490459 
7229.000000	66.661810 
7228.000000	66.729831 
7227.000000	66.707301 
7226.000000	66.618824 
7225.000000	66.494536 
7224.000000	66.359162 
7223.000000	66.225862 
7222.000000	66.093468 
7221.000000	65.954208 
7220.000000	65.796709 
7219.000000	65.610718 
7218.000000	65.392398 
7217.000000	65.146470 
7216.000000	64.889049 
7215.000000	64.640688 
7214.000000	64.428758 
7213.000000	64.280319 
7212.000000	64.218783 
7211.000000	64.260554 
7210.000000	64.406347 
7209.000000	64.639234 
7208.000000	64.923572 
7207.000000	65.210843 
7206.000000	65.447044 
7205.000000	65.582013 
7204.000000	65.582847 
7203.000000	65.440750 
7202.000000	65.173959 
7201.000000	64.823341 
7200.000000	64.442515 
7199.000000	64.085769 
7198.000000	63.793325 
7197.000000	63.584017 
7196.000000	63.452672 
7195.000000	63.376855 
7194.000000	63.326859 
7193.000000	63.279151 
7192.000000	63.225579 
7191.000000	63.177967 
7190.000000	63.162231 
7189.000000	63.210439 
7188.000000	63.345456 
7187.000000	63.571977 
7186.000000	63.871955 
7185.000000	64.203333 
7184.000000	64.512395 
7183.000000	64.739060 
7182.000000	64.832377 
7181.000000	64.759993 
7180.000000	64.516115 
7179.000000	64.123988 
7178.000000	63.630294 
7177.000000	63.099145 
7176.000000	62.598276 
7175.000000	62.190723 
7174.000000	61.923813 
7173.000000	61.824774 
7172.000000	61.898159 
7171.000000	62.126970 
7170.000000	62.476587 
7169.000000	62.900900 
7168.000000	63.348937 
7167.000000	63.768434 
7166.000000	64.112782 
7165.000000	64.344882 
7164.000000	64.442157 
7163.000000	64.395999 
7162.000000	64.214992 
7161.000000	63.923954 
7160.000000	63.560461 
7159.000000	63.172483 
7158.000000	62.807464 
7157.000000	62.510848 
7156.000000	62.311720 
7155.000000	62.220215 
7154.000000	62.225461 
7153.000000	62.298822 
7152.000000	62.405133 
7151.000000	62.510514 
7150.000000	62.594032 
7149.000000	62.649512 
7148.000000	62.688803 
7147.000000	62.734174 
7146.000000	62.811255 
7145.000000	62.938308 
7144.000000	63.118624 
7143.000000	63.337254 
7142.000000	63.566732 
7141.000000	63.773655 
7140.000000	63.928055 
7139.000000	64.011120 
7138.000000	64.020299 
7137.000000	63.969421 
7136.000000	63.884067 
7135.000000	63.795971 
7134.000000	63.731193 
7133.000000	63.708758 
7132.000000	63.738131 
7131.000000	63.819599 
7130.000000	63.950371 
7129.000000	64.122295 
7128.000000	64.325547 
7127.000000	64.546275 
7126.000000	64.770174 
7125.000000	64.978361 
7124.000000	65.148305 
7123.000000	65.257668 
7122.000000	65.287351 
7121.000000	65.230083 
7120.000000	65.093851 
7119.000000	64.902639 
7118.000000	64.692735 
7117.000000	64.506816 
7116.000000	64.384436 
7115.000000	64.353060 
7114.000000	64.421153 
7113.000000	64.575958 
7112.000000	64.786243 
7111.000000	65.009760 
7110.000000	65.203475 
7109.000000	65.331649 
7108.000000	65.376448 
7107.000000	65.336847 
7106.000000	65.233588 
7105.000000	65.101313 
7104.000000	64.983201 
7103.000000	64.921355 
7102.000000	64.945459 
7101.000000	65.069603 
7100.000000	65.282368 
7099.000000	65.554976 
7098.000000	65.838241 
7097.000000	66.075730 
7096.000000	66.212654 
7095.000000	66.208624 
7094.000000	66.047525 
7093.000000	65.741038 
7092.000000	65.330982 
7091.000000	64.880752 
7090.000000	64.464020 
7089.000000	64.149117 
7088.000000	63.985443 
7087.000000	63.993287 
7086.000000	64.163613 
7085.000000	64.461231 
7084.000000	64.831447 
7083.000000	65.214157 
7082.000000	65.556859 
7081.000000	65.825033 
7080.000000	66.000151 
7079.000000	66.084980 
7078.000000	66.097998 
7077.000000	66.067075 
7076.000000	66.017985 
7075.000000	65.971589 
7074.000000	65.939760 
7073.000000	65.928149 
7072.000000	65.939092 
7071.000000	65.976905 
7070.000000	66.050672 
7069.000000	66.175198 
7068.000000	66.368174 
7067.000000	66.643548 
7066.000000	67.005109 
7065.000000	67.437839 
7064.000000	67.905688 
7063.000000	68.353700 
7062.000000	68.715262 
7061.000000	68.926072 
7060.000000	68.935108 
7059.000000	68.712282 
7058.000000	68.253540 
7057.000000	67.589402 
7056.000000	66.774773 
7055.000000	65.877151 
7054.000000	64.965105 
7053.000000	64.101362 
7052.000000	63.334035 
7051.000000	62.693858 
7050.000000	62.196803 
7049.000000	61.843538 
7048.000000	61.630940 
7047.000000	61.554479 
7046.000000	61.610865 
7045.000000	61.790132 
7044.000000	62.076544 
7043.000000	62.440800 
7042.000000	62.840843 
7041.000000	63.219285 
7040.000000	63.518500 
7039.000000	63.689684 
7038.000000	63.705158 
7037.000000	63.564968 
7036.000000	63.304018 
7035.000000	62.988042 
7034.000000	62.701368 
7033.000000	62.532329 
7032.000000	62.560462 
7031.000000	62.839007 
7030.000000	63.387012 
7029.000000	64.179873 
7028.000000	65.155720 
7027.000000	66.219162 
7026.000000	67.261028 
7025.000000	68.171048 
7024.000000	68.855190 
7023.000000	69.250059 
7022.000000	69.334840 
7021.000000	69.128584 
7020.000000	68.685913 
7019.000000	68.081688 
7018.000000	67.405915 
7017.000000	66.735100 
7016.000000	66.128325 
7015.000000	65.612125 
7014.000000	65.190410 
7013.000000	64.841842 
7012.000000	64.536118 
7011.000000	64.242959 
7010.000000	63.944649 
7009.000000	63.639307 
7008.000000	63.341712 
7007.000000	63.075780 
7006.000000	62.867712 
7005.000000	62.739133 
7004.000000	62.700414 
7003.000000	62.746715 
7002.000000	62.857794 
7001.000000	63.002443 
7000.000000	63.143634 
6999.000000	63.245701 
6998.000000	63.280749 
6997.000000	63.233757 
6996.000000	63.104271 
6995.000000	62.901163 
6994.000000	62.644338 
6993.000000	62.360095 
6992.000000	62.078332 
6991.000000	61.823654 
6990.000000	61.620903 
6989.000000	61.491203 
6988.000000	61.454629 
6987.000000	61.526966 
6986.000000	61.719036 
6985.000000	62.031960 
6984.000000	62.456393 
6983.000000	62.970066 
6982.000000	63.535261 
6981.000000	64.101529 
6980.000000	64.613580 
6979.000000	65.020036 
6978.000000	65.280723 
6977.000000	65.375590 
6976.000000	65.312004 
6975.000000	65.122842 
6974.000000	64.860343 
6973.000000	64.583849 
6972.000000	64.353370 
6971.000000	64.211559 
6970.000000	64.180707 
6969.000000	64.253354 
6968.000000	64.402508 
6967.000000	64.581990 
6966.000000	64.742088 
6965.000000	64.836668 
6964.000000	64.834213 
6963.000000	64.721989 
6962.000000	64.505982 
6961.000000	64.208674 
6960.000000	63.861989 
6959.000000	63.501024 
6958.000000	63.156628 
6957.000000	62.854146 
6956.000000	62.611436 
6955.000000	62.441945 
6954.000000	62.356233 
6953.000000	62.360978 
6952.000000	62.459063 
6951.000000	62.648797 
6950.000000	62.922763 
6949.000000	63.260602 
6948.000000	63.633465 
6947.000000	64.008045 
6946.000000	64.352011 
6945.000000	64.636635 
6944.000000	64.842677 
6943.000000	64.965009 
6942.000000	65.009570 
6941.000000	64.992761 
6940.000000	64.933943 
6939.000000	64.850878 
6938.000000	64.756679 
6937.000000	64.660358 
6936.000000	64.567399 
6935.000000	64.483356 
6934.000000	64.415097 
6933.000000	64.374375 
6932.000000	64.370751 
6931.000000	64.408922 
6930.000000	64.486193 
6929.000000	64.591407 
6928.000000	64.704227 
6927.000000	64.798092 
6926.000000	64.849066 
6925.000000	64.839315 
6924.000000	64.759707 
6923.000000	64.609670 
6922.000000	64.397120 
6921.000000	64.134335 
6920.000000	63.835263 
6919.000000	63.512802 
6918.000000	63.177084 
6917.000000	62.837457 
6916.000000	62.505459 
6915.000000	62.195444 
6914.000000	61.922454 
6913.000000	61.704039 
6912.000000	61.554169 
6911.000000	61.485671 
6910.000000	61.500358 
6909.000000	61.599040 
6908.000000	61.776089 
6907.000000	62.027764 
6906.000000	62.348556 
6905.000000	62.733554 
6904.000000	63.174033 
6903.000000	63.656234 
6902.000000	64.158725 
6901.000000	64.653110 
6900.000000	65.106129 
6899.000000	65.485906 
6898.000000	65.766596 
6897.000000	65.934705 
6896.000000	65.989565 
6895.000000	65.945506 
6894.000000	65.825796 
6893.000000	65.659976 
6892.000000	65.475320 
6891.000000	65.295338 
6890.000000	65.134382 
6889.000000	64.999675 
6888.000000	64.891815 
6887.000000	64.811110 
6886.000000	64.757919 
6885.000000	64.734697 
6884.000000	64.745211 
6883.000000	64.791750 
6882.000000	64.874124 
6881.000000	64.985060 
6880.000000	65.113782 
6879.000000	65.245652 
6878.000000	65.368008 
6877.000000	65.471935 
6876.000000	65.555310 
6875.000000	65.621781 
6874.000000	65.677547 
6873.000000	65.727400 
6872.000000	65.768861 
6871.000000	65.790963 
6870.000000	65.778684 
6869.000000	65.716385 
6868.000000	65.592598 
6867.000000	65.404534 
6866.000000	65.163969 
6865.000000	64.893603 
6864.000000	64.623546 
6863.000000	64.382982 
6862.000000	64.193391 
6861.000000	64.063763 
6860.000000	63.988709 
6859.000000	63.952970 
6858.000000	63.934373 
6857.000000	63.915133 
6856.000000	63.884305 
6855.000000	63.846564 
6854.000000	63.818907 
6853.000000	63.827824 
6852.000000	63.897895 
6851.000000	64.047694 
6850.000000	64.281678 
6849.000000	64.586925 
6848.000000	64.933633 
6847.000000	65.278744 
6846.000000	65.573930 
6845.000000	65.774536 
6844.000000	65.848541 
6843.000000	65.781116 
6842.000000	65.578246 
6841.000000	65.266180 
6840.000000	64.886713 
6839.000000	64.488482 
6838.000000	64.119601 
6837.000000	63.822722 
6836.000000	63.626670 
6835.000000	63.545680 
6834.000000	63.574552 
6833.000000	63.696360 
6832.000000	63.878870 
6831.000000	64.080452 
6830.000000	64.255952 
6829.000000	64.361977 
6828.000000	64.367270 
6827.000000	64.255523 
6826.000000	64.032363 
6825.000000	63.721871 
6824.000000	63.365578 
6823.000000	63.013601 
6822.000000	62.715864 
6821.000000	62.512087 
6820.000000	62.428283 
6819.000000	62.473320 
6818.000000	62.637734 
6817.000000	62.897849 
6816.000000	63.221263 
6815.000000	63.574504 
6814.000000	63.925218 
6813.000000	64.249610 
6812.000000	64.534139 
6811.000000	64.776372 
6810.000000	64.980959 
6809.000000	65.155625 
6808.000000	65.307450 
6807.000000	65.437936 
6806.000000	65.545606 
6805.000000	65.622639 
6804.000000	65.660715 
6803.000000	65.651750 
6802.000000	65.596508 
6801.000000	65.500450 
6800.000000	65.376448 
6799.000000	65.238785 
6798.000000	65.102624 
6797.000000	64.975595 
6796.000000	64.857244 
6795.000000	64.738130 
6794.000000	64.604377 
6793.000000	64.442801 
6792.000000	64.246654 
6791.000000	64.021301 
6790.000000	63.784098 
6789.000000	63.559579 
6788.000000	63.372898 
6787.000000	63.243174 
6786.000000	63.176774 
6785.000000	63.164997 
6784.000000	63.185191 
6783.000000	63.204336 
6782.000000	63.189435 
6781.000000	63.116073 
6780.000000	62.977051 
6779.000000	62.779140 
6778.000000	62.549161 
6777.000000	62.324547 
6776.000000	62.149429 
6775.000000	62.061452 
6774.000000	62.086009 
6773.000000	62.229704 
6772.000000	62.478661 
6771.000000	62.801885 
6770.000000	63.156270 
6769.000000	63.495635 
6768.000000	63.779115 
6767.000000	63.979005 
6766.000000	64.085459 
6765.000000	64.107108 
6764.000000	64.070630 
6763.000000	64.013075 
6762.000000	63.975000 
6761.000000	63.988137 
6760.000000	64.071941 
6759.000000	64.223432 
6758.000000	64.420270 
6757.000000	64.622092 
6756.000000	64.780545 
6755.000000	64.851355 
6754.000000	64.804816 
6753.000000	64.636397 
6752.000000	64.367961 
6751.000000	64.045548 
6750.000000	63.728165 
6749.000000	63.474798 
6748.000000	63.332104 
6747.000000	63.320922 
6746.000000	63.432431 
6745.000000	63.631081 
6744.000000	63.865518 
6743.000000	64.081907 
6742.000000	64.237666 
6741.000000	64.312005 
6740.000000	64.308524 
6739.000000	64.253091 
6738.000000	64.182853 
6737.000000	64.132690 
6736.000000	64.122104 
6735.000000	64.150929 
6734.000000	64.196491 
6733.000000	64.221525 
6732.000000	64.183282 
6731.000000	64.047122 
6730.000000	63.798165 
6729.000000	63.445329 
6728.000000	63.025283 
6727.000000	62.591814 
6726.000000	62.209701 
6725.000000	61.936140 
6724.000000	61.814379 
6723.000000	61.864042 
6722.000000	62.078881 
6721.000000	62.429785 
6720.000000	62.869668 
6719.000000	63.341927 
6718.000000	63.791728 
6717.000000	64.174175 
6716.000000	64.460229 
6715.000000	64.637184 
6714.000000	64.708685 
6713.000000	64.689517 
6712.000000	64.600396 
6711.000000	64.462018 
6710.000000	64.291477 
6709.000000	64.100313 
6708.000000	63.898444 
6707.000000	63.694453 
6706.000000	63.499999 
6705.000000	63.327932 
6704.000000	63.190460 
6703.000000	63.096308 
6702.000000	63.047337 
6701.000000	63.039374 
6700.000000	63.058948 
6699.000000	63.091588 
6698.000000	63.121557 
6697.000000	63.142108 
6696.000000	63.154625 
6695.000000	63.172674 
6694.000000	63.216948 
6693.000000	63.309526 
6692.000000	63.465237 
6691.000000	63.686251 
6690.000000	63.959121 
6689.000000	64.255309 
6688.000000	64.537429 
6687.000000	64.764714 
6686.000000	64.902186 
6685.000000	64.927864 
6684.000000	64.838171 
6683.000000	64.645695 
6682.000000	64.377403 
6681.000000	64.069271 
6680.000000	63.760471 
6679.000000	63.488960 
6678.000000	63.285136 
6677.000000	63.170099 
6676.000000	63.151168 
6675.000000	63.224339 
6674.000000	63.372898 
6673.000000	63.570141 
6672.000000	63.784408 
6671.000000	63.979697 
6670.000000	64.127612 
6669.000000	64.208602 
6668.000000	64.220285 
6667.000000	64.175629 
6666.000000	64.100527 
6665.000000	64.026975 
6664.000000	63.983559 
6663.000000	63.989877 
6662.000000	64.046835 
6661.000000	64.137530 
6660.000000	64.230775 
6659.000000	64.290952 
6658.000000	64.287066 
6657.000000	64.202690 
6656.000000	64.041733 
6655.000000	63.828492 
6654.000000	63.603115 
6653.000000	63.409805 
6652.000000	63.285994 
6651.000000	63.249588 
6650.000000	63.294053 
6649.000000	63.388252 
6648.000000	63.485217 
6647.000000	63.534712 
6646.000000	63.496279 
6645.000000	63.352847 
6644.000000	63.112092 
6643.000000	62.810325 
6642.000000	62.500047 
6641.000000	62.242102 
6640.000000	62.086129 
6639.000000	62.065792 
6638.000000	62.189960 
6637.000000	62.445116 
6636.000000	62.799835 
6635.000000	63.213801 
6634.000000	63.646841 
6633.000000	64.064908 
6632.000000	64.444112 
6631.000000	64.769911 
6630.000000	65.034651 
6629.000000	65.235567 
6628.000000	65.371012 
6627.000000	65.440320 
6626.000000	65.441727 
6625.000000	65.379786 
6624.000000	65.260887 
6623.000000	65.095806 
6622.000000	64.894676 
6621.000000	64.670419 
6620.000000	64.433193 
6619.000000	64.189267 
6618.000000	63.943266 
6617.000000	63.698983 
6616.000000	63.464403 
6615.000000	63.251829 
6614.000000	63.079023 
6613.000000	62.965750 
6612.000000	62.929177 
6611.000000	62.977957 
6610.000000	63.107490 
6609.000000	63.296890 
6608.000000	63.513636 
6607.000000	63.719010 
6606.000000	63.877487 
6605.000000	63.963794 
6604.000000	63.974499 
6603.000000	63.929033 
6602.000000	63.863182 
6601.000000	63.819956 
6600.000000	63.841366 
6599.000000	63.956046 
6598.000000	64.171195 
6597.000000	64.469718 
6596.000000	64.815139 
6595.000000	65.159893 
6594.000000	65.459489 
6593.000000	65.681600 
6592.000000	65.811705 
6591.000000	65.855836 
6590.000000	65.839052 
6589.000000	65.793871 
6588.000000	65.749907 
6587.000000	65.725278 
6586.000000	65.725898 
6585.000000	65.740418 
6584.000000	65.749263 
6583.000000	65.726613 
6582.000000	65.653562 
6581.000000	65.515971 
6580.000000	65.310359 
6579.000000	65.040326 
6578.000000	64.716076 
6577.000000	64.351701 
6576.000000	63.964200 
6575.000000	63.571262 
6574.000000	63.192152 
6573.000000	62.847876 
6572.000000	62.562632 
6571.000000	62.358379 
6570.000000	62.256717 
6569.000000	62.273383 
6568.000000	62.419390 
6567.000000	62.693023 
6566.000000	63.083243 
6565.000000	63.567042 
6564.000000	64.112687 
6563.000000	64.680528 
6562.000000	65.227794 
6561.000000	65.713453 
6560.000000	66.101980 
6559.000000	66.367173 
6558.000000	66.496300 
6557.000000	66.492414 
6556.000000	66.373634 
6555.000000	66.172480 
6554.000000	65.927410 
6553.000000	65.677881 
6552.000000	65.457296 
6551.000000	65.289926 
6550.000000	65.186071 
6549.000000	65.143084 
6548.000000	65.148138 
6547.000000	65.183353 
6546.000000	65.227079 
6545.000000	65.260910 
6544.000000	65.271782 
6543.000000	65.257143 
6542.000000	65.222549 
6541.000000	65.182423 
6540.000000	65.155267 
6539.000000	65.159058 
6538.000000	65.206789 
6537.000000	65.300798 
6536.000000	65.432214 
6535.000000	65.580463 
6534.000000	65.719342 
6533.000000	65.821003 
6532.000000	65.861797 
6531.000000	65.829730 
6530.000000	65.728235 
6529.000000	65.574908 
6528.000000	65.397000 
6527.000000	65.226459 
6526.000000	65.092563 
6525.000000	65.015983 
6524.000000	65.004873 
6523.000000	65.055751 
6522.000000	65.155839 
6521.000000	65.287995 
6520.000000	65.434598 
6519.000000	65.580129 
6518.000000	65.712690 
6517.000000	65.823149 
6516.000000	65.905141 
6515.000000	65.953803 
6514.000000	65.966129 
6513.000000	65.940999 
6512.000000	65.880155 
6511.000000	65.789675 
6510.000000	65.679693 
6509.000000	65.563988 
6508.000000	65.458273 
6507.000000	65.378332 
6506.000000	65.337014 
6505.000000	65.341448 
6504.000000	65.392255 
6503.000000	65.483498 
6502.000000	65.603303 
6501.000000	65.736389 
6500.000000	65.865540 
6499.000000	65.974235 
6498.000000	66.048407 
6497.000000	66.078567 
6496.000000	66.058921 
6495.000000	65.988087 
6494.000000	65.869855 
6493.000000	65.712785 
6492.000000	65.529561 
6491.000000	65.335464 
6490.000000	65.147471 
6489.000000	64.981293 
6488.000000	64.850783 
6487.000000	64.764499 
6486.000000	64.724540 
6485.000000	64.725470 
6484.000000	64.755725 
6483.000000	64.799809 
6482.000000	64.839696 
6481.000000	64.860725 
6480.000000	64.852547 
6479.000000	64.814043 
6478.000000	64.750933 
6477.000000	64.677333 
6476.000000	64.609837 
6475.000000	64.567160 
6474.000000	64.564919 
6473.000000	64.613413 
6472.000000	64.714741 
6471.000000	64.863109 
6470.000000	65.045952 
6469.000000	65.244770 
6468.000000	65.438437 
6467.000000	65.605926 
6466.000000	65.729618 
6465.000000	65.798234 
6464.000000	65.808272 
6463.000000	65.764236 
6462.000000	65.677237 
6461.000000	65.564489 
6460.000000	65.443897 
6459.000000	65.331602 
6458.000000	65.237617 
6457.000000	65.165972 
6456.000000	65.114164 
6455.000000	65.074825 
6454.000000	65.040802 
6453.000000	65.007114 
6452.000000	64.975762 
6451.000000	64.954400 
6450.000000	64.956688 
6449.000000	64.996194 
6448.000000	65.084433 
6447.000000	65.225601 
6446.000000	65.415096 
6445.000000	65.638494 
6444.000000	65.875840 
6443.000000	66.105246 
6442.000000	66.307258 
6441.000000	66.467118 
6440.000000	66.577291 
6439.000000	66.634798 
6438.000000	66.637992 
6437.000000	66.582608 
6436.000000	66.462707 
6435.000000	66.269969 
6434.000000	65.997886 
6433.000000	65.645337 
6432.000000	65.222430 
6431.000000	64.751648 
6430.000000	64.266562 
6429.000000	63.809132 
6428.000000	63.419580 
6427.000000	63.134407 
6426.000000	62.977361 
6425.000000	62.959456 
6424.000000	63.072991 
6423.000000	63.299179 
6422.000000	63.610267 
6421.000000	63.975024 
6420.000000	64.359903 
6419.000000	64.735651 
6418.000000	65.077662 
6417.000000	65.368008 
6416.000000	65.594220 
6415.000000	65.753889 
6414.000000	65.853500 
6413.000000	65.908885 
6412.000000	65.941476 
6411.000000	65.977334 
6410.000000	66.039371 
6409.000000	66.145491 
6408.000000	66.300153 
6407.000000	66.494297 
6406.000000	66.703104 
6405.000000	66.895818 
6404.000000	67.037177 
6403.000000	67.097020 
6402.000000	67.053818 
6401.000000	66.904449 
6400.000000	66.658687 
6399.000000	66.336655 
6398.000000	65.964818 
6397.000000	65.572667 
6396.000000	65.186738 
6395.000000	64.828133 
6394.000000	64.511394 
6393.000000	64.246797 
6392.000000	64.037203 
6391.000000	63.880634 
6390.000000	63.768553 
6389.000000	63.687729 
6388.000000	63.624477 
6387.000000	63.567900 
6386.000000	63.510727 
6385.000000	63.452124 
6384.000000	63.399362 
6383.000000	63.367295 
6382.000000	63.372445 
6381.000000	63.430500 
6380.000000	63.550686 
6379.000000	63.734030 
6378.000000	63.970208 
6377.000000	64.241147 
6376.000000	64.524006 
6375.000000	64.796423 
6374.000000	65.040159 
6373.000000	65.244221 
6372.000000	65.405535 
6371.000000	65.527677 
6370.000000	65.618348 
6369.000000	65.686368 
6368.000000	65.739250 
6367.000000	65.782189 
6366.000000	65.819764 
6365.000000	65.853142 
6364.000000	65.882086 
6363.000000	65.905523 
6362.000000	65.923810 
6361.000000	65.935921 
6360.000000	65.940332 
6359.000000	65.936207 
6358.000000	65.924096 
6357.000000	65.905880 
6356.000000	65.884780 
6355.000000	65.865778 
6354.000000	65.853548 
6353.000000	65.851807 
6352.000000	65.860724 
6351.000000	65.876007 
6350.000000	65.889859 
6349.000000	65.892982 
6348.000000	65.877389 
6347.000000	65.838289 
6346.000000	65.776467 
6345.000000	65.699815 
6344.000000	65.619611 
6343.000000	65.547609 
6342.000000	65.492200 
6341.000000	65.456151 
6340.000000	65.435504 
6339.000000	65.420103 
6338.000000	65.399408 
6337.000000	65.366053 
6336.000000	65.320658 
6335.000000	65.272188 
6334.000000	65.237021 
6333.000000	65.234088 
6332.000000	65.278339 
6331.000000	65.375161 
6330.000000	65.517544 
6329.000000	65.686058 
6328.000000	65.853047 
6327.000000	65.988302 
6326.000000	66.067123 
6325.000000	66.075539 
6324.000000	66.014266 
6323.000000	65.897345 
6322.000000	65.747117 
6321.000000	65.589547 
6320.000000	65.447568 
6319.000000	65.337514 
6318.000000	65.266847 
6317.000000	65.235185 
6316.000000	65.237259 
6315.000000	65.265750 
6314.000000	65.315628 
6313.000000	65.383529 
6312.000000	65.466713 
6311.000000	65.563035 
6310.000000	65.668749 
6309.000000	65.776467 
6308.000000	65.874338 
6307.000000	65.948629 
6306.000000	65.986061 
6305.000000	65.976810 
6304.000000	65.917348 
6303.000000	65.810608 
6302.000000	65.666723 
6301.000000	65.501904 
6300.000000	65.336656 
6299.000000	65.191793 
6298.000000	65.086221 
6297.000000	65.034461 
6296.000000	65.044021 
6295.000000	65.115809 
6294.000000	65.241408 
6293.000000	65.406322 
6292.000000	65.588092 
6291.000000	65.760278 
6290.000000	65.893912 
6289.000000	65.964102 
6288.000000	65.950250 
6287.000000	65.840482 
6286.000000	65.632319 
6285.000000	65.334534 
6284.000000	64.964413 
6283.000000	64.546108 
6282.000000	64.108204 
6281.000000	63.680934 
6280.000000	63.296127 
6279.000000	62.984657 
6278.000000	62.773704 
6277.000000	62.683534 
6276.000000	62.724328 
6275.000000	62.893819 
6274.000000	63.173770 
6273.000000	63.533186 
6272.000000	63.928723 
6271.000000	64.315390 
6270.000000	64.649868 
6269.000000	64.902663 
6268.000000	65.060901 
6267.000000	65.131497 
6266.000000	65.138268 
6265.000000	65.113234 
6264.000000	65.088248 
6263.000000	65.085721 
6262.000000	65.115690 
6261.000000	65.173053 
6260.000000	65.244126 
6259.000000	65.309190 
6258.000000	65.352821 
6257.000000	65.363502 
6256.000000	65.337991 
6255.000000	65.278530 
6254.000000	65.191721 
6253.000000	65.086102 
6252.000000	64.970397 
6251.000000	64.854741 
6250.000000	64.749813 
6249.000000	64.666581 
6248.000000	64.614582 
6247.000000	64.602160 
6246.000000	64.632916 
6245.000000	64.702868 
6244.000000	64.800882 
6243.000000	64.907407 
6242.000000	65.001654 
6241.000000	65.065860 
6240.000000	65.091156 
6239.000000	65.078186 
6238.000000	65.038275 
6237.000000	64.990854 
6236.000000	64.956641 
6235.000000	64.951133 
6234.000000	64.980745 
6233.000000	65.041732 
6232.000000	65.120434 
6231.000000	65.198898 
6230.000000	65.257215 
6229.000000	65.279340 
6228.000000	65.256190 
6227.000000	65.187740 
6226.000000	65.082764 
6225.000000	64.956426 
6224.000000	64.827084 
6223.000000	64.712405 
6222.000000	64.626455 
6221.000000	64.577174 
6220.000000	64.566183 
6219.000000	64.588713 
6218.000000	64.635777 
6217.000000	64.695882 
6216.000000	64.756870 
6215.000000	64.808487 
6214.000000	64.843225 
6213.000000	64.857816 
6212.000000	64.852380 
6211.000000	64.830303 
6210.000000	64.796066 
6209.000000	64.755201 
6208.000000	64.712905 
6207.000000	64.674353 
6206.000000	64.644169 
6205.000000	64.626765 
6204.000000	64.626669 
6203.000000	64.647197 
6202.000000	64.689588 
6201.000000	64.752244 
6200.000000	64.830517 
6199.000000	64.916610 
6198.000000	65.000271 
6197.000000	65.070128 
6196.000000	65.115141 
6195.000000	65.125656 
6194.000000	65.095019 
6193.000000	65.020751 
6192.000000	64.906024 
6191.000000	64.758491 
6190.000000	64.591383 
6189.000000	64.421176 
6188.000000	64.267301 
6187.000000	64.148926 
6186.000000	64.083218 
6185.000000	64.081764 
6184.000000	64.149332 
6183.000000	64.282202 
6182.000000	64.468908 
6181.000000	64.691019 
6180.000000	64.926910 
6179.000000	65.153837 
6178.000000	65.352988 
6177.000000	65.511655 
6176.000000	65.624237 
6175.000000	65.691566 
6174.000000	65.720033 
6173.000000	65.719032 
6172.000000	65.699625 
6171.000000	65.672254 
6170.000000	65.646004 
6169.000000	65.626907 
6168.000000	65.616965 
6167.000000	65.614080 
6166.000000	65.613746 
6165.000000	65.610194 
6164.000000	65.599060 
6163.000000	65.578007 
6162.000000	65.547275 
6161.000000	65.509700 
6160.000000	65.468740 
6159.000000	65.429639 
6158.000000	65.395545 
6157.000000	65.371417 
6156.000000	65.362787 
6155.000000	65.377163 
6154.000000	65.422987 
6153.000000	65.507149 
6152.000000	65.633225 
6151.000000	65.797162 
6150.000000	65.986251 
6149.000000	66.179561 
6148.000000	66.351628 
6147.000000	66.476988 
6146.000000	66.535830 
6145.000000	66.522192 
6144.000000	66.446113 
6143.000000	66.332340 
6142.000000	66.213607 
6141.000000	66.123723 
6140.000000	66.087245 
6139.000000	66.113352 
6138.000000	66.191959 
6137.000000	66.298151 
6136.000000	66.397428 
6135.000000	66.456532 
6134.000000	66.450905 
6133.000000	66.371011 
6132.000000	66.224169 
6131.000000	66.030454 
6130.000000	65.819048 
6129.000000	65.619468 
6128.000000	65.456819 
6127.000000	65.346002 
6126.000000	65.290641 
6125.000000	65.285062 
6124.000000	65.316128 
6123.000000	65.368914 
6122.000000	65.427565 
6121.000000	65.478396 
6120.000000	65.509629 
6119.000000	65.511775 
6118.000000	65.477705 
6117.000000	65.402841 
6116.000000	65.285873 
6115.000000	65.129446 
6114.000000	64.941668 
6113.000000	64.735102 
6112.000000	64.526700 
6111.000000	64.334321 
6110.000000	64.173555 
6109.000000	64.054751 
6108.000000	63.982009 
6107.000000	63.952255 
6106.000000	63.955354 
6105.000000	63.977932 
6104.000000	64.004635 
6103.000000	64.023947 
6102.000000	64.028596 
6101.000000	64.019107 
6100.000000	64.000415 
6099.000000	63.983368 
6098.000000	63.979244 
6097.000000	63.999366 
6096.000000	64.051342 
6095.000000	64.137244 
6094.000000	64.252758 
6093.000000	64.387536 
6092.000000	64.527511 
6091.000000	64.656949 
6090.000000	64.762115 
6089.000000	64.833426 
6088.000000	64.867997 
6087.000000	64.870691 
6086.000000	64.853239 
6085.000000	64.832973 
6084.000000	64.827966 
6083.000000	64.852762 
6082.000000	64.913725 
6081.000000	65.009737 
6080.000000	65.130090 
6079.000000	65.257239 
6078.000000	65.370321 
6077.000000	65.451741 
6076.000000	65.489172 
6075.000000	65.478181 
6074.000000	65.422821 
6073.000000	65.333914 
6072.000000	65.226697 
6071.000000	65.117645 
6070.000000	65.020203 
6069.000000	64.942860 
6068.000000	64.887237 
6067.000000	64.849638 
6066.000000	64.822292 
6065.000000	64.796710 
6064.000000	64.765906 
6063.000000	64.727067 
6062.000000	64.681744 
6061.000000	64.636230 
6060.000000	64.600539 
6059.000000	64.586424 
6058.000000	64.602875 
6057.000000	64.654874 
6056.000000	64.741563 
6055.000000	64.857029 
6054.000000	64.990544 
6053.000000	65.129613 
6052.000000	65.263080 
6051.000000	65.382027 
6050.000000	65.482211 
6049.000000	65.560770 
6048.000000	65.615773 
6047.000000	65.643787 
6046.000000	65.639710 
6045.000000	65.598630 
6044.000000	65.517711 
6043.000000	65.399861 
6042.000000	65.255761 
6041.000000	65.103316 
6040.000000	64.965367 
6039.000000	64.865279 
6038.000000	64.821934 
6037.000000	64.843249 
6036.000000	64.923620 
6035.000000	65.044260 
6034.000000	65.177440 
6033.000000	65.291953 
6032.000000	65.360951 
6031.000000	65.368103 
6030.000000	65.311694 
6029.000000	65.203046 
6028.000000	65.064930 
6027.000000	64.924025 
6026.000000	64.806389 
6025.000000	64.732217 
6024.000000	64.711928 
6023.000000	64.745879 
6022.000000	64.824700 
6021.000000	64.933848 
6020.000000	65.055847 
6019.000000	65.173768 
6018.000000	65.275216 
6017.000000	65.353083 
6016.000000	65.407037 
6015.000000	65.440607 
6014.000000	65.460848 
6013.000000	65.475344 
6012.000000	65.491127 
6011.000000	65.513157 
6010.000000	65.544319 
6009.000000	65.585517 
6008.000000	65.636730 
6007.000000	65.697693 
6006.000000	65.768432 
6005.000000	65.848565 
6004.000000	65.937113 
6003.000000	66.030669 
6002.000000	66.123223 
6001.000000	66.205430 
6000.000000	66.266179 
5999.000000	66.294169 
5998.000000	66.281032 
5997.000000	66.223406 
5996.000000	66.125869 
5995.000000	65.999484 
5994.000000	65.859985 
5993.000000	65.724968 
5992.000000	65.610980 
5991.000000	65.529894 
5990.000000	65.487051 
5989.000000	65.480637 
5988.000000	65.502762 
5987.000000	65.542244 
5986.000000	65.587735 
5985.000000	65.629339 
5984.000000	65.659880 
5983.000000	65.675187 
5982.000000	65.673613 
5981.000000	65.655303 
5980.000000	65.621495 
5979.000000	65.574216 
5978.000000	65.516567 
5977.000000	65.453314 
5976.000000	65.391039 
5975.000000	65.338253 
5974.000000	65.304231 
5973.000000	65.296411 
5972.000000	65.319752 
5971.000000	65.375518 
5970.000000	65.460968 
5969.000000	65.568709 
5968.000000	65.688848 
5967.000000	65.810799 
5966.000000	65.924263 
5965.000000	66.021180 
5964.000000	66.095137 
5963.000000	66.141319 
5962.000000	66.156959 
5961.000000	66.141295 
5960.000000	66.096806 
5959.000000	66.029095 
5958.000000	65.948271 
5957.000000	65.867877 
5956.000000	65.804100 
5955.000000	65.772843 
5954.000000	65.786314 
5953.000000	65.849423 
5952.000000	65.957808 
5951.000000	66.097140 
5950.000000	66.245865 
5949.000000	66.378712 
5948.000000	66.471600 
5947.000000	66.506314 
5946.000000	66.474676 
5945.000000	66.379642 
5944.000000	66.233849 
5943.000000	66.057252 
5942.000000	65.872097 
5941.000000	65.699911 
5940.000000	65.559220 
5939.000000	65.461683 
5938.000000	65.412807 
5937.000000	65.409755 
5936.000000	65.444445 
5935.000000	65.502429 
5934.000000	65.566039 
5933.000000	65.616679 
5932.000000	65.637993 
5931.000000	65.618824 
5930.000000	65.554738 
5929.000000	65.450358 
5928.000000	65.318322 
5927.000000	65.178203 
5926.000000	65.052461 
5925.000000	64.962935 
5924.000000	64.926052 
5923.000000	64.950084 
5922.000000	65.032744 
5921.000000	65.161871 
5920.000000	65.317082 
5919.000000	65.474152 
5918.000000	65.608930 
5917.000000	65.701866 
5916.000000	65.740895 
5915.000000	65.722250 
5914.000000	65.650844 
5913.000000	65.537571 
5912.000000	65.397548 
5911.000000	65.247511 
5910.000000	65.102672 
5909.000000	64.975166 
5908.000000	64.873170 
5907.000000	64.801979 
5906.000000	64.762902 
5905.000000	64.754509 
5904.000000	64.772605 
5903.000000	64.811182 
5902.000000	64.863038 
5901.000000	64.920663 
5900.000000	64.976382 
5899.000000	65.023565 
5898.000000	65.058112 
5897.000000	65.079259 
5896.000000	65.089130 
5895.000000	65.092134 
5894.000000	65.093851 
5893.000000	65.099358 
5892.000000	65.112614 
5891.000000	65.134882 
5890.000000	65.164613 
5889.000000	65.197610 
5888.000000	65.229129 
5887.000000	65.254044 
5886.000000	65.268373 
5885.000000	65.269947 
5884.000000	65.258812 
5883.000000	65.237426 
5882.000000	65.209627 
5881.000000	65.180540 
5880.000000	65.155816 
5879.000000	65.139627 
5878.000000	65.133881 
5877.000000	65.137672 
5876.000000	65.147590 
5875.000000	65.157175 
5874.000000	65.158319 
5873.000000	65.141773 
5872.000000	65.099477 
5871.000000	65.026092 
5870.000000	64.921498 
5869.000000	64.790248 
5868.000000	64.643359 
5867.000000	64.496636 
5866.000000	64.369583 
5865.000000	64.280962 
5864.000000	64.246392 
5863.000000	64.275121 
5862.000000	64.367914 
5861.000000	64.515972 
5860.000000	64.702701 
5859.000000	64.905548 
5858.000000	65.101099 
5857.000000	65.268492 
5856.000000	65.393877 
5855.000000	65.471649 
5854.000000	65.504884 
5853.000000	65.503478 
5852.000000	65.479516 
5851.000000	65.443825 
5850.000000	65.402746 
5849.000000	65.357708 
5848.000000	65.305113 
5847.000000	65.239071 
5846.000000	65.154910 
5845.000000	65.052008 
5844.000000	64.935088 
5843.000000	64.813637 
5842.000000	64.699220 
5841.000000	64.602923 
5840.000000	64.531517 
5839.000000	64.486885 
5838.000000	64.464831 
5837.000000	64.458250 
5836.000000	64.458155 
5835.000000	64.458632 
5834.000000	64.458036 
5833.000000	64.460372 
5832.000000	64.472746 
5831.000000	64.503765 
5830.000000	64.558267 
5829.000000	64.637231 
5828.000000	64.736223 
5827.000000	64.846372 
5826.000000	64.955234 
5825.000000	65.051722 
5824.000000	65.129137 
5823.000000	65.185570 
5822.000000	65.223908 
5821.000000	65.248703 
5820.000000	65.263485 
5819.000000	65.268993 
5818.000000	65.262436 
5817.000000	65.237045 
5816.000000	65.185356 
5815.000000	65.103673 
5814.000000	64.995288 
5813.000000	64.871287 
5812.000000	64.750218 
5811.000000	64.654850 
5810.000000	64.606595 
5809.000000	64.620447 
5808.000000	64.699387 
5807.000000	64.833831 
5806.000000	65.000653 
5805.000000	65.169024 
5804.000000	65.304589 
5803.000000	65.377187 
5802.000000	65.366792 
5801.000000	65.267586 
5800.000000	65.089321 
5799.000000	64.853835 
5798.000000	64.592933 
5797.000000	64.341115 
5796.000000	64.131236 
5795.000000	63.988542 
5794.000000	63.928937 
5793.000000	63.957357 
5792.000000	64.068174 
5791.000000	64.247059 
5790.000000	64.473032 
5789.000000	64.721894 
5788.000000	64.968323 
5787.000000	65.189576 
5786.000000	65.366482 
5785.000000	65.486478 
5784.000000	65.544414 
5783.000000	65.542125 
5782.000000	65.487670 
5781.000000	65.392398 
5780.000000	65.271234 
5779.000000	65.137624 
5778.000000	65.003442 
5777.000000	64.876317 
5776.000000	64.761757 
5775.000000	64.662170 
5774.000000	64.578890 
5773.000000	64.512705 
5772.000000	64.464688 
5771.000000	64.436650 
5770.000000	64.430451 
5769.000000	64.447093 
5768.000000	64.485311 
5767.000000	64.541959 
5766.000000	64.611864 
5765.000000	64.688873 
5764.000000	64.767003 
5763.000000	64.841818 
5762.000000	64.911270 
5761.000000	64.975643 
5760.000000	65.036940 
5759.000000	65.098357 
5758.000000	65.162539 
5757.000000	65.229892 
5756.000000	65.298128 
5755.000000	65.363550 
5754.000000	65.421104 
5753.000000	65.466213 
5752.000000	65.496063 
5751.000000	65.510988 
5750.000000	65.514779 
5749.000000	65.514230 
5748.000000	65.517115 
5747.000000	65.530705 
5746.000000	65.558838 
5745.000000	65.601754 
5744.000000	65.653681 
5743.000000	65.704441 
5742.000000	65.740537 
5741.000000	65.748763 
5740.000000	65.718412 
5739.000000	65.644121 
5738.000000	65.527772 
5737.000000	65.378832 
5736.000000	65.212726 
5735.000000	65.048575 
5734.000000	64.905023 
5733.000000	64.797115 
5732.000000	64.734125 
5731.000000	64.718294 
5730.000000	64.744281 
5729.000000	64.801621 
5728.000000	64.877438 
5727.000000	64.959263 
5726.000000	65.035820 
5725.000000	65.099668 
5724.000000	65.147376 
5723.000000	65.178418 
5722.000000	65.193057 
5721.000000	65.191411 
5720.000000	65.172624 
5719.000000	65.135478 
5718.000000	65.079259 
5717.000000	65.006136 
5716.000000	64.922070 
5715.000000	64.837193 
5714.000000	64.764738 
5713.000000	64.717030 
5712.000000	64.702415 
5711.000000	64.722633 
5710.000000	64.772462 
5709.000000	64.840722 
5708.000000	64.913058 
5707.000000	64.976429 
5706.000000	65.021443 
5705.000000	65.044116 
5704.000000	65.045189 
5703.000000	65.029501 
5702.000000	65.002298 
5701.000000	64.966344 
5700.000000	64.921236 
5699.000000	64.863419 
5698.000000	64.788627 
5697.000000	64.694952 
5696.000000	64.584827 
5695.000000	64.466142 
5694.000000	64.351606 
5693.000000	64.256143 
5692.000000	64.194273 
5691.000000	64.175176 
5690.000000	64.203023 
5689.000000	64.275574 
5688.000000	64.385533 
5687.000000	64.521956 
5686.000000	64.672541 
5685.000000	64.825320 
5684.000000	64.969682 
5683.000000	65.097236 
5682.000000	65.201044 
5681.000000	65.276265 
5680.000000	65.321063 
5679.000000	65.336513 
5678.000000	65.327000 
5677.000000	65.298366 
5676.000000	65.259408 
5675.000000	65.217018 
5674.000000	65.176391 
5673.000000	65.138196 
5672.000000	65.099787 
5671.000000	65.056324 
5670.000000	65.003228 
5669.000000	64.938306 
5668.000000	64.864420 
5667.000000	64.787650 
5666.000000	64.716529 
5665.000000	64.658331 
5664.000000	64.616727 
5663.000000	64.590382 
5662.000000	64.572668 
5661.000000	64.555001 
5660.000000	64.529585 
5659.000000	64.493227 
5658.000000	64.449262 
5657.000000	64.408111 
5656.000000	64.384770 
5655.000000	64.394974 
5654.000000	64.450216 
5653.000000	64.553117 
5652.000000	64.696335 
5651.000000	64.864325 
5650.000000	65.036797 
5649.000000	65.193009 
5648.000000	65.316700 
5647.000000	65.399861 
5646.000000	65.442967 
5645.000000	65.453958 
5644.000000	65.444183 
5643.000000	65.424799 
5642.000000	65.403056 
5641.000000	65.381908 
5640.000000	65.358901 
5639.000000	65.328717 
5638.000000	65.286374 
5637.000000	65.230941 
5636.000000	65.167355 
5635.000000	65.106320 
5634.000000	65.062856 
5633.000000	65.052366 
5632.000000	65.087056 
5631.000000	65.171742 
5630.000000	65.302085 
5629.000000	65.464258 
5628.000000	65.637469 
5627.000000	65.797257 
5626.000000	65.920090 
5625.000000	65.987539 
5624.000000	65.989446 
5623.000000	65.925645 
5622.000000	65.805029 
5621.000000	65.643930 
5620.000000	65.463280 
5619.000000	65.284681 
5618.000000	65.127444 
5617.000000	65.005850 
5616.000000	64.929437 
5615.000000	64.900970 
5614.000000	64.917588 
5613.000000	64.971256 
5612.000000	65.050816 
5611.000000	65.143585 
5610.000000	65.236330 
5609.000000	65.318107 
5608.000000	65.380716 
5607.000000	65.420317 
5606.000000	65.436530 
5605.000000	65.431761 
5604.000000	65.409994 
5603.000000	65.375900 
5602.000000	65.333724 
5601.000000	65.287351 
5600.000000	65.239667 
5599.000000	65.193629 
5598.000000	65.151786 
5597.000000	65.117192 
5596.000000	65.092372 
5595.000000	65.078616 
5594.000000	65.075635 
5593.000000	65.081739 
5592.000000	65.093660 
5591.000000	65.107226 
5590.000000	65.117859 
5589.000000	65.120887 
5588.000000	65.112972 
5587.000000	65.092897 
5586.000000	65.061378 
5585.000000	65.020465 
5584.000000	64.973807 
5583.000000	64.925336 
5582.000000	64.880037 
5581.000000	64.843225 
5580.000000	64.820075 
5579.000000	64.814448 
5578.000000	64.828824 
5577.000000	64.863538 
5576.000000	64.916014 
5575.000000	64.980745 
5574.000000	65.049815 
5573.000000	65.113949 
5572.000000	65.164017 
5571.000000	65.192651 
5570.000000	65.195250 
5569.000000	65.171146 
5568.000000	65.124177 
5567.000000	65.062212 
5566.000000	64.995718 
5565.000000	64.935612 
5564.000000	64.892816 
5563.000000	64.874100 
5562.000000	64.881896 
5561.000000	64.911890 
5560.000000	64.955568 
5559.000000	64.999604 
5558.000000	65.029072 
5557.000000	65.030384 
5556.000000	64.994120 
5555.000000	64.918017 
5554.000000	64.807343 
5553.000000	64.675140 
5552.000000	64.539003 
5551.000000	64.418268 
5550.000000	64.329838 
5549.000000	64.284729 
5548.000000	64.286041 
5547.000000	64.329004 
5546.000000	64.403009 
5545.000000	64.493227 
5544.000000	64.585161 
5543.000000	64.667606 
5542.000000	64.735245 
5541.000000	64.787340 
5540.000000	64.828443 
5539.000000	64.865231 
5538.000000	64.905238 
5537.000000	64.953780 
5536.000000	65.013098 
5535.000000	65.082406 
5534.000000	65.157818 
5533.000000	65.235233 
5532.000000	65.309286 
5531.000000	65.375351 
5530.000000	65.429234 
5529.000000	65.468549 
5528.000000	65.491652 
5527.000000	65.498113 
5526.000000	65.488243 
5525.000000	65.463423 
5524.000000	65.424752 
5523.000000	65.373158 
5522.000000	65.309429 
5521.000000	65.234470 
5520.000000	65.148997 
5519.000000	65.053868 
5518.000000	64.951014 
5517.000000	64.843750 
5516.000000	64.736461 
5515.000000	64.634513 
5514.000000	64.543032 
5513.000000	64.466881 
5512.000000	64.409852 
5511.000000	64.374589 
5510.000000	64.360380 
5509.000000	64.365649 
5508.000000	64.387249 
5507.000000	64.422249 
5506.000000	64.466857 
5505.000000	64.518213 
5504.000000	64.573216 
5503.000000	64.629578 
5502.000000	64.684748 
5501.000000	64.737462 
5500.000000	64.787125 
5499.000000	64.834356 
5498.000000	64.880537 
5497.000000	64.927148 
5496.000000	64.975190 
5495.000000	65.024662 
5494.000000	65.074181 
5493.000000	65.121459 
5492.000000	65.163254 
5491.000000	65.196871 
5490.000000	65.219497 
5489.000000	65.229082 
5488.000000	65.223908 
5487.000000	65.203785 
5486.000000	65.169358 
5485.000000	65.121388 
5484.000000	65.061759 
5483.000000	64.994215 
5482.000000	64.924407 
5481.000000	64.859080 
5480.000000	64.805793 
5479.000000	64.771676 
5478.000000	64.761590 
5477.000000	64.777183 
5476.000000	64.815807 
5475.000000	64.870166 
5474.000000	64.931368 
5473.000000	64.991044 
5472.000000	65.042591 
5471.000000	65.082144 
5470.000000	65.108489 
5469.000000	65.122056 
5468.000000	65.123438 
5467.000000	65.112423 
5466.000000	65.087437 
5465.000000	65.046977 
5464.000000	64.990568 
5463.000000	64.921188 
5462.000000	64.846158 
5461.000000	64.777278 
5460.000000	64.728617 
5459.000000	64.713978 
5458.000000	64.744043 
5457.000000	64.822793 
5456.000000	64.945769 
5455.000000	65.099406 
5454.000000	65.264248 
5453.000000	65.416479 
5452.000000	65.533781 
5451.000000	65.597343 
5450.000000	65.595078 
5449.000000	65.523719 
5448.000000	65.388846 
5447.000000	65.204691 
5446.000000	64.991784 
5445.000000	64.774894 
5444.000000	64.579463 
5443.000000	64.428234 
5442.000000	64.337873 
5441.000000	64.316916 
5440.000000	64.364290 
5439.000000	64.469289 
5438.000000	64.613342 
5437.000000	64.772725 
5436.000000	64.922785 
5435.000000	65.041232 
5434.000000	65.111994 
5433.000000	65.126800 
5432.000000	65.086317 
5431.000000	64.997768 
5430.000000	64.874291 
5429.000000	64.732146 
5428.000000	64.587998 
5427.000000	64.457201 
5426.000000	64.351439 
5425.000000	64.278984 
5424.000000	64.242863 
5423.000000	64.241647 
5422.000000	64.269709 
5421.000000	64.317655 
5420.000000	64.376163 
5419.000000	64.437127 
5418.000000	64.496016 
5417.000000	64.551568 
5416.000000	64.606714 
5415.000000	64.666604 
5414.000000	64.736700 
5413.000000	64.820075 
5412.000000	64.915180 
5411.000000	65.015459 
5410.000000	65.110635 
5409.000000	65.189313 
5408.000000	65.242171 
5407.000000	65.264964 
5406.000000	65.260815 
5405.000000	65.239334 
5404.000000	65.214705 
5403.000000	65.201902 
5402.000000	65.212655 
5401.000000	65.252423 
5400.000000	65.320038 
5399.000000	65.406894 
5398.000000	65.500497 
5397.000000	65.586209 
5396.000000	65.651726 
5395.000000	65.688467 
5394.000000	65.693712 
5393.000000	65.669107 
5392.000000	65.619516 
5391.000000	65.550851 
5390.000000	65.468430 
5389.000000	65.376019 
5388.000000	65.276050 
5387.000000	65.170001 
5386.000000	65.060138 
5385.000000	64.950537 
5384.000000	64.848423 
5383.000000	64.762711 
5382.000000	64.703798 
5381.000000	64.681959 
5380.000000	64.704537 
5379.000000	64.774155 
5378.000000	64.886069 
5377.000000	65.028619 
5376.000000	65.182900 
5375.000000	65.326142 
5374.000000	65.434765 
5373.000000	65.488767 
5372.000000	65.475821 
5371.000000	65.394234 
5370.000000	65.253496 
5369.000000	65.072035 
5368.000000	64.874124 
5367.000000	64.685630 
5366.000000	64.528322 
5365.000000	64.416694 
5364.000000	64.355301 
5363.000000	64.339590 
5362.000000	64.357399 
5361.000000	64.392995 
5360.000000	64.430832 
5359.000000	64.459514 
5358.000000	64.473700 
5357.000000	64.474916 
5356.000000	64.469313 
5355.000000	64.465641 
5354.000000	64.471459 
5353.000000	64.491653 
5352.000000	64.526343 
5351.000000	64.571952 
5350.000000	64.623236 
5349.000000	64.675140 
5348.000000	64.724349 
5347.000000	64.770698 
5346.000000	64.817309 
5345.000000	64.869165 
5344.000000	64.929771 
5343.000000	65.000796 
5342.000000	65.080928 
5341.000000	65.165781 
5340.000000	65.248942 
5339.000000	65.323424 
5338.000000	65.383267 
5337.000000	65.424990 
5336.000000	65.448856 
5335.000000	65.456128 
5334.000000	65.448570 
5333.000000	65.427613 
5332.000000	65.393996 
5331.000000	65.347933 
5330.000000	65.289258 
5329.000000	65.219640 
5328.000000	65.141487 
5327.000000	65.058898 
5326.000000	64.975261 
5325.000000	64.894604 
5324.000000	64.818072 
5323.000000	64.742946 
5322.000000	64.663314 
5321.000000	64.570689 
5320.000000	64.458370 
5319.000000	64.325046 
5318.000000	64.175724 
5317.000000	64.017915 
5316.000000	63.865828 
5315.000000	63.737726 
5314.000000	63.651823 
5313.000000	63.620090 
5312.000000	63.648605 
5311.000000	63.735532 
5310.000000	63.870882 
5309.000000	64.037990 
5308.000000	64.215183 
5307.000000	64.379477 
5306.000000	64.509463 
5305.000000	64.590144 
5304.000000	64.612078 
5303.000000	64.576721 
5302.000000	64.498353 
5301.000000	64.403963 
5300.000000	64.330649 
5299.000000	64.314818 
5298.000000	64.392828 
5297.000000	64.578294 
5296.000000	64.860248 
5295.000000	65.191149 
5294.000000	65.501499 
5293.000000	65.704083 
5292.000000	65.714216 
5291.000000	65.470242 
5290.000000	64.951491 
5289.000000	64.187479 
5288.000000	63.254356 
5287.000000	62.262725 
5286.000000	61.335062 
5285.000000	60.580873 
5284.000000	60.073852 
5283.000000	59.843158 
5282.000000	59.871935 
5281.000000	60.111522 
5280.000000	60.498523 
5279.000000	60.972642 
5278.000000	61.490511 
5277.000000	62.027645 
5276.000000	62.578678 
5275.000000	63.140010 
5274.000000	63.707542 
5273.000000	64.269709 
5272.000000	64.808225 
5271.000000	65.301322 
5270.000000	65.727114 
5269.000000	66.075634 
5268.000000	66.344046 
5267.000000	66.543626 
5266.000000	66.688132 
5265.000000	66.793417 
5264.000000	66.868877 
5263.000000	66.918325 
5262.000000	66.939496 
5261.000000	66.929554 
5260.000000	66.889619 
5259.000000	66.831183 
5258.000000	66.773414 
5257.000000	66.741108 
5256.000000	66.759133 
5255.000000	66.846847 
5254.000000	67.009377 
5253.000000	67.234373 
5252.000000	67.495870 
5251.000000	67.757201 
5250.000000	67.977643 
5249.000000	68.118500 
5248.000000	68.148922 
5247.000000	68.050527 
5246.000000	67.822170 
5245.000000	67.478370 
5244.000000	67.044329 
5243.000000	66.553544 
5242.000000	66.045498 
5241.000000	65.559577 
5240.000000	65.130352 
5239.000000	64.785051 
5238.000000	64.543533 
5237.000000	64.415097 
5236.000000	64.395594 
5235.000000	64.471888 
5234.000000	64.622592 
5233.000000	64.822506 
5232.000000	65.042424 
5231.000000	65.256667 
5230.000000	65.443825 
5229.000000	65.590167 
5228.000000	65.688562 
5227.000000	65.739727 
5226.000000	65.749526 
5225.000000	65.727472 
5224.000000	65.683650 
5223.000000	65.626668 
5222.000000	65.562009 
5221.000000	65.493011 
5220.000000	65.421104 
5219.000000	65.347909 
5218.000000	65.275645 
5217.000000	65.208745 
5216.000000	65.152883 
5215.000000	65.114402 
5214.000000	65.097880 
5213.000000	65.105557 
5212.000000	65.134739 
5211.000000	65.176486 
5210.000000	65.218138 
5209.000000	65.246462 
5208.000000	65.250134 
5207.000000	65.221452 
5206.000000	65.159678 
5205.000000	65.071320 
5204.000000	64.968037 
5203.000000	64.863681 
5202.000000	64.771223 
5201.000000	64.699935 
5200.000000	64.654445 
5199.000000	64.634847 
5198.000000	64.638018 
5197.000000	64.659237 
5196.000000	64.694476 
5195.000000	64.740967 
5194.000000	64.797425 
5193.000000	64.862585 
5192.000000	64.933443 
5191.000000	65.004491 
5190.000000	65.067505 
5189.000000	65.112876 
5188.000000	65.132164 
5187.000000	65.119743 
5186.000000	65.075612 
5185.000000	65.004563 
5184.000000	64.915323 
5183.000000	64.818906 
5182.000000	64.726138 
5181.000000	64.646267 
5180.000000	64.585185 
5179.000000	64.546275 
5178.000000	64.530611 
5177.000000	64.537978 
5176.000000	64.567518 
5175.000000	64.618253 
5174.000000	64.688706 
5173.000000	64.777040 
5172.000000	64.880180 
5171.000000	64.994072 
5170.000000	65.113306 
5169.000000	65.231704 
5168.000000	65.342426 
5167.000000	65.439271 
5166.000000	65.516304 
5165.000000	65.568780 
5164.000000	65.592789 
5163.000000	65.586066 
5162.000000	65.548515 
5161.000000	65.483546 
5160.000000	65.397667 
5159.000000	65.301132 
5158.000000	65.206050 
5157.000000	65.125203 
5156.000000	65.069532 
5155.000000	65.046000 
5154.000000	65.056729 
5153.000000	65.098810 
5152.000000	65.164971 
5151.000000	65.245342 
5150.000000	65.328812 
5149.000000	65.405011 
5148.000000	65.465736 
5147.000000	65.505886 
5146.000000	65.524125 
5145.000000	65.522217 
5144.000000	65.504217 
5143.000000	65.475010 
5142.000000	65.440034 
5141.000000	65.403747 
5140.000000	65.369534 
5139.000000	65.339159 
5138.000000	65.313458 
5137.000000	65.292263 
5136.000000	65.274906 
5135.000000	65.260267 
5134.000000	65.247583 
5133.000000	65.235924 
5132.000000	65.224146 
5131.000000	65.211081 
5130.000000	65.194988 
5129.000000	65.174746 
5128.000000	65.149378 
5127.000000	65.119647 
5126.000000	65.087771 
5125.000000	65.057611 
5124.000000	65.034008 
5123.000000	65.020608 
5122.000000	65.019035 
5121.000000	65.027475 
5120.000000	65.041041 
5119.000000	65.052962 
5118.000000	65.056514 
5117.000000	65.046906 
5116.000000	65.022873 
5115.000000	64.987611 
5114.000000	64.948105 
5113.000000	64.913201 
5112.000000	64.891314 
5111.000000	64.888048 
5110.000000	64.904952 
5109.000000	64.938902 
5108.000000	64.983010 
5107.000000	65.028619 
5106.000000	65.066957 
5105.000000	65.092015 
5104.000000	65.100574 
5103.000000	65.092563 
5102.000000	65.070557 
5101.000000	65.038394 
5100.000000	65.000748 
5099.000000	64.962077 
5098.000000	64.926505 
5097.000000	64.897871 
5096.000000	64.879274 
5095.000000	64.872980 
5094.000000	64.879941 
5093.000000	64.899563 
5092.000000	64.929294 
5091.000000	64.964795 
5090.000000	65.000343 
5089.000000	65.029811 
5088.000000	65.047383 
5087.000000	65.049099 
5086.000000	65.033078 
5085.000000	65.000510 
5084.000000	64.955520 
5083.000000	64.904594 
5082.000000	64.855408 
5081.000000	64.815378 
5080.000000	64.790391 
5079.000000	64.783430 
5078.000000	64.794993 
5077.000000	64.822387 
5076.000000	64.860987 
5075.000000	64.904570 
5074.000000	64.946508 
5073.000000	64.981126 
5072.000000	65.004611 
5071.000000	65.015435 
5070.000000	65.014004 
5069.000000	65.003061 
5068.000000	64.986753 
5067.000000	64.970040 
5066.000000	64.957594 
5065.000000	64.952635 
5064.000000	64.956355 
5063.000000	64.967536 
5062.000000	64.982962 
5061.000000	64.997625 
5060.000000	65.006232 
5059.000000	65.004038 
5058.000000	64.988851 
5057.000000	64.962005 
5056.000000	64.928817 
5055.000000	64.897298 
5054.000000	64.876246 
5053.000000	64.873409 
5052.000000	64.892673 
5051.000000	64.933633 
5050.000000	64.990329 
5049.000000	65.053033 
5048.000000	65.109419 
5047.000000	65.148138 
5046.000000	65.160250 
5045.000000	65.141129 
5044.000000	65.091395 
5043.000000	65.016102 
5042.000000	64.924788 
5041.000000	64.829015 
5040.000000	64.741230 
5039.000000	64.672446 
5038.000000	64.630603 
5037.000000	64.619326 
5036.000000	64.637541 
5035.000000	64.679765 
5034.000000	64.736199 
5033.000000	64.794993 
5032.000000	64.843440 
5031.000000	64.871358 
5030.000000	64.872336 
5029.000000	64.845919 
5028.000000	64.797139 
5027.000000	64.736008 
5026.000000	64.675092 
5025.000000	64.626812 
5024.000000	64.600801 
5023.000000	64.601731 
5022.000000	64.629244 
5021.000000	64.677762 
5020.000000	64.738392 
5019.000000	64.801144 
5018.000000	64.856815 
5017.000000	64.899516 
5016.000000	64.926815 
5015.000000	64.941072 
5014.000000	64.947915 
5013.000000	64.955234 
5012.000000	64.970636 
5011.000000	64.999437 
5010.000000	65.043306 
5009.000000	65.100002 
5008.000000	65.164065 
5007.000000	65.228080 
5006.000000	65.284299 
5005.000000	65.326833 
5004.000000	65.352439 
5003.000000	65.361261 
5002.000000	65.355825 
5001.000000	65.340042 
5000.000000	65.317368 
4999.000000	65.290236 
4998.000000	65.259122 
4997.000000	65.223240 
4996.000000	65.181040 
4995.000000	65.131688 
4994.000000	65.076017 
4993.000000	65.017127 
4992.000000	64.959883 
4991.000000	64.909839 
4990.000000	64.872026 
4989.000000	64.849209 
4988.000000	64.841771 
4987.000000	64.847493 
4986.000000	64.862418 
4985.000000	64.881467 
4984.000000	64.900231 
4983.000000	64.915728 
4982.000000	64.926409 
4981.000000	64.931869 
4980.000000	64.931941 
4979.000000	64.926362 
4978.000000	64.914011 
4977.000000	64.893555 
4976.000000	64.863967 
4975.000000	64.825248 
4974.000000	64.779710 
4973.000000	64.731574 
4972.000000	64.686536 
4971.000000	64.650273 
4970.000000	64.627361 
4969.000000	64.619493 
4968.000000	64.624595 
4967.000000	64.637780 
4966.000000	64.652156 
4965.000000	64.661169 
4964.000000	64.660286 
4963.000000	64.648294 
4962.000000	64.627552 
4961.000000	64.602994 
4960.000000	64.580416 
4959.000000	64.564776 
4958.000000	64.558529 
4957.000000	64.561271 
4956.000000	64.570450 
4955.000000	64.582705 
4954.000000	64.595556 
4953.000000	64.608240 
4952.000000	64.622545 
4951.000000	64.642071 
4950.000000	64.671516 
4949.000000	64.714646 
4948.000000	64.773392 
4947.000000	64.846754 
4946.000000	64.930725 
4945.000000	65.019631 
4944.000000	65.106225 
4943.000000	65.184497 
4942.000000	65.249013 
4941.000000	65.296506 
4940.000000	65.324664 
4939.000000	65.332841 
4938.000000	65.320801 
4937.000000	65.288996 
4936.000000	65.238165 
4935.000000	65.170359 
4934.000000	65.088605 
4933.000000	64.997482 
4932.000000	64.903163 
4931.000000	64.813256 
4930.000000	64.736318 
4929.000000	64.680600 
4928.000000	64.652991 
4927.000000	64.657521 
4926.000000	64.694380 
4925.000000	64.759492 
4924.000000	64.844775 
4923.000000	64.939260 
4922.000000	65.031123 
4921.000000	65.109467 
4920.000000	65.165495 
4919.000000	65.194225 
4918.000000	65.195178 
4917.000000	65.171623 
4916.000000	65.129351 
4915.000000	65.075063 
4914.000000	65.015339 
4913.000000	64.955401 
4912.000000	64.898991 
4911.000000	64.848804 
4910.000000	64.807820 
4909.000000	64.779067 
4908.000000	64.765954 
4907.000000	64.770984 
4906.000000	64.794874 
4905.000000	64.835715 
4904.000000	64.888620 
4903.000000	64.947032 
4902.000000	65.003657 
4901.000000	65.052795 
4900.000000	65.091085 
4899.000000	65.118241 
4898.000000	65.135741 
4897.000000	65.146207 
4896.000000	65.151143 
4895.000000	65.149903 
4894.000000	65.139222 
4893.000000	65.114259 
4892.000000	65.070486 
4891.000000	65.006470 
4890.000000	64.924812 
4889.000000	64.833307 
4888.000000	64.742898 
4887.000000	64.665579 
4886.000000	64.611625 
4885.000000	64.586496 
4884.000000	64.590620 
4883.000000	64.618873 
4882.000000	64.662909 
4881.000000	64.713597 
4880.000000	64.762711 
4879.000000	64.804625 
4878.000000	64.836597 
4877.000000	64.858198 
4876.000000	64.870429 
4875.000000	64.874410 
4874.000000	64.870595 
4873.000000	64.858412 
4872.000000	64.837026 
4871.000000	64.806127 
4870.000000	64.766573 
4869.000000	64.720964 
4868.000000	64.673495 
4867.000000	64.629578 
4866.000000	64.594388 
4865.000000	64.572501 
4864.000000	64.566230 
4863.000000	64.576435 
4862.000000	64.602136 
4861.000000	64.641189 
4860.000000	64.690113 
4859.000000	64.745187 
4858.000000	64.802503 
4857.000000	64.858436 
4856.000000	64.909696 
4855.000000	64.953613 
4854.000000	64.988112 
4853.000000	65.011954 
4852.000000	65.024757 
4851.000000	65.026926 
4850.000000	65.019559 
4849.000000	65.004491 
4848.000000	64.984011 
4847.000000	64.960360 
4846.000000	64.935374 
4845.000000	64.910340 
4844.000000	64.886069 
4843.000000	64.863085 
4842.000000	64.842510 
4841.000000	64.825940 
4840.000000	64.816379 
4839.000000	64.817738 
4838.000000	64.834213 
4837.000000	64.869117 
4836.000000	64.923572 
4835.000000	64.995837 
4834.000000	65.080547 
4833.000000	65.169429 
4832.000000	65.251851 
4831.000000	65.317201 
4830.000000	65.355920 
4829.000000	65.361714 
4828.000000	65.332484 
4827.000000	65.270972 
4826.000000	65.184307 
4825.000000	65.082669 
4824.000000	64.977669 
4823.000000	64.880633 
4822.000000	64.800524 
4821.000000	64.742970 
4820.000000	64.709496 
4819.000000	64.698386 
4818.000000	64.705419 
4817.000000	64.725732 
4816.000000	64.754414 
4815.000000	64.787936 
4814.000000	64.824390 
4813.000000	64.863371 
4812.000000	64.904832 
4811.000000	64.948201 
4810.000000	64.991426 
4809.000000	65.031075 
4808.000000	65.062546 
4807.000000	65.081596 
4806.000000	65.085601 
4805.000000	65.074825 
4804.000000	65.053057 
4803.000000	65.027213 
4802.000000	65.006017 
4801.000000	64.998054 
4800.000000	65.009641 
4799.000000	65.043330 
4798.000000	65.097641 
4797.000000	65.166831 
4796.000000	65.242385 
4795.000000	65.314197 
4794.000000	65.372467 
4793.000000	65.409445 
4792.000000	65.420722 
4791.000000	65.405249 
4790.000000	65.365147 
4789.000000	65.305471 
4788.000000	65.233111 
4787.000000	65.155816 
4786.000000	65.081024 
4785.000000	65.015411 
4784.000000	64.964270 
4783.000000	64.931607 
4782.000000	64.919757 
4781.000000	64.928698 
4780.000000	64.956641 
4779.000000	64.999890 
4778.000000	65.053486 
4777.000000	65.110921 
4776.000000	65.165996 
4775.000000	65.213322 
4774.000000	65.249633 
4773.000000	65.273451 
4772.000000	65.285682 
4771.000000	65.288853 
4770.000000	65.286445 
4769.000000	65.281915 
4768.000000	65.277814 
4767.000000	65.275287 
4766.000000	65.274167 
4765.000000	65.273284 
4764.000000	65.271472 
4763.000000	65.267872 
4762.000000	65.262651 
4761.000000	65.256690 
4760.000000	65.251374 
4759.000000	65.247559 
4758.000000	65.245723 
4757.000000	65.245079 
4756.000000	65.243411 
4755.000000	65.237760 
4754.000000	65.225529 
4753.000000	65.204930 
4752.000000	65.175390 
4751.000000	65.138125 
4750.000000	65.095758 
4749.000000	65.052270 
4748.000000	65.012168 
4747.000000	64.979720 
4746.000000	64.957785 
4745.000000	64.947748 
4744.000000	64.949417 
4743.000000	64.960861 
4742.000000	64.978909 
4741.000000	64.999938 
4740.000000	65.020656 
4739.000000	65.038824 
4738.000000	65.053534 
4737.000000	65.065240 
4736.000000	65.075969 
4735.000000	65.088558 
4734.000000	65.106248 
4733.000000	65.131855 
4732.000000	65.166974 
4731.000000	65.211725 
4730.000000	65.264415 
4729.000000	65.322017 
4728.000000	65.380167 
4727.000000	65.434336 
4726.000000	65.479564 
4725.000000	65.511608 
4724.000000	65.526962 
4723.000000	65.523886 
4722.000000	65.502119 
4721.000000	65.463185 
4720.000000	65.410137 
4719.000000	65.347671 
4718.000000	65.281081 
4717.000000	65.216040 
4716.000000	65.157866 
4715.000000	65.111064 
4714.000000	65.079188 
4713.000000	65.064692 
4712.000000	65.068459 
4711.000000	65.089678 
4710.000000	65.126299 
4709.000000	65.175008 
4708.000000	65.230965 
4707.000000	65.288162 
4706.000000	65.340256 
4705.000000	65.381288 
4704.000000	65.406250 
4703.000000	65.412282 
4702.000000	65.399146 
4701.000000	65.369462 
4700.000000	65.328526 
4699.000000	65.283036 
4698.000000	65.240263 
4697.000000	65.206265 
4696.000000	65.185284 
4695.000000	65.178823 
4694.000000	65.185976 
4693.000000	65.203523 
4692.000000	65.227341 
4691.000000	65.252304 
4690.000000	65.273356 
4689.000000	65.285921 
4688.000000	65.286564 
4687.000000	65.272831 
4686.000000	65.243458 
4685.000000	65.198874 
4684.000000	65.141367 
4683.000000	65.074658 
4682.000000	65.003871 
4681.000000	64.935111 
4680.000000	64.874696 
4679.000000	64.828324 
4678.000000	64.800500 
4677.000000	64.793086 
4676.000000	64.805698 
4675.000000	64.835643 
4674.000000	64.878749 
4673.000000	64.929151 
4672.000000	64.981389 
4671.000000	65.030956 
4670.000000	65.075230 
4669.000000	65.112757 
4668.000000	65.144252 
4667.000000	65.171527 
4666.000000	65.197014 
4665.000000	65.222978 
4664.000000	65.250849 
4663.000000	65.280914 
4662.000000	65.312409 
4661.000000	65.344095 
4660.000000	65.374588 
4659.000000	65.402793 
4658.000000	65.428376 
4657.000000	65.451550 
4656.000000	65.472674 
4655.000000	65.491700 
4654.000000	65.508317 
4653.000000	65.521407 
4652.000000	65.529108 
4651.000000	65.529084 
4650.000000	65.520143 
4649.000000	65.501475 
4648.000000	65.473604 
4647.000000	65.437531 
4646.000000	65.395331 
4645.000000	65.348672 
4644.000000	65.298795 
4643.000000	65.246129 
4642.000000	65.190410 
4641.000000	65.131521 
4640.000000	65.070295 
4639.000000	65.008878 
4638.000000	64.950585 
4637.000000	64.899921 
4636.000000	64.861512 
4635.000000	64.839005 
4634.000000	64.833712 
4633.000000	64.844799 
4632.000000	64.869403 
4631.000000	64.903116 
4630.000000	64.941048 
4629.000000	64.979457 
4628.000000	65.016317 
4627.000000	65.051317 
4626.000000	65.085577 
4625.000000	65.120840 
4624.000000	65.158367 
4623.000000	65.198230 
4622.000000	65.238857 
4621.000000	65.277123 
4620.000000	65.309000 
4619.000000	65.331196 
4618.000000	65.341567 
4617.000000	65.340423 
4616.000000	65.330147 
4615.000000	65.315079 
4614.000000	65.299916 
4613.000000	65.288376 
4612.000000	65.282225 
4611.000000	65.281224 
4610.000000	65.283012 
4609.000000	65.284085 
4608.000000	65.280961 
4607.000000	65.271162 
4606.000000	65.253591 
4605.000000	65.228724 
4604.000000	65.198206 
4603.000000	65.164351 
4602.000000	65.129971 
4601.000000	65.097761 
4600.000000	65.070056 
4599.000000	65.048742 
4598.000000	65.035629 
4597.000000	65.031790 
4596.000000	65.037488 
4595.000000	65.051674 
4594.000000	65.071582 
4593.000000	65.093231 
4592.000000	65.111780 
4591.000000	65.122914 
4590.000000	65.123796 
4589.000000	65.113949 
4588.000000	65.095663 
4587.000000	65.073084 
4586.000000	65.050768 
4585.000000	65.032577 
4584.000000	65.020418 
4583.000000	65.013933 
4582.000000	65.010690 
4581.000000	65.007424 
4580.000000	65.001034 
4579.000000	64.989256 
4578.000000	64.971327 
4577.000000	64.947676 
4576.000000	64.919829 
4575.000000	64.889454 
4574.000000	64.858150 
4573.000000	64.827036 
4572.000000	64.797282 
4571.000000	64.770293 
4570.000000	64.748239 
4569.000000	64.734315 
4568.000000	64.732027 
4567.000000	64.743971 
4566.000000	64.771366 
4565.000000	64.812827 
4564.000000	64.865040 
4563.000000	64.923000 
4562.000000	64.981102 
4561.000000	65.034341 
4560.000000	65.078783 
4559.000000	65.112376 
4558.000000	65.134549 
4557.000000	65.145611 
4556.000000	65.147137 
4555.000000	65.141344 
4554.000000	65.130877 
4553.000000	65.118575 
4552.000000	65.106749 
4551.000000	65.096950 
4550.000000	65.090012 
4549.000000	65.086054 
4548.000000	65.084528 
4547.000000	65.084505 
4546.000000	65.085220 
4545.000000	65.086197 
4544.000000	65.087032 
4543.000000	65.087676 
4542.000000	65.088343 
4541.000000	65.089201 
4540.000000	65.090394 
4539.000000	65.091347 
4538.000000	65.091466 
4537.000000	65.089225 
4536.000000	65.083003 
4535.000000	65.070271 
4534.000000	65.048742 
4533.000000	65.016102 
4532.000000	64.970850 
4531.000000	64.912724 
4530.000000	64.842915 
4529.000000	64.764881 
4528.000000	64.684057 
4527.000000	64.607524 
4526.000000	64.542818 
4525.000000	64.496779 
4524.000000	64.474320 
4523.000000	64.477348 
4522.000000	64.504313 
4521.000000	64.550423 
4520.000000	64.608645 
4519.000000	64.670825 
4518.000000	64.729285 
4517.000000	64.778113 
4516.000000	64.813971 
4515.000000	64.835715 
4514.000000	64.844465 
4513.000000	64.842677 
4512.000000	64.833188 
4511.000000	64.818811 
4510.000000	64.801549 
4509.000000	64.782857 
4508.000000	64.763593 
4507.000000	64.745211 
4506.000000	64.729022 
4505.000000	64.716434 
4504.000000	64.708566 
4503.000000	64.706397 
4502.000000	64.709997 
4501.000000	64.718341 
4500.000000	64.730048 
4499.000000	64.743518 
4498.000000	64.757156 
4497.000000	64.769434 
4496.000000	64.779520 
4495.000000	64.787054 
4494.000000	64.791893 
4493.000000	64.793586 
4492.000000	64.791178 
4491.000000	64.782834 
4490.000000	64.766144 
4489.000000	64.738655 
4488.000000	64.698886 
4487.000000	64.647412 
4486.000000	64.587259 
4485.000000	64.524340 
4484.000000	64.466452 
4483.000000	64.422106 
4482.000000	64.398622 
4481.000000	64.400792 
4480.000000	64.428853 
4479.000000	64.479541 
4478.000000	64.546370 
4477.000000	64.621663 
4476.000000	64.697694 
4475.000000	64.768743 
4474.000000	64.831852 
4473.000000	64.886236 
4472.000000	64.932584 
4471.000000	64.971494 
4470.000000	65.002107 
4469.000000	65.021896 
4468.000000	65.027189 
4467.000000	65.013790 
4466.000000	64.979100 
4465.000000	64.923954 
4464.000000	64.853811 
4463.000000	64.779043 
4462.000000	64.713120 
4461.000000	64.670014 
4460.000000	64.660406 
4459.000000	64.689230 
4458.000000	64.753484 
4457.000000	64.842605 
4456.000000	64.940428 
4455.000000	65.028953 
4454.000000	65.092015 
4453.000000	65.119290 
4452.000000	65.107297 
4451.000000	65.059161 
4450.000000	64.983749 
4449.000000	64.892768 
4448.000000	64.799022 
4447.000000	64.713788 
4446.000000	64.646029 
4445.000000	64.601421 
4444.000000	64.583373 
4443.000000	64.593267 
4442.000000	64.630675 
4441.000000	64.693379 
4440.000000	64.775371 
4439.000000	64.867210 
4438.000000	64.956688 
4437.000000	65.030813 
4436.000000	65.077567 
4435.000000	65.088391 
4434.000000	65.060257 
4433.000000	64.996266 
4432.000000	64.904856 
4431.000000	64.798760 
4430.000000	64.690208 
4429.000000	64.592385 
4428.000000	64.516735 
4427.000000	64.472746 
4426.000000	64.473462 
4425.000000	64.523553 
4424.000000	64.612889 
4423.000000	64.724707 
4422.000000	64.842200 
4421.000000	64.945721 
4420.000000	65.014290 
4419.000000	65.036892 
4418.000000	65.014314 
4417.000000	64.960980 
4416.000000	64.902853 
4415.000000	64.864492 
4414.000000	64.864063 
4413.000000	64.920115 
4412.000000	65.044331 
4411.000000	65.246868 
4410.000000	65.523076 
4409.000000	65.850543 
4408.000000	66.186404 
4407.000000	66.453886 
4406.000000	66.577839 
4405.000000	66.506099 
4404.000000	66.235756 
4403.000000	65.819811 
4402.000000	65.367627 
4401.000000	64.991426 
4400.000000	64.832186 
4399.000000	64.984703 
4398.000000	65.556287 
4397.000000	66.664242 
4396.000000	68.385791 
4395.000000	70.772957 
4394.000000	73.709082 
4393.000000	76.903820 
4392.000000	79.898500 
4391.000000	82.137727 
4390.000000	83.180069 
4389.000000	82.809305 
4388.000000	81.149601 
4387.000000	78.627395 
4386.000000	75.792431 
4385.000000	73.172640 
4384.000000	71.076965 
4383.000000	69.564747 
4382.000000	68.515515 
4381.000000	67.695832 
4380.000000	66.958642 
4379.000000	66.238069 
4378.000000	65.569472 
4377.000000	65.056657 
4376.000000	64.736080 
4375.000000	64.627265 
4374.000000	64.677524 
4373.000000	64.814782 
4372.000000	64.979577 
4371.000000	65.125894 
4370.000000	65.236067 
4369.000000	65.307641 
4368.000000	65.332269 
4367.000000	65.310430 
4366.000000	65.243339 
4365.000000	65.137314 
4364.000000	65.003013 
4363.000000	64.854383 
4362.000000	64.708352 
4361.000000	64.577579 
4360.000000	64.469599 
4359.000000	64.397144 
4358.000000	64.374470 
4357.000000	64.410448 
4356.000000	64.506840 
4355.000000	64.649295 
4354.000000	64.813661 
4353.000000	64.980268 
4352.000000	65.132832 
4351.000000	65.253543 
4350.000000	65.331077 
4349.000000	65.363860 
4348.000000	65.357995 
4347.000000	65.323138 
4346.000000	65.271711 
4345.000000	65.218591 
4344.000000	65.174961 
4343.000000	65.146923 
4342.000000	65.134239 
4341.000000	65.132689 
4340.000000	65.134406 
4339.000000	65.131688 
4338.000000	65.117907 
4337.000000	65.089678 
4336.000000	65.047502 
4335.000000	64.995479 
4334.000000	64.940285 
4333.000000	64.889359 
4332.000000	64.848589 
4331.000000	64.821267 
4330.000000	64.807868 
4329.000000	64.806485 
4328.000000	64.813852 
4327.000000	64.826607 
4326.000000	64.842510 
4325.000000	64.860463 
4324.000000	64.880657 
4323.000000	64.903759 
4322.000000	64.929294 
4321.000000	64.955806 
4320.000000	64.981198 
4319.000000	65.002441 
4318.000000	65.016674 
4317.000000	65.021610 
4316.000000	65.016245 
4315.000000	65.001296 
4314.000000	64.979052 
4313.000000	64.953041 
4312.000000	64.927148 
4311.000000	64.905452 
4310.000000	64.891552 
4309.000000	64.888119 
4308.000000	64.896321 
4307.000000	64.915895 
4306.000000	64.945054 
4305.000000	64.980530 
4304.000000	65.017867 
4303.000000	65.051984 
4302.000000	65.077853 
4301.000000	65.091061 
4300.000000	65.088820 
4299.000000	65.070366 
4298.000000	65.037441 
4297.000000	64.993858 
4296.000000	64.945220 
4295.000000	64.897751 
4294.000000	64.857482 
4293.000000	64.829421 
4292.000000	64.816570 
4291.000000	64.819812 
4290.000000	64.837598 
4289.000000	64.866495 
4288.000000	64.901781 
4287.000000	64.938187 
4286.000000	64.970922 
4285.000000	64.996266 
4284.000000	65.012073 
4283.000000	65.017747 
4282.000000	65.014362 
4281.000000	65.004110 
4280.000000	64.989638 
4279.000000	64.973330 
4278.000000	64.956736 
4277.000000	64.940214 
4276.000000	64.923048 
4275.000000	64.903855 
4274.000000	64.881587 
4273.000000	64.855933 
4272.000000	64.827728 
4271.000000	64.799284 
4270.000000	64.773631 
4269.000000	64.754366 
4268.000000	64.744281 
4267.000000	64.745354 
4266.000000	64.757966 
4265.000000	64.781498 
4264.000000	64.814281 
4263.000000	64.853906 
4262.000000	64.897537 
4261.000000	64.941978 
4260.000000	64.984297 
4259.000000	65.021300 
4258.000000	65.049791 
4257.000000	65.066671 
4256.000000	65.069413 
4255.000000	65.056419 
4254.000000	65.027666 
4253.000000	64.985108 
4252.000000	64.932584 
4251.000000	64.875364 
4250.000000	64.819216 
4249.000000	64.769673 
4248.000000	64.731097 
4247.000000	64.705991 
4246.000000	64.694952 
4245.000000	64.696502 
4244.000000	64.707946 
4243.000000	64.725804 
4242.000000	64.747118 
4241.000000	64.769363 
4240.000000	64.791464 
4239.000000	64.813351 
4238.000000	64.836192 
4237.000000	64.861226 
4236.000000	64.889430 
4235.000000	64.920806 
4234.000000	64.953851 
4233.000000	64.986062 
4232.000000	65.014147 
4231.000000	65.035200 
4230.000000	65.047192 
4229.000000	65.049910 
4228.000000	65.045070 
4227.000000	65.035986 
4226.000000	65.027022 
4225.000000	65.022253 
4224.000000	65.024256 
4223.000000	65.033173 
4222.000000	65.046739 
4221.000000	65.060615 
4220.000000	65.069437 
4219.000000	65.068197 
4218.000000	65.053701 
4217.000000	65.025520 
4216.000000	64.985942 
4215.000000	64.939713 
4214.000000	64.892983 
4213.000000	64.851856 
4212.000000	64.821386 
4211.000000	64.804530 
4210.000000	64.801716 
4209.000000	64.811038 
4208.000000	64.828681 
4207.000000	64.850163 
4206.000000	64.871072 
4205.000000	64.888620 
4204.000000	64.901852 
4203.000000	64.911866 
4202.000000	64.921045 
4201.000000	64.932537 
4200.000000	64.948964 
4199.000000	64.971709 
4198.000000	65.000271 
4197.000000	65.032291 
4196.000000	65.063977 
4195.000000	65.091085 
4194.000000	65.109753 
4193.000000	65.117144 
4192.000000	65.112233 
4191.000000	65.095806 
4190.000000	65.070819 
4189.000000	65.041613 
4188.000000	65.013313 
4187.000000	64.991211 
4186.000000	64.979743 
4185.000000	64.982080 
4184.000000	64.999270 
4183.000000	65.030527 
4182.000000	65.072679 
4181.000000	65.120816 
4180.000000	65.169048 
4179.000000	65.211510 
4178.000000	65.243601 
4177.000000	65.262627 
4176.000000	65.268254 
4175.000000	65.262365 
4174.000000	65.248727 
4173.000000	65.231966 
4172.000000	65.216422 
4171.000000	65.205240 
4170.000000	65.200066 
4169.000000	65.200948 
4168.000000	65.206766 
4167.000000	65.215849 
4166.000000	65.226864 
4165.000000	65.238857 
4164.000000	65.251445 
4163.000000	65.264415 
4162.000000	65.277433 
4161.000000	65.289926 
4160.000000	65.300107 
4159.000000	65.306115 
4158.000000	65.306448 
4157.000000	65.300464 
4156.000000	65.288853 
4155.000000	65.273261 
4154.000000	65.256142 
4153.000000	65.239644 
4152.000000	65.225100 
4151.000000	65.212368 
4150.000000	65.199947 
4149.000000	65.185379 
4148.000000	65.166282 
4147.000000	65.141224 
4146.000000	65.110421 
4145.000000	65.076279 
4144.000000	65.042853 
4143.000000	65.014624 
4142.000000	64.995121 
4141.000000	64.986276 
4140.000000	64.987540 
4139.000000	64.995861 
4138.000000	65.006041 
4137.000000	65.012359 
4136.000000	65.009188 
4135.000000	64.992308 
4134.000000	64.959740 
4133.000000	64.911723 
4132.000000	64.851474 
4131.000000	64.784407 
4130.000000	64.717769 
4129.000000	64.658999 
4128.000000	64.614796 
4127.000000	64.589786 
4126.000000	64.585971 
4125.000000	64.601969 
4124.000000	64.634537 
4123.000000	64.678931 
4122.000000	64.730739 
4121.000000	64.786481 
4120.000000	64.844465 
4119.000000	64.904427 
4118.000000	64.967250 
4117.000000	65.033817 
4116.000000	65.104413 
4115.000000	65.177679 
4114.000000	65.250921 
4113.000000	65.319895 
4112.000000	65.379762 
4111.000000	65.425872 
4110.000000	65.455293 
4109.000000	65.466761 
4108.000000	65.462040 
4107.000000	65.444660 
4106.000000	65.419793 
4105.000000	65.392279 
4104.000000	65.366387 
4103.000000	65.344095 
4102.000000	65.325593 
4101.000000	65.309000 
4100.000000	65.291595 
4099.000000	65.270876 
4098.000000	65.246105 
4097.000000	65.218257 
4096.000000	65.189814 
4095.000000	65.164637 
4094.000000	65.146732 
4093.000000	65.139126 
4092.000000	65.142893 
4091.000000	65.156745 
4090.000000	65.177154 
4089.000000	65.199208 
4088.000000	65.217447 
4087.000000	65.226984 
4086.000000	65.223956 
4085.000000	65.206670 
4084.000000	65.174961 
4083.000000	65.129971 
4082.000000	65.073490 
4081.000000	65.007686 
4080.000000	64.934825 
4079.000000	64.856624 
4078.000000	64.775514 
4077.000000	64.694523 
4076.000000	64.618301 
4075.000000	64.552164 
4074.000000	64.502620 
4073.000000	64.475631 
4072.000000	64.476299 
4071.000000	64.507079 
4070.000000	64.567804 
4069.000000	64.654684 
4068.000000	64.761185 
4067.000000	64.878511 
4066.000000	64.996838 
4065.000000	65.106487 
4064.000000	65.199303 
4063.000000	65.269804 
4062.000000	65.315437 
4061.000000	65.336680 
4060.000000	65.336942 
4059.000000	65.321326 
4058.000000	65.295934 
4057.000000	65.265989 
4056.000000	65.236139 
4055.000000	65.208792 
4054.000000	65.184736 
4053.000000	65.162992 
4052.000000	65.142202 
4051.000000	65.121078 
4050.000000	65.099215 
4049.000000	65.077757 
4048.000000	65.059018 
4047.000000	65.046286 
4046.000000	65.042400 
4045.000000	65.049505 
4044.000000	65.067791 
4043.000000	65.096020 
4042.000000	65.131545 
4041.000000	65.170860 
4040.000000	65.210342 
4039.000000	65.246987 
4038.000000	65.278840 
4037.000000	65.304827 
4036.000000	65.324640 
4035.000000	65.338897 
4034.000000	65.348720 
4033.000000	65.355205 
4032.000000	65.359163 
4031.000000	65.361595 
4030.000000	65.362977 
4029.000000	65.363860 
4028.000000	65.364003 
4027.000000	65.363073 
4026.000000	65.360140 
4025.000000	65.354418 
4024.000000	65.344929 
4023.000000	65.331315 
4022.000000	65.313386 
4021.000000	65.292048 
4020.000000	65.268278 
4019.000000	65.243077 
4018.000000	65.217161 
4017.000000	65.190958 
4016.000000	65.164685 
4015.000000	65.138697 
4014.000000	65.113854 
4013.000000	65.091586 
4012.000000	65.073776 
4011.000000	65.062522 
4010.000000	65.059447 
4009.000000	65.065217 
4008.000000	65.079498 
4007.000000	65.100812 
4006.000000	65.126585 
4005.000000	65.153551 
4004.000000	65.178084 
4003.000000	65.196847 
4002.000000	65.207242 
4001.000000	65.207695 
4000.000000	65.197896 
3999.000000	65.178632 
3998.000000	65.152072 
3997.000000	65.121150 
3996.000000	65.089488 
3995.000000	65.060663 
3994.000000	65.037965 
3993.000000	65.023589 
3992.000000	65.018415 
3991.000000	65.021848 
3990.000000	65.031790 
3989.000000	65.045595 
3988.000000	65.060544 
3987.000000	65.074396 
3986.000000	65.085768 
3985.000000	65.094065 
3984.000000	65.099477 
3983.000000	65.102624 
3982.000000	65.104436 
3981.000000	65.105843 
3980.000000	65.107798 
3979.000000	65.111422 
3978.000000	65.117955 
3977.000000	65.128493 
3976.000000	65.143918 
3975.000000	65.164685 
3974.000000	65.190458 
3973.000000	65.219807 
3972.000000	65.250587 
3971.000000	65.280246 
3970.000000	65.306138 
3969.000000	65.326261 
3968.000000	65.338969 
3967.000000	65.343952 
3966.000000	65.340948 
3965.000000	65.330147 
3964.000000	65.311288 
3963.000000	65.284204 
3962.000000	65.248966 
3961.000000	65.206265 
3960.000000	65.158152 
3959.000000	65.108203 
3958.000000	65.061211 
3957.000000	65.022540 
3956.000000	64.996814 
3955.000000	64.986991 
3954.000000	64.993619 
3953.000000	65.015172 
3952.000000	65.047621 
3951.000000	65.086174 
3950.000000	65.126347 
3949.000000	65.165448 
3948.000000	65.202569 
3947.000000	65.238881 
3946.000000	65.276360 
3945.000000	65.316843 
3944.000000	65.360760 
3943.000000	65.406465 
3942.000000	65.450191 
3941.000000	65.486907 
3940.000000	65.511655 
3939.000000	65.521073 
3938.000000	65.514516 
3937.000000	65.494608 
3936.000000	65.466594 
3935.000000	65.437269 
3934.000000	65.413522 
3933.000000	65.400218 
3932.000000	65.399289 
3931.000000	65.408992 
3930.000000	65.424275 
3929.000000	65.438199 
3928.000000	65.443849 
3927.000000	65.435695 
3926.000000	65.411400 
3925.000000	65.371966 
3924.000000	65.321922 
3923.000000	65.268158 
3922.000000	65.218663 
3921.000000	65.180659 
3920.000000	65.159130 
3919.000000	65.156531 
3918.000000	65.171980 
3917.000000	65.201950 
3916.000000	65.240573 
3915.000000	65.281462 
3914.000000	65.318202 
3913.000000	65.345239 
3912.000000	65.358638 
3911.000000	65.356230 
3910.000000	65.338134 
3909.000000	65.306115 
3908.000000	65.263891 
3907.000000	65.216565 
3906.000000	65.169882 
3905.000000	65.129661 
3904.000000	65.100550 
3903.000000	65.085363 
3902.000000	65.084576 
3901.000000	65.096354 
3900.000000	65.116953 
3899.000000	65.141558 
3898.000000	65.165162 
3897.000000	65.183758 
3896.000000	65.194988 
3895.000000	65.198349 
3894.000000	65.194869 
3893.000000	65.186643 
3892.000000	65.175914 
3891.000000	65.164709 
3890.000000	65.154623 
3889.000000	65.146422 
3888.000000	65.140461 
3887.000000	65.136861 
3886.000000	65.136051 
3885.000000	65.138459 
3884.000000	65.144586 
3883.000000	65.154457 
3882.000000	65.167379 
3881.000000	65.181875 
3880.000000	65.195965 
3879.000000	65.207314 
3878.000000	65.213847 
3877.000000	65.214323 
3876.000000	65.208411 
3875.000000	65.197134 
3874.000000	65.182375 
3873.000000	65.166425 
3872.000000	65.151333 
3871.000000	65.138554 
3870.000000	65.128707 
3869.000000	65.121483 
3868.000000	65.116262 
3867.000000	65.112161 
3866.000000	65.108656 
3865.000000	65.105533 
3864.000000	65.103268 
3863.000000	65.102815 
3862.000000	65.105628 
3861.000000	65.112900 
3860.000000	65.125775 
3859.000000	65.144848 
3858.000000	65.169692 
3857.000000	65.198612 
3856.000000	65.228652 
3855.000000	65.256094 
3854.000000	65.277075 
3853.000000	65.288209 
3852.000000	65.287423 
3851.000000	65.274167 
3850.000000	65.249776 
3849.000000	65.217232 
3848.000000	65.180253 
3847.000000	65.142560 
3846.000000	65.107297 
3845.000000	65.076732 
3844.000000	65.051746 
3843.000000	65.032649 
3842.000000	65.019178 
3841.000000	65.011596 
3840.000000	65.010333 
3839.000000	65.016651 
3838.000000	65.031671 
3837.000000	65.056538 
3836.000000	65.091037 
3835.000000	65.134072 
3834.000000	65.183305 
3833.000000	65.235757 
3832.000000	65.288162 
3831.000000	65.337347 
3830.000000	65.380764 
3829.000000	65.416336 
3828.000000	65.442728 
3827.000000	65.458536 
3826.000000	65.462470 
3825.000000	65.453243 
3824.000000	65.429997 
3823.000000	65.392804 
3822.000000	65.343070 
3821.000000	65.284013 
3820.000000	65.220737 
3819.000000	65.159511 
3818.000000	65.106749 
3817.000000	65.067887 
3816.000000	65.046191 
3815.000000	65.041804 
3814.000000	65.051937 
3813.000000	65.071129 
3812.000000	65.092706 
3811.000000	65.110015 
3810.000000	65.118193 
3809.000000	65.114569 
3808.000000	65.099906 
3807.000000	65.077257 
3806.000000	65.051794 
3805.000000	65.028810 
3804.000000	65.013027 
3803.000000	65.007209 
3802.000000	65.012049 
3801.000000	65.025997 
3800.000000	65.046453 
3799.000000	65.070652 
3798.000000	65.096306 
3797.000000	65.122056 
3796.000000	65.147495 
3795.000000	65.172743 
3794.000000	65.197920 
3793.000000	65.222740 
3792.000000	65.246343 
3791.000000	65.267157 
3790.000000	65.283870 
3789.000000	65.295410 
3788.000000	65.301156 
3787.000000	65.300893 
3786.000000	65.295481 
3785.000000	65.286064 
3784.000000	65.273785 
3783.000000	65.259790 
3782.000000	65.245127 
3781.000000	65.230798 
3780.000000	65.217995 
3779.000000	65.207815 
3778.000000	65.201520 
3777.000000	65.199923 
3776.000000	65.203285 
3775.000000	65.211200 
3774.000000	65.222311 
3773.000000	65.234708 
3772.000000	65.246343 
3771.000000	65.255546 
3770.000000	65.261149 
3769.000000	65.263175 
3768.000000	65.262699 
3767.000000	65.261197 
3766.000000	65.260362 
3765.000000	65.261769 
3764.000000	65.266656 
3763.000000	65.275597 
3762.000000	65.288639 
3761.000000	65.305447 
3760.000000	65.325665 
3759.000000	65.348720 
3758.000000	65.373826 
3757.000000	65.400242 
3756.000000	65.426898 
3755.000000	65.452527 
3754.000000	65.475606 
3753.000000	65.494751 
3752.000000	65.508770 
3751.000000	65.517210 
3750.000000	65.520000 
3749.000000	65.517520 
3748.000000	65.510034 
3747.000000	65.497946 
3746.000000	65.481209 
3745.000000	65.459680 
3744.000000	65.433096 
3743.000000	65.401411 
3742.000000	65.365219 
3741.000000	65.325856 
3740.000000	65.285444 
3739.000000	65.246534 
3738.000000	65.211582 
3737.000000	65.182399 
3736.000000	65.159702 
3735.000000	65.142941 
3734.000000	65.130519 
3733.000000	65.120673 
3732.000000	65.111374 
3731.000000	65.101695 
3730.000000	65.091657 
3729.000000	65.083146 
3728.000000	65.078425 
3727.000000	65.080404 
3726.000000	65.091633 
3725.000000	65.113759 
3724.000000	65.146517 
3723.000000	65.187978 
3722.000000	65.234470 
3721.000000	65.281248 
3720.000000	65.323162 
3719.000000	65.355801 
3718.000000	65.375995 
3717.000000	65.382599 
3716.000000	65.376663 
3715.000000	65.361189 
3714.000000	65.340375 
3713.000000	65.319132 
3712.000000	65.301966 
3711.000000	65.291953 
3710.000000	65.290260 
3709.000000	65.296363 
3708.000000	65.307974 
3707.000000	65.321803 
3706.000000	65.334296 
3705.000000	65.342712 
3704.000000	65.345382 
3703.000000	65.342092 
3702.000000	65.333747 
3701.000000	65.321969 
3700.000000	65.308737 
3699.000000	65.295696 
3698.000000	65.284109 
3697.000000	65.274548 
3696.000000	65.266871 
3695.000000	65.261006 
3694.000000	65.256595 
3693.000000	65.253543 
3692.000000	65.251827 
3691.000000	65.251636 
3690.000000	65.252995 
3689.000000	65.255284 
3688.000000	65.257525 
3687.000000	65.258288 
3686.000000	65.256094 
3685.000000	65.249752 
3684.000000	65.238738 
3683.000000	65.223574 
3682.000000	65.205955 
3681.000000	65.188503 
3680.000000	65.174245 
3679.000000	65.165710 
3678.000000	65.164709 
3677.000000	65.171337 
3676.000000	65.184116 
3675.000000	65.199828 
3674.000000	65.214347 
3673.000000	65.223312 
3672.000000	65.222930 
3671.000000	65.211009 
3670.000000	65.187120 
3669.000000	65.152835 
3668.000000	65.111136 
3667.000000	65.066027 
3666.000000	65.021800 
3665.000000	64.982628 
3664.000000	64.951896 
3663.000000	64.932036 
3662.000000	64.924502 
3661.000000	64.929676 
3660.000000	64.947032 
3659.000000	64.975333 
3658.000000	65.012669 
3657.000000	65.056777 
3656.000000	65.105104 
3655.000000	65.154957 
3654.000000	65.203762 
3653.000000	65.249061 
3652.000000	65.288805 
3651.000000	65.321660 
3650.000000	65.346789 
3649.000000	65.364003 
3648.000000	65.373539 
3647.000000	65.376543 
3646.000000	65.374231 
3645.000000	65.368270 
3644.000000	65.360045 
3643.000000	65.351033 
3642.000000	65.341901 
3641.000000	65.333032 
3640.000000	65.324211 
3639.000000	65.314888 
3638.000000	65.304636 
3637.000000	65.293359 
3636.000000	65.281486 
3635.000000	65.270137 
3634.000000	65.260601 
3633.000000	65.254020 
3632.000000	65.251088 
3631.000000	65.251827 
3630.000000	65.255594 
3629.000000	65.261363 
3628.000000	65.267872 
3627.000000	65.274024 
3626.000000	65.279746 
3625.000000	65.285539 
3624.000000	65.292167 
3623.000000	65.300440 
3622.000000	65.310978 
3621.000000	65.323734 
3620.000000	65.337657 
3619.000000	65.351009 
3618.000000	65.361952 
3617.000000	65.368819 
3616.000000	65.370702 
3615.000000	65.367531 
3614.000000	65.360093 
3613.000000	65.349769 
3612.000000	65.338230 
3611.000000	65.326881 
3610.000000	65.316724 
3609.000000	65.308189 
3608.000000	65.301299 
3607.000000	65.295791 
3606.000000	65.291142 
3605.000000	65.286946 
3604.000000	65.282845 
3603.000000	65.278697 
3602.000000	65.274310 
3601.000000	65.269231 
3600.000000	65.262794 
3599.000000	65.254116 
3598.000000	65.242314 
3597.000000	65.226483 
3596.000000	65.206456 
3595.000000	65.182971 
3594.000000	65.158081 
3593.000000	65.134382 
3592.000000	65.115189 
3591.000000	65.103650 
3590.000000	65.102052 
3589.000000	65.111327 
3588.000000	65.130710 
3587.000000	65.157914 
3586.000000	65.189647 
3585.000000	65.222167 
3584.000000	65.252256 
3583.000000	65.277576 
3582.000000	65.297174 
3581.000000	65.311455 
3580.000000	65.321397 
3579.000000	65.328073 
3578.000000	65.332031 
3577.000000	65.333127 
3576.000000	65.330147 
3575.000000	65.321230 
3574.000000	65.304589 
3573.000000	65.279126 
3572.000000	65.244841 
3571.000000	65.203309 
3570.000000	65.157365 
3569.000000	65.111136 
3568.000000	65.069150 
3567.000000	65.035820 
3566.000000	65.014433 
3565.000000	65.006899 
3564.000000	65.013384 
3563.000000	65.032362 
3562.000000	65.060830 
3561.000000	65.095114 
3560.000000	65.131354 
3559.000000	65.166330 
3558.000000	65.197515 
3557.000000	65.223860 
3556.000000	65.245389 
3555.000000	65.263199 
3554.000000	65.278840 
3553.000000	65.294194 
3552.000000	65.310907 
3551.000000	65.330147 
3550.000000	65.352058 
3549.000000	65.375971 
3548.000000	65.400242 
3547.000000	65.422606 
3546.000000	65.440320 
3545.000000	65.450859 
3544.000000	65.452027 
3543.000000	65.442776 
3542.000000	65.423154 
3541.000000	65.394425 
3540.000000	65.358734 
3539.000000	65.319371 
3538.000000	65.279817 
3537.000000	65.243339 
3536.000000	65.212655 
3535.000000	65.189719 
3534.000000	65.175628 
3533.000000	65.170502 
3532.000000	65.173745 
3531.000000	65.183830 
3530.000000	65.198707 
3529.000000	65.215969 
3528.000000	65.232992 
3527.000000	65.247201 
3526.000000	65.256404 
3525.000000	65.259122 
3524.000000	65.254759 
3523.000000	65.243816 
3522.000000	65.227484 
3521.000000	65.207481 
3520.000000	65.185594 
3519.000000	65.163540 
3518.000000	65.142774 
3517.000000	65.124559 
3516.000000	65.109944 
3515.000000	65.099692 
3514.000000	65.094804 
3513.000000	65.096116 
3512.000000	65.104126 
3511.000000	65.118551 
3510.000000	65.137791 
3509.000000	65.159058 
3508.000000	65.178704 
3507.000000	65.192818 
3506.000000	65.197777 
3505.000000	65.191698 
3504.000000	65.174770 
3503.000000	65.150046 
3502.000000	65.122604 
3501.000000	65.098953 
3500.000000	65.085673 
3499.000000	65.088033 
3498.000000	65.108799 
3497.000000	65.147566 
3496.000000	65.200376 
3495.000000	65.260529 
3494.000000	65.319490 
3493.000000	65.368247 
3492.000000	65.399122 
3491.000000	65.407037 
3490.000000	65.390419 
3489.000000	65.351486 
3488.000000	65.295886 
3487.000000	65.231537 
3486.000000	65.167593 
3485.000000	65.112900 
3484.000000	65.074467 
3483.000000	65.056562 
3482.000000	65.059709 
3481.000000	65.081453 
3480.000000	65.116119 
3479.000000	65.156054 
3478.000000	65.193319 
3477.000000	65.220642 
3476.000000	65.233659 
3475.000000	65.231013 
3474.000000	65.215301 
3473.000000	65.191674 
3472.000000	65.167212 
3471.000000	65.148878 
3470.000000	65.142154 
3469.000000	65.149354 
3468.000000	65.169143 
3467.000000	65.196752 
3466.000000	65.225291 
3465.000000	65.247440 
3464.000000	65.257310 
3463.000000	65.252232 
3462.000000	65.232777 
3461.000000	65.203261 
3460.000000	65.170383 
3459.000000	65.141677 
3458.000000	65.123653 
3457.000000	65.120744 
3456.000000	65.134239 
3455.000000	65.162539 
3454.000000	65.202069 
3453.000000	65.247678 
3452.000000	65.294146 
3451.000000	65.336728 
3450.000000	65.371966 
3449.000000	65.397715 
3448.000000	65.413117 
3447.000000	65.418386 
3446.000000	65.414333 
3445.000000	65.402436 
3444.000000	65.384578 
3443.000000	65.363121 
3442.000000	65.340518 
3441.000000	65.318822 
3440.000000	65.299582 
3439.000000	65.283465 
3438.000000	65.270400 
3437.000000	65.259671 
3436.000000	65.250062 
3435.000000	65.240502 
3434.000000	65.230226 
3433.000000	65.219020 
3432.000000	65.207219 
3431.000000	65.195345 
3430.000000	65.183758 
3429.000000	65.172529 
3428.000000	65.161132 
3427.000000	65.148639 
3426.000000	65.134143 
3425.000000	65.116786 
3424.000000	65.096545 
3423.000000	65.073919 
3422.000000	65.050339 
3421.000000	65.027856 
3420.000000	65.008831 
3419.000000	64.995408 
3418.000000	64.989614 
3417.000000	64.992952 
3416.000000	65.006208 
3415.000000	65.029335 
3414.000000	65.061092 
3413.000000	65.099000 
3412.000000	65.139460 
3411.000000	65.178179 
3410.000000	65.210485 
3409.000000	65.232515 
3408.000000	65.241718 
3407.000000	65.237760 
3406.000000	65.222549 
3405.000000	65.199923 
3404.000000	65.175104 
3403.000000	65.153050 
3402.000000	65.137672 
3401.000000	65.130734 
3400.000000	65.131616 
3399.000000	65.137839 
3398.000000	65.145897 
3397.000000	65.152502 
3396.000000	65.155792 
3395.000000	65.155696 
3394.000000	65.153741 
3393.000000	65.152859 
3392.000000	65.156054 
3391.000000	65.165257 
3390.000000	65.180683 
3389.000000	65.200972 
3388.000000	65.223336 
3387.000000	65.244293 
3386.000000	65.260434 
3385.000000	65.269756 
3384.000000	65.271830 
3383.000000	65.267467 
3382.000000	65.258359 
3381.000000	65.246343 
3380.000000	65.232753 
3379.000000	65.218377 
3378.000000	65.202951 
3377.000000	65.185880 
3376.000000	65.166234 
3375.000000	65.143656 
3374.000000	65.118288 
3373.000000	65.091085 
3372.000000	65.063762 
3371.000000	65.038180 
3370.000000	65.016293 
3369.000000	64.999675 
3368.000000	64.989519 
3367.000000	64.986109 
3366.000000	64.989328 
3365.000000	64.998483 
3364.000000	65.012955 
3363.000000	65.032196 
3362.000000	65.055751 
3361.000000	65.083360 
3360.000000	65.114998 
3359.000000	65.150547 
3358.000000	65.189623 
3357.000000	65.231060 
3356.000000	65.272998 
3355.000000	65.312767 
3354.000000	65.347218 
3353.000000	65.373158 
3352.000000	65.387940 
3351.000000	65.390062 
3350.000000	65.379667 
3349.000000	65.358781 
3348.000000	65.330815 
3347.000000	65.300369 
3346.000000	65.272426 
3345.000000	65.251612 
3344.000000	65.241169 
3343.000000	65.242695 
3342.000000	65.255904 
3341.000000	65.278553 
3340.000000	65.307044 
3339.000000	65.336942 
3338.000000	65.363597 
3337.000000	65.382957 
3336.000000	65.391993 
3335.000000	65.389037 
3334.000000	65.373897 
3333.000000	65.348076 
3332.000000	65.314435 
3331.000000	65.276837 
3330.000000	65.239644 
3329.000000	65.207147 
3328.000000	65.183138 
3327.000000	65.170121 
3326.000000	65.168952 
3325.000000	65.179157 
3324.000000	65.198945 
3323.000000	65.225195 
3322.000000	65.254473 
3321.000000	65.283203 
3320.000000	65.308690 
3319.000000	65.328741 
3318.000000	65.342402 
3317.000000	65.349555 
3316.000000	65.350794 
3315.000000	65.347123 
3314.000000	65.339660 
3313.000000	65.329241 
3312.000000	65.316414 
3311.000000	65.301632 
3310.000000	65.285420 
3309.000000	65.268349 
3308.000000	65.251255 
3307.000000	65.234994 
3306.000000	65.220403 
3305.000000	65.207958 
3304.000000	65.197634 
3303.000000	65.188694 
3302.000000	65.179944 
3301.000000	65.169858 
3300.000000	65.157294 
3299.000000	65.141725 
3298.000000	65.123391 
3297.000000	65.103483 
3296.000000	65.083980 
3295.000000	65.067028 
3294.000000	65.054273 
3293.000000	65.046906 
3292.000000	65.044927 
3291.000000	65.047836 
3290.000000	65.054678 
3289.000000	65.064382 
3288.000000	65.076112 
3287.000000	65.089273 
3286.000000	65.103292 
3285.000000	65.117406 
3284.000000	65.130472 
3283.000000	65.141367 
3282.000000	65.148949 
3281.000000	65.152549 
3280.000000	65.152382 
3279.000000	65.149497 
3278.000000	65.145754 
3277.000000	65.143418 
3276.000000	65.144562 
3275.000000	65.150642 
3274.000000	65.161943 
3273.000000	65.177750 
3272.000000	65.196323 
3271.000000	65.215301 
3270.000000	65.232110 
3269.000000	65.244960 
3268.000000	65.252900 
3267.000000	65.255880 
3266.000000	65.254855 
3265.000000	65.251302 
3264.000000	65.246701 
3263.000000	65.242218 
3262.000000	65.238213 
3261.000000	65.234613 
3260.000000	65.230989 
3259.000000	65.227127 
3258.000000	65.223073 
3257.000000	65.219211 
3256.000000	65.216350 
3255.000000	65.215539 
3254.000000	65.217423 
3253.000000	65.222144 
3252.000000	65.229058 
3251.000000	65.237188 
3250.000000	65.245127 
3249.000000	65.251731 
3248.000000	65.256571 
3247.000000	65.260171 
3246.000000	65.263772 
3245.000000	65.269041 
3244.000000	65.277385 
3243.000000	65.289568 
3242.000000	65.305423 
3241.000000	65.323638 
3240.000000	65.342378 
3239.000000	65.359139 
3238.000000	65.371894 
3237.000000	65.378904 
3236.000000	65.379071 
3235.000000	65.371847 
3234.000000	65.357303 
3233.000000	65.335965 
3232.000000	65.308833 
3231.000000	65.277433 
3230.000000	65.243935 
3229.000000	65.211176 
3228.000000	65.182209 
3227.000000	65.159940 
3226.000000	65.146660 
3225.000000	65.143132 
3224.000000	65.148425 
3223.000000	65.159869 
3222.000000	65.173625 
3221.000000	65.185666 
3220.000000	65.192937 
3219.000000	65.193653 
3218.000000	65.188169 
3217.000000	65.178322 
3216.000000	65.167355 
3215.000000	65.158176 
3214.000000	65.153503 
3213.000000	65.154600 
3212.000000	65.161609 
3211.000000	65.173697 
3210.000000	65.189194 
3209.000000	65.206384 
3208.000000	65.223288 
3207.000000	65.238690 
3206.000000	65.251326 
3205.000000	65.260004 
3204.000000	65.263700 
3203.000000	65.261316 
3202.000000	65.252113 
3201.000000	65.235829 
3200.000000	65.213251 
3199.000000	65.186047 
3198.000000	65.156722 
3197.000000	65.128135 
3196.000000	65.103006 
3195.000000	65.083575 
3194.000000	65.071105 
3193.000000	65.065741 
3192.000000	65.066742 
3191.000000	65.072703 
3190.000000	65.081858 
3189.000000	65.092778 
3188.000000	65.103912 
3187.000000	65.114760 
3186.000000	65.125250 
3185.000000	65.136098 
3184.000000	65.148234 
3183.000000	65.162658 
3182.000000	65.180110 
3181.000000	65.200757 
3180.000000	65.224099 
3179.000000	65.248799 
3178.000000	65.273022 
3177.000000	65.294551 
3176.000000	65.311169 
3175.000000	65.320968 
3174.000000	65.322995 
3173.000000	65.317177 
3172.000000	65.304613 
3171.000000	65.287375 
3170.000000	65.267944 
3169.000000	65.249109 
3168.000000	65.233373 
3167.000000	65.222430 
3166.000000	65.216827 
3165.000000	65.216422 
3164.000000	65.219974 
3163.000000	65.225243 
3162.000000	65.229797 
3161.000000	65.231513 
3160.000000	65.229034 
3159.000000	65.222048 
3158.000000	65.211319 
3157.000000	65.198588 
3156.000000	65.185976 
3155.000000	65.175914 
3154.000000	65.169978 
3153.000000	65.168642 
3152.000000	65.171170 
3151.000000	65.175914 
3150.000000	65.180540 
3149.000000	65.182733 
3148.000000	65.180778 
3147.000000	65.174174 
3146.000000	65.163493 
3145.000000	65.150380 
3144.000000	65.137243 
3143.000000	65.126752 
3142.000000	65.121364 
3141.000000	65.122866 
3140.000000	65.132427 
3139.000000	65.150570 
3138.000000	65.177392 
3137.000000	65.212440 
3136.000000	65.254950 
3135.000000	65.303325 
3134.000000	65.355491 
3133.000000	65.408229 
3132.000000	65.457630 
3131.000000	65.498924 
3130.000000	65.527725 
3129.000000	65.540409 
3128.000000	65.535140 
3127.000000	65.512347 
3126.000000	65.475058 
3125.000000	65.428209 
3124.000000	65.377998 
3123.000000	65.330410 
3122.000000	65.290403 
3121.000000	65.260720 
3120.000000	65.241670 
3119.000000	65.231466 
3118.000000	65.226888 
3117.000000	65.224385 
3116.000000	65.221047 
3115.000000	65.215206 
3114.000000	65.206956 
3113.000000	65.197610 
3112.000000	65.189528 
3111.000000	65.184736 
3110.000000	65.185117 
3109.000000	65.191483 
3108.000000	65.203905 
3107.000000	65.221714 
3106.000000	65.243625 
3105.000000	65.268611 
3104.000000	65.295505 
3103.000000	65.322852 
3102.000000	65.349197 
3101.000000	65.372896 
3100.000000	65.391945 
3099.000000	65.404367 
3098.000000	65.408396 
3097.000000	65.403318 
3096.000000	65.389585 
3095.000000	65.369129 
3094.000000	65.344977 
3093.000000	65.320587 
3092.000000	65.299701 
3091.000000	65.285301 
3090.000000	65.279102 
3089.000000	65.281248 
3088.000000	65.290546 
3087.000000	65.304803 
3086.000000	65.321373 
3085.000000	65.337800 
3084.000000	65.352034 
3083.000000	65.362668 
3082.000000	65.369129 
3081.000000	65.371394 
3080.000000	65.369629 
3079.000000	65.364027 
3078.000000	65.354657 
3077.000000	65.341424 
3076.000000	65.324306 
3075.000000	65.303540 
3074.000000	65.279722 
3073.000000	65.254211 
3072.000000	65.228700 
3071.000000	65.205502 
3070.000000	65.186929 
3069.000000	65.175104 
3068.000000	65.171504 
3067.000000	65.176749 
3066.000000	65.190529 
3065.000000	65.211582 
3064.000000	65.237569 
3063.000000	65.265679 
3062.000000	65.292692 
3061.000000	65.315437 
3060.000000	65.331196 
3059.000000	65.337753 
3058.000000	65.333795 
3057.000000	65.318965 
3056.000000	65.294218 
3055.000000	65.261650 
3054.000000	65.224385 
3053.000000	65.186309 
3052.000000	65.151810 
3051.000000	65.125083 
3050.000000	65.109586 
3049.000000	65.107560 
3048.000000	65.119290 
3047.000000	65.143156 
3046.000000	65.175461 
3045.000000	65.211296 
3044.000000	65.244626 
3043.000000	65.269684 
3042.000000	65.281581 
3041.000000	65.277361 
3040.000000	65.256404 
3039.000000	65.220499 
3038.000000	65.173697 
3037.000000	65.121555 
3036.000000	65.070438 
3035.000000	65.026426 
3034.000000	64.994525 
3033.000000	64.977931 
3032.000000	64.977717 
3031.000000	64.992952 
3030.000000	65.020799 
3029.000000	65.057253 
3028.000000	65.097498 
3027.000000	65.137076 
3026.000000	65.172004 
3025.000000	65.199804 
3024.000000	65.219140 
3023.000000	65.230321 
3022.000000	65.234827 
3021.000000	65.234875 
3020.000000	65.232777 
3019.000000	65.230321 
3018.000000	65.228939 
3017.000000	65.228962 
3016.000000	65.230107 
3015.000000	65.231275 
3014.000000	65.231227 
3013.000000	65.228796 
3012.000000	65.223288 
3011.000000	65.214395 
3010.000000	65.202331 
3009.000000	65.187883 
3008.000000	65.172195 
3007.000000	65.156483 
3006.000000	65.142226 
3005.000000	65.130543 
3004.000000	65.122389 
3003.000000	65.118265 
3002.000000	65.118432 
3001.000000	65.122675 
3000.000000	65.130305 
2999.000000	65.140271 
2998.000000	65.151596 
2997.000000	65.163564 
2996.000000	65.175819 
2995.000000	65.188169 
2994.000000	65.200614 
2993.000000	65.213251 
2992.000000	65.225934 
2991.000000	65.237998 
2990.000000	65.248250 
2989.000000	65.255212 
2988.000000	65.257310 
2987.000000	65.253543 
2986.000000	65.243530 
2985.000000	65.227961 
2984.000000	65.208435 
2983.000000	65.187263 
2982.000000	65.167164 
2981.000000	65.150737 
2980.000000	65.139746 
2979.000000	65.135145 
2978.000000	65.136671 
2977.000000	65.143060 
2976.000000	65.152525 
2975.000000	65.163064 
2974.000000	65.172600 
2973.000000	65.179467 
2972.000000	65.182542 
2971.000000	65.181255 
2970.000000	65.175533 
2969.000000	65.165734 
2968.000000	65.152454 
2967.000000	65.136647 
2966.000000	65.119314 
2965.000000	65.101790 
2964.000000	65.085411 
2963.000000	65.071487 
2962.000000	65.061044 
2961.000000	65.054583 
2960.000000	65.051913 
2959.000000	65.052151 
2958.000000	65.053749 
2957.000000	65.054774 
2956.000000	65.053462 
2955.000000	65.048885 
2954.000000	65.041279 
2953.000000	65.032124 
2952.000000	65.023994 
2951.000000	65.019822 
2950.000000	65.022349 
2949.000000	65.033173 
2948.000000	65.052294 
2947.000000	65.077877 
2946.000000	65.106582 
2945.000000	65.134191 
2944.000000	65.156602 
2943.000000	65.170741 
2942.000000	65.175485 
2941.000000	65.171504 
2940.000000	65.161442 
2939.000000	65.148949 
2938.000000	65.137791 
2937.000000	65.131068 
2936.000000	65.130257 
2935.000000	65.135049 
2934.000000	65.143251 
2933.000000	65.151667 
2932.000000	65.156531 
2931.000000	65.154266 
2930.000000	65.142488 
2929.000000	65.120649 
2928.000000	65.089797 
2927.000000	65.052747 
2926.000000	65.013480 
2925.000000	64.976215 
2924.000000	64.944815 
2923.000000	64.921855 
2922.000000	64.908313 
2921.000000	64.903688 
2920.000000	64.906239 
2919.000000	64.913630 
2918.000000	64.923477 
2917.000000	64.933896 
2916.000000	64.943790 
2915.000000	64.953017 
2914.000000	64.961624 
2913.000000	64.970016 
2912.000000	64.978146 
2911.000000	64.985847 
2910.000000	64.992165 
2909.000000	64.996337 
2908.000000	64.997720 
2907.000000	64.996576 
2906.000000	64.994072 
2905.000000	64.992189 
2904.000000	64.993119 
2903.000000	64.999079 
2902.000000	65.011644 
2901.000000	65.031123 
2900.000000	65.056347 
2899.000000	65.084981 
2898.000000	65.113735 
2897.000000	65.139031 
2896.000000	65.157413 
2895.000000	65.166592 
2894.000000	65.165495 
2893.000000	65.154528 
2892.000000	65.135431 
2891.000000	65.111160 
2890.000000	65.084934 
2889.000000	65.060091 
2888.000000	65.039157 
2887.000000	65.023565 
2886.000000	65.013551 
2885.000000	65.008425 
2884.000000	65.006804 
2883.000000	65.007019 
2882.000000	65.008115 
2881.000000	65.009999 
2880.000000	65.013837 
2879.000000	65.021419 
2878.000000	65.035080 
2877.000000	65.056586 
2876.000000	65.086746 
2875.000000	65.124583 
2874.000000	65.167546 
2873.000000	65.211462 
2872.000000	65.251612 
2871.000000	65.283560 
2870.000000	65.303945 
2869.000000	65.311074 
2868.000000	65.305423 
2867.000000	65.289115 
2866.000000	65.265560 
2865.000000	65.238022 
2864.000000	65.209674 
2863.000000	65.182280 
2862.000000	65.156531 
2861.000000	65.131831 
2860.000000	65.107226 
2859.000000	65.081763 
2858.000000	65.055155 
2857.000000	65.027904 
2856.000000	65.001416 
2855.000000	64.977812 
2854.000000	64.959120 
2853.000000	64.947128 
2852.000000	64.942646 
2851.000000	64.945864 
2850.000000	64.956307 
2849.000000	64.973115 
2848.000000	64.995098 
2847.000000	65.020966 
2846.000000	65.049505 
2845.000000	65.079426 
2844.000000	65.109419 
2843.000000	65.138196 
2842.000000	65.164685 
2841.000000	65.188074 
2840.000000	65.207910 
2839.000000	65.224337 
2838.000000	65.237927 
2837.000000	65.249443 
2836.000000	65.259790 
2835.000000	65.269780 
2834.000000	65.279769 
2833.000000	65.289998 
2832.000000	65.300154 
2831.000000	65.309786 
2830.000000	65.317940 
2829.000000	65.323901 
2828.000000	65.326619 
2827.000000	65.325188 
2826.000000	65.318822 
2825.000000	65.307092 
2824.000000	65.290188 
2823.000000	65.268945 
2822.000000	65.245199 
2821.000000	65.221476 
2820.000000	65.200781 
2819.000000	65.186095 
2818.000000	65.179657 
2817.000000	65.182590 
2816.000000	65.194654 
2815.000000	65.214300 
2814.000000	65.238714 
2813.000000	65.264534 
2812.000000	65.288567 
2811.000000	65.308165 
2810.000000	65.321850 
2809.000000	65.328955 
2808.000000	65.329837 
2807.000000	65.325284 
2806.000000	65.316224 
2805.000000	65.303540 
2804.000000	65.287923 
2803.000000	65.269947 
2802.000000	65.250420 
2801.000000	65.230298 
2800.000000	65.210938 
2799.000000	65.193772 
2798.000000	65.180301 
2797.000000	65.171480 
2796.000000	65.167665 
2795.000000	65.168476 
2794.000000	65.172743 
2793.000000	65.178871 
2792.000000	65.184998 
2791.000000	65.189599 
2790.000000	65.191817 
2789.000000	65.191245 
2788.000000	65.188169 
2787.000000	65.183329 
2786.000000	65.177822 
2785.000000	65.172815 
2784.000000	65.169429 
2783.000000	65.168547 
2782.000000	65.170741 
2781.000000	65.176105 
2780.000000	65.184116 
2779.000000	65.193819 
2778.000000	65.203857 
2777.000000	65.212774 
2776.000000	65.219354 
2775.000000	65.222716 
2774.000000	65.222644 
2773.000000	65.219545 
2772.000000	65.214443 
2771.000000	65.208864 
2770.000000	65.204429 
2769.000000	65.202426 
2768.000000	65.203738 
2767.000000	65.208506 
2766.000000	65.216374 
2765.000000	65.226340 
2764.000000	65.237188 
2763.000000	65.247774 
2762.000000	65.257120 
2761.000000	65.264773 
2760.000000	65.270543 
2759.000000	65.274643 
2758.000000	65.277576 
2757.000000	65.279936 
2756.000000	65.282201 
2755.000000	65.284514 
2754.000000	65.286779 
2753.000000	65.288424 
2752.000000	65.288901 
2751.000000	65.287566 
2750.000000	65.283846 
2749.000000	65.277481 
2748.000000	65.268802 
2747.000000	65.258693 
2746.000000	65.248322 
2745.000000	65.239286 
2744.000000	65.233087 
2743.000000	65.230941 
2742.000000	65.233707 
2741.000000	65.241575 
2740.000000	65.253996 
2739.000000	65.269947 
2738.000000	65.288043 
2737.000000	65.306758 
2736.000000	65.324401 
2735.000000	65.339279 
2734.000000	65.349721 
2733.000000	65.354323 
2732.000000	65.352153 
2731.000000	65.343141 
2730.000000	65.328121 
2729.000000	65.309071 
2728.000000	65.288615 
2727.000000	65.269923 
2726.000000	65.256094 
2725.000000	65.249514 
2724.000000	65.251469 
2723.000000	65.262103 
2722.000000	65.280175 
2721.000000	65.303444 
2720.000000	65.329051 
2719.000000	65.353918 
2718.000000	65.375304 
2717.000000	65.390992 
2716.000000	65.399599 
2715.000000	65.400671 
2714.000000	65.394663 
2713.000000	65.383005 
2712.000000	65.367722 
2711.000000	65.351343 
2710.000000	65.336441 
2709.000000	65.325379 
2708.000000	65.319776 
2707.000000	65.320134 
2706.000000	65.325975 
2705.000000	65.335726 
2704.000000	65.347337 
2703.000000	65.358519 
2702.000000	65.367364 
2701.000000	65.372610 
2700.000000	65.373778 
2699.000000	65.371012 
2698.000000	65.365004 
2697.000000	65.356469 
2696.000000	65.345978 
2695.000000	65.333914 
2694.000000	65.320491 
2693.000000	65.305876 
2692.000000	65.290284 
2691.000000	65.274286 
2690.000000	65.258812 
2689.000000	65.245032 
2688.000000	65.234231 
2687.000000	65.227484 
2686.000000	65.225315 
2685.000000	65.227603 
2684.000000	65.233707 
2683.000000	65.242457 
2682.000000	65.252399 
2681.000000	65.261864 
2680.000000	65.269303 
2679.000000	65.273427 
2678.000000	65.273451 
2677.000000	65.269017 
2676.000000	65.260386 
2675.000000	65.248417 
2674.000000	65.234231 
2673.000000	65.219211 
2672.000000	65.204739 
2671.000000	65.192079 
2670.000000	65.181970 
2669.000000	65.174841 
2668.000000	65.170598 
2667.000000	65.168857 
2666.000000	65.168905 
2665.000000	65.169715 
2664.000000	65.170526 
2663.000000	65.170860 
2662.000000	65.170812 
2661.000000	65.170907 
2660.000000	65.172243 
2659.000000	65.176200 
2658.000000	65.184020 
2657.000000	65.196657 
2656.000000	65.214228 
2655.000000	65.235900 
2654.000000	65.259838 
2653.000000	65.283560 
2652.000000	65.304183 
2651.000000	65.319013 
2650.000000	65.326142 
2649.000000	65.324687 
2648.000000	65.315127 
2647.000000	65.299105 
2646.000000	65.279364 
2645.000000	65.259051 
2644.000000	65.241312 
2643.000000	65.228939 
2642.000000	65.223693 
2641.000000	65.226554 
2640.000000	65.237498 
2639.000000	65.255618 
2638.000000	65.279269 
2637.000000	65.306377 
2636.000000	65.334630 
2635.000000	65.361738 
2634.000000	65.385413 
2633.000000	65.403485 
2632.000000	65.414381 
2631.000000	65.417027 
2630.000000	65.410971 
2629.000000	65.396618 
2628.000000	65.375208 
2627.000000	65.348935 
2626.000000	65.320467 
2625.000000	65.292739 
2624.000000	65.268421 
2623.000000	65.249681 
2622.000000	65.237736 
2621.000000	65.232610 
2620.000000	65.233278 
2619.000000	65.238094 
2618.000000	65.245223 
2617.000000	65.252900 
2616.000000	65.260028 
2615.000000	65.266227 
2614.000000	65.271997 
2613.000000	65.278220 
2612.000000	65.286111 
2611.000000	65.296435 
2610.000000	65.309500 
2609.000000	65.324974 
2608.000000	65.342044 
2607.000000	65.359473 
2606.000000	65.375971 
2605.000000	65.390491 
2604.000000	65.402221 
2603.000000	65.410614 
2602.000000	65.415334 
2601.000000	65.415978 
2600.000000	65.412187 
2599.000000	65.403652 
2598.000000	65.390229 
2597.000000	65.372228 
2596.000000	65.350675 
2595.000000	65.327286 
2594.000000	65.304493 
2593.000000	65.284895 
2592.000000	65.270829 
2591.000000	65.264034 
2590.000000	65.265083 
2589.000000	65.273523 
2588.000000	65.287756 
2587.000000	65.305519 
2586.000000	65.324330 
2585.000000	65.342068 
2584.000000	65.357303 
2583.000000	65.369367 
2582.000000	65.378236 
2581.000000	65.384411 
2580.000000	65.388655 
2579.000000	65.391635 
2578.000000	65.393805 
2577.000000	65.395498 
2576.000000	65.396785 
2575.000000	65.397763 
2574.000000	65.398025 
2573.000000	65.397000 
2572.000000	65.393614 
2571.000000	65.386438 
2570.000000	65.374112 
2569.000000	65.355396 
2568.000000	65.329933 
2567.000000	65.298557 
2566.000000	65.263628 
2565.000000	65.228414 
2564.000000	65.197062 
2563.000000	65.173554 
2562.000000	65.161204 
2561.000000	65.161657 
2560.000000	65.174698 
2559.000000	65.198278 
2558.000000	65.228581 
2557.000000	65.260863 
2556.000000	65.290069 
2555.000000	65.311813 
2554.000000	65.323019 
2553.000000	65.322232 
2552.000000	65.309858 
2551.000000	65.287733 
2550.000000	65.258789 
2549.000000	65.226602 
2548.000000	65.194845 
2547.000000	65.166878 
2546.000000	65.145444 
2545.000000	65.132498 
2544.000000	65.129208 
2543.000000	65.135765 
2542.000000	65.151453 
2541.000000	65.174770 
2540.000000	65.203309 
2539.000000	65.234422 
2538.000000	65.265059 
2537.000000	65.292525 
2536.000000	65.314698 
2535.000000	65.330433 
2534.000000	65.339303 
2533.000000	65.341973 
2532.000000	65.339827 
2531.000000	65.334606 
2530.000000	65.327978 
2529.000000	65.321207 
2528.000000	65.315079 
2527.000000	65.309476 
2526.000000	65.303874 
2525.000000	65.297269 
2524.000000	65.288877 
2523.000000	65.278458 
2522.000000	65.266585 
2521.000000	65.254688 
2520.000000	65.244460 
2519.000000	65.237402 
2518.000000	65.234231 
2517.000000	65.234637 
2516.000000	65.237283 
2515.000000	65.239906 
2514.000000	65.240383 
2513.000000	65.237069 
2512.000000	65.229749 
2511.000000	65.219378 
2510.000000	65.208315 
2509.000000	65.199351 
2508.000000	65.195250 
2507.000000	65.198040 
2506.000000	65.208172 
2505.000000	65.224742 
2504.000000	65.245366 
2503.000000	65.266823 
2502.000000	65.285849 
2501.000000	65.299749 
2500.000000	65.306997 
2499.000000	65.307545 
2498.000000	65.302515 
2497.000000	65.294146 
2496.000000	65.285062 
2495.000000	65.277814 
2494.000000	65.274572 
2493.000000	65.276598 
2492.000000	65.284132 
2491.000000	65.296339 
2490.000000	65.311813 
2489.000000	65.328550 
2488.000000	65.344572 
2487.000000	65.357851 
2486.000000	65.367078 
2485.000000	65.371394 
2484.000000	65.370631 
2483.000000	65.365242 
2482.000000	65.356397 
2481.000000	65.345549 
2480.000000	65.334558 
2479.000000	65.325212 
2478.000000	65.319156 
2477.000000	65.317368 
2476.000000	65.319871 
2475.000000	65.325760 
2474.000000	65.333485 
2473.000000	65.340900 
2472.000000	65.346002 
2471.000000	65.347123 
2470.000000	65.343570 
2469.000000	65.335893 
2468.000000	65.325832 
2467.000000	65.315723 
2466.000000	65.307855 
2465.000000	65.304112 
2464.000000	65.305256 
2463.000000	65.310859 
2462.000000	65.319323 
2461.000000	65.328598 
2460.000000	65.336608 
2459.000000	65.341806 
2458.000000	65.343689 
2457.000000	65.342688 
2456.000000	65.340065 
2455.000000	65.337228 
2454.000000	65.335750 
2453.000000	65.336823 
2452.000000	65.341162 
2451.000000	65.348911 
2450.000000	65.359735 
2449.000000	65.373063 
2448.000000	65.387916 
2447.000000	65.403318 
2446.000000	65.417981 
2445.000000	65.430331 
2444.000000	65.438699 
2443.000000	65.441370 
2442.000000	65.437173 
2441.000000	65.425682 
2440.000000	65.407562 
2439.000000	65.384435 
2438.000000	65.358948 
2437.000000	65.334081 
2436.000000	65.312814 
2435.000000	65.297365 
2434.000000	65.288829 
2433.000000	65.287065 
2432.000000	65.290713 
2431.000000	65.297532 
2430.000000	65.304923 
2429.000000	65.310692 
2428.000000	65.313053 
2427.000000	65.311455 
2426.000000	65.306210 
2425.000000	65.298914 
2424.000000	65.291523 
2423.000000	65.286540 
2422.000000	65.286064 
2421.000000	65.291595 
2420.000000	65.303754 
2419.000000	65.321731 
2418.000000	65.343451 
2417.000000	65.365791 
2416.000000	65.385079 
2415.000000	65.397953 
2414.000000	65.401935 
2413.000000	65.396070 
2412.000000	65.381050 
2411.000000	65.359210 
2410.000000	65.333867 
2409.000000	65.308809 
2408.000000	65.287470 
2407.000000	65.272164 
2406.000000	65.263605 
2405.000000	65.261387 
2404.000000	65.263843 
2403.000000	65.268683 
2402.000000	65.273785 
2401.000000	65.277600 
2400.000000	65.279459 
2399.000000	65.279603 
2398.000000	65.278887 
2397.000000	65.278434 
2396.000000	65.279483 
2395.000000	65.282869 
2394.000000	65.289044 
2393.000000	65.297818 
2392.000000	65.308356 
2391.000000	65.319442 
2390.000000	65.329599 
2389.000000	65.337371 
2388.000000	65.341567 
2387.000000	65.341639 
2386.000000	65.337705 
2385.000000	65.330529 
2384.000000	65.321469 
2383.000000	65.312170 
2382.000000	65.304303 
2381.000000	65.299391 
2380.000000	65.298390 
2379.000000	65.301680 
2378.000000	65.309190 
2377.000000	65.320324 
2376.000000	65.334296 
2375.000000	65.350031 
2374.000000	65.366458 
2373.000000	65.382361 
2372.000000	65.396499 
2371.000000	65.407443 
2370.000000	65.413880 
2369.000000	65.414857 
2368.000000	65.409851 
2367.000000	65.399146 
2366.000000	65.383791 
2365.000000	65.365481 
2364.000000	65.346479 
2363.000000	65.328907 
2362.000000	65.314579 
2361.000000	65.304684 
2360.000000	65.299749 
2359.000000	65.299606 
2358.000000	65.303635 
2357.000000	65.311002 
2356.000000	65.321087 
2355.000000	65.333318 
2354.000000	65.347361 
2353.000000	65.362811 
2352.000000	65.379118 
2351.000000	65.395402 
2350.000000	65.410518 
2349.000000	65.423417 
2348.000000	65.433263 
2347.000000	65.439724 
2346.000000	65.442943 
2345.000000	65.443754 
2344.000000	65.443110 
2343.000000	65.442085 
2342.000000	65.441155 
2341.000000	65.440344 
2340.000000	65.439009 
2339.000000	65.436172 
2338.000000	65.430593 
2337.000000	65.421319 
2336.000000	65.408182 
2335.000000	65.391755 
2334.000000	65.373420 
2333.000000	65.355181 
2332.000000	65.339159 
2331.000000	65.327358 
2330.000000	65.321159 
2329.000000	65.321063 
2328.000000	65.326619 
2327.000000	65.336537 
2326.000000	65.348935 
2325.000000	65.361642 
2324.000000	65.372419 
2323.000000	65.379643 
2322.000000	65.382385 
2321.000000	65.380668 
2320.000000	65.375256 
2319.000000	65.367698 
2318.000000	65.359854 
2317.000000	65.353393 
2316.000000	65.349698 
2315.000000	65.349149 
2314.000000	65.351486 
2313.000000	65.355634 
2312.000000	65.360164 
2311.000000	65.363526 
2310.000000	65.364575 
2309.000000	65.362954 
2308.000000	65.358972 
2307.000000	65.353798 
2306.000000	65.348958 
2305.000000	65.346097 
2304.000000	65.346360 
2303.000000	65.350222 
2302.000000	65.357112 
2301.000000	65.365767 
2300.000000	65.374302 
2299.000000	65.380573 
2298.000000	65.382647 
2297.000000	65.379357 
2296.000000	65.370368 
2295.000000	65.356588 
2294.000000	65.339732 
2293.000000	65.322089 
2292.000000	65.306043 
2291.000000	65.293741 
2290.000000	65.286493 
2289.000000	65.284514 
2288.000000	65.287160 
2287.000000	65.293002 
2286.000000	65.300297 
2285.000000	65.307211 
2284.000000	65.312337 
2283.000000	65.314769 
2282.000000	65.314269 
2281.000000	65.311241 
2280.000000	65.306496 
2279.000000	65.301203 
2278.000000	65.296435 
2277.000000	65.293288 
2276.000000	65.292549 
2275.000000	65.294599 
2274.000000	65.299558 
2273.000000	65.307021 
2272.000000	65.316247 
2271.000000	65.325999 
2270.000000	65.335011 
2269.000000	65.341973 
2268.000000	65.345811 
2267.000000	65.346026 
2266.000000	65.342593 
2265.000000	65.336179 
2264.000000	65.327858 
2263.000000	65.318942 
2262.000000	65.310764 
2261.000000	65.304422 
2260.000000	65.300488 
2259.000000	65.299153 
2258.000000	65.300250 
2257.000000	65.303421 
2256.000000	65.308117 
2255.000000	65.313935 
2254.000000	65.320587 
2253.000000	65.328001 
2252.000000	65.336275 
2251.000000	65.345430 
2250.000000	65.355396 
2249.000000	65.365934 
2248.000000	65.376543 
2247.000000	65.386629 
2246.000000	65.395450 
2245.000000	65.402460 
2244.000000	65.407276 
2243.000000	65.409803 
2242.000000	65.410232 
2241.000000	65.408921 
2240.000000	65.406298 
2239.000000	65.402913 
2238.000000	65.399098 
2237.000000	65.395164 
2236.000000	65.391206 
2235.000000	65.387129 
2234.000000	65.382981 
2233.000000	65.378832 
2232.000000	65.374803 
2231.000000	65.371060 
2230.000000	65.367794 
2229.000000	65.365123 
2228.000000	65.363121 
2227.000000	65.361642 
2226.000000	65.360474 
2225.000000	65.359330 
2224.000000	65.357899 
2223.000000	65.355968 
2222.000000	65.353274 
2221.000000	65.349411 
2220.000000	65.344190 
2219.000000	65.337538 
2218.000000	65.329432 
2217.000000	65.319991 
2216.000000	65.309739 
2215.000000	65.299391 
2214.000000	65.289902 
2213.000000	65.282487 
2212.000000	65.278100 
2211.000000	65.277409 
2210.000000	65.280580 
2209.000000	65.286922 
2208.000000	65.295171 
2207.000000	65.303635 
2206.000000	65.310549 
2205.000000	65.314483 
2204.000000	65.314412 
2203.000000	65.309882 
2202.000000	65.301251 
2201.000000	65.289258 
2200.000000	65.275192 
2199.000000	65.260720 
2198.000000	65.247797 
2197.000000	65.238523 
2196.000000	65.234947 
2195.000000	65.238499 
2194.000000	65.250062 
2193.000000	65.269494 
2192.000000	65.295791 
2191.000000	65.327000 
2190.000000	65.360569 
2189.000000	65.393853 
2188.000000	65.424299 
2187.000000	65.449833 
2186.000000	65.469098 
2185.000000	65.481615 
2184.000000	65.487408 
2183.000000	65.487122 
2182.000000	65.481615 
2181.000000	65.472054 
2180.000000	65.459418 
2179.000000	65.444612 
2178.000000	65.428400 
2177.000000	65.411353 
2176.000000	65.393948 
2175.000000	65.376520 
2174.000000	65.359139 
2173.000000	65.341830 
2172.000000	65.324711 
2171.000000	65.307927 
2170.000000	65.291953 
2169.000000	65.277600 
2168.000000	65.265965 
2167.000000	65.258336 
2166.000000	65.255975 
2165.000000	65.259718 
2164.000000	65.269684 
2163.000000	65.285229 
2162.000000	65.304756 
2161.000000	65.325951 
2160.000000	65.346264 
2159.000000	65.363383 
2158.000000	65.375375 
2157.000000	65.381193 
2156.000000	65.380644 
2155.000000	65.374207 
2154.000000	65.363001 
2153.000000	65.348291 
2152.000000	65.331268 
2151.000000	65.313053 
2150.000000	65.294528 
2149.000000	65.276479 
2148.000000	65.259552 
2147.000000	65.244483 
2146.000000	65.232205 
2145.000000	65.223407 
2144.000000	65.218710 
2143.000000	65.218400 
2142.000000	65.222215 
2141.000000	65.229320 
2140.000000	65.238380 
2139.000000	65.247678 
2138.000000	65.255832 
2137.000000	65.261554 
2136.000000	65.264439 
2135.000000	65.264558 
2134.000000	65.262818 
2133.000000	65.260434 
2132.000000	65.258812 
2131.000000	65.259003 
2130.000000	65.261602 
2129.000000	65.266823 
2128.000000	65.274190 
2127.000000	65.283060 
2126.000000	65.292406 
2125.000000	65.301299 
2124.000000	65.309000 
2123.000000	65.315103 
2122.000000	65.319633 
2121.000000	65.322899 
2120.000000	65.325522 
2119.000000	65.328288 
2118.000000	65.331983 
2117.000000	65.337252 
2116.000000	65.344476 
2115.000000	65.353560 
2114.000000	65.363931 
2113.000000	65.374326 
2112.000000	65.383219 
2111.000000	65.388822 
2110.000000	65.389537 
2109.000000	65.384173 
2108.000000	65.372157 
2107.000000	65.353608 
2106.000000	65.329480 
2105.000000	65.301394 
2104.000000	65.271496 
2103.000000	65.242290 
2102.000000	65.216612 
2101.000000	65.197134 
2100.000000	65.186119 
2099.000000	65.184903 
2098.000000	65.193772 
2097.000000	65.211462 
2096.000000	65.235376 
2095.000000	65.261864 
2094.000000	65.286803 
2093.000000	65.306305 
2092.000000	65.317487 
2091.000000	65.318989 
2090.000000	65.311384 
2089.000000	65.296840 
2088.000000	65.278816 
2087.000000	65.261101 
2086.000000	65.247035 
2085.000000	65.239000 
2084.000000	65.237927 
2083.000000	65.243434 
2082.000000	65.254235 
2081.000000	65.268516 
2080.000000	65.284419 
2079.000000	65.300393 
2078.000000	65.315461 
2077.000000	65.328931 
2076.000000	65.340709 
2075.000000	65.350699 
2074.000000	65.358972 
2073.000000	65.365648 
2072.000000	65.370750 
2071.000000	65.374231 
2070.000000	65.375924 
2069.000000	65.375828 
2068.000000	65.373921 
2067.000000	65.370297 
2066.000000	65.365099 
2065.000000	65.358686 
2064.000000	65.351724 
2063.000000	65.345120 
2062.000000	65.340042 
2061.000000	65.337610 
2060.000000	65.338706 
2059.000000	65.343737 
2058.000000	65.352296 
2057.000000	65.363454 
2056.000000	65.375709 
2055.000000	65.387129 
2054.000000	65.396022 
2053.000000	65.401101 
2052.000000	65.401697 
2051.000000	65.397691 
2050.000000	65.389609 
2049.000000	65.378427 
2048.000000	65.365433 
2047.000000	65.351867 
2046.000000	65.338826 
2045.000000	65.327072 
2044.000000	65.317130 
2043.000000	65.309262 
2042.000000	65.303421 
2041.000000	65.299272 
2040.000000	65.296435 
2039.000000	65.294456 
2038.000000	65.292882 
2037.000000	65.291571 
2036.000000	65.290808 
2035.000000	65.291142 
2034.000000	65.293335 
2033.000000	65.298128 
2032.000000	65.305948 
2031.000000	65.316772 
2030.000000	65.329861 
2029.000000	65.343976 
2028.000000	65.357303 
2027.000000	65.368080 
2026.000000	65.374732 
2025.000000	65.376234 
2024.000000	65.372157 
2023.000000	65.362882 
2022.000000	65.349411 
2021.000000	65.333294 
2020.000000	65.316271 
2019.000000	65.299987 
2018.000000	65.285706 
2017.000000	65.274262 
2016.000000	65.265798 
2015.000000	65.260028 
2014.000000	65.256190 
2013.000000	65.253376 
2012.000000	65.250658 
2011.000000	65.247368 
2010.000000	65.243315 
2009.000000	65.238928 
2008.000000	65.235161 
2007.000000	65.233349 
2006.000000	65.234827 
2005.000000	65.240788 
2004.000000	65.251731 
2003.000000	65.267539 
2002.000000	65.287089 
2001.000000	65.308713 
2000.000000	65.330314 
1999.000000	65.349674 
1998.000000	65.365028 
1997.000000	65.375232 
1996.000000	65.379977 
1995.000000	65.379500 
1994.000000	65.374827 
1993.000000	65.367197 
1992.000000	65.357947 
1991.000000	65.348315 
1990.000000	65.339231 
1989.000000	65.331339 
1988.000000	65.325164 
1987.000000	65.320968 
1986.000000	65.318989 
1985.000000	65.319275 
1984.000000	65.321946 
1983.000000	65.326976 
1982.000000	65.334224 
1981.000000	65.343403 
1980.000000	65.353965 
1979.000000	65.365266 
1978.000000	65.376186 
1977.000000	65.385675 
1976.000000	65.392470 
1975.000000	65.395736 
1974.000000	65.394878 
1973.000000	65.389895 
1972.000000	65.381121 
1971.000000	65.369415 
1970.000000	65.355634 
1969.000000	65.340828 
1968.000000	65.326070 
1967.000000	65.312314 
1966.000000	65.300512 
1965.000000	65.291452 
1964.000000	65.285634 
1963.000000	65.283226 
1962.000000	65.284180 
1961.000000	65.288090 
1960.000000	65.294170 
1959.000000	65.301489 
1958.000000	65.309000 
1957.000000	65.315747 
1956.000000	65.321063 
1955.000000	65.324425 
1954.000000	65.325522 
1953.000000	65.324163 
1952.000000	65.320205 
1951.000000	65.313887 
1950.000000	65.305280 
1949.000000	65.295052 
1948.000000	65.284347 
1947.000000	65.274810 
1946.000000	65.268373 
1945.000000	65.266680 
1944.000000	65.270924 
1943.000000	65.281271 
1942.000000	65.296673 
1941.000000	65.315246 
1940.000000	65.334367 
1939.000000	65.351700 
1938.000000	65.365505 
1937.000000	65.374970 
1936.000000	65.380263 
1935.000000	65.382432 
1934.000000	65.382671 
1933.000000	65.381956 
1932.000000	65.380549 
1931.000000	65.377902 
1930.000000	65.372943 
1929.000000	65.364456 
1928.000000	65.351653 
1927.000000	65.334677 
1926.000000	65.314722 
1925.000000	65.293884 
1924.000000	65.274548 
1923.000000	65.259003 
1922.000000	65.248799 
1921.000000	65.244436 
1920.000000	65.245509 
1919.000000	65.250587 
1918.000000	65.257906 
1917.000000	65.265607 
1916.000000	65.272259 
1915.000000	65.276980 
1914.000000	65.279674 
1913.000000	65.280723 
1912.000000	65.280795 
1911.000000	65.280580 
1910.000000	65.280461 
1909.000000	65.280389 
1908.000000	65.279865 
1907.000000	65.278196 
1906.000000	65.274715 
1905.000000	65.269327 
1904.000000	65.262413 
1903.000000	65.255141 
1902.000000	65.249085 
1901.000000	65.246105 
1900.000000	65.247750 
1899.000000	65.254902 
1898.000000	65.267205 
1897.000000	65.283250 
1896.000000	65.300679 
1895.000000	65.316748 
1894.000000	65.328741 
1893.000000	65.334892 
1892.000000	65.334510 
1891.000000	65.328311 
1890.000000	65.318131 
1889.000000	65.306258 
1888.000000	65.295243 
1887.000000	65.287137 
1886.000000	65.283226 
1885.000000	65.283823 
1884.000000	65.288352 
1883.000000	65.295815 
1882.000000	65.304708 
1881.000000	65.313696 
1880.000000	65.321636 
1879.000000	65.327692 
1878.000000	65.331435 
1877.000000	65.332674 
1876.000000	65.331506 
1875.000000	65.328216 
1874.000000	65.323233 
1873.000000	65.317201 
1872.000000	65.310764 
1871.000000	65.304565 
1870.000000	65.299034 
1869.000000	65.294504 
1868.000000	65.291118 
1867.000000	65.288853 
1866.000000	65.287542 
1865.000000	65.287065 
1864.000000	65.287399 
1863.000000	65.288448 
1862.000000	65.290355 
1861.000000	65.293097 
1860.000000	65.296602 
1859.000000	65.300798 
1858.000000	65.305399 
1857.000000	65.309929 
1856.000000	65.313887 
1855.000000	65.316629 
1854.000000	65.317654 
1853.000000	65.316486 
1852.000000	65.313076 
1851.000000	65.307688 
1850.000000	65.300989 
1849.000000	65.293884 
1848.000000	65.287303 
1847.000000	65.282154 
1846.000000	65.278959 
1845.000000	65.277910 
1844.000000	65.278744 
1843.000000	65.280890 
1842.000000	65.283846 
1841.000000	65.287208 
1840.000000	65.290760 
1839.000000	65.294551 
1838.000000	65.298843 
1837.000000	65.303874 
1836.000000	65.309524 
1835.000000	65.315461 
1834.000000	65.320706 
1833.000000	65.324115 
1832.000000	65.324449 
1831.000000	65.320467 
1830.000000	65.311551 
1829.000000	65.297627 
1828.000000	65.279364 
1827.000000	65.258049 
1826.000000	65.235424 
1825.000000	65.213274 
1824.000000	65.193247 
1823.000000	65.176558 
1822.000000	65.163898 
1821.000000	65.155577 
1820.000000	65.151548 
1819.000000	65.151524 
1818.000000	65.155148 
1817.000000	65.161895 
1816.000000	65.171194 
1815.000000	65.182304 
1814.000000	65.194535 
1813.000000	65.207171 
1812.000000	65.219426 
1811.000000	65.230798 
1810.000000	65.240836 
1809.000000	65.249085 
1808.000000	65.255022 
1807.000000	65.258288 
1806.000000	65.258646 
1805.000000	65.256118 
1804.000000	65.251207 
1803.000000	65.244936 
1802.000000	65.238475 
1801.000000	65.233206 
1800.000000	65.230274 
1799.000000	65.230464 
1798.000000	65.234017 
1797.000000	65.240597 
1796.000000	65.249514 
1795.000000	65.259695 
1794.000000	65.269875 
1793.000000	65.278911 
1792.000000	65.285944 
1791.000000	65.290498 
1790.000000	65.292906 
1789.000000	65.293955 
1788.000000	65.294957 
1787.000000	65.297412 
1786.000000	65.302586 
1785.000000	65.311241 
1784.000000	65.323162 
1783.000000	65.337252 
1782.000000	65.351915 
1781.000000	65.365099 
1780.000000	65.374851 
1779.000000	65.379810 
1778.000000	65.379428 
1777.000000	65.374016 
1776.000000	65.364670 
1775.000000	65.353083 
1774.000000	65.341138 
1773.000000	65.330457 
1772.000000	65.322089 
1771.000000	65.316367 
1770.000000	65.312790 
1769.000000	65.310382 
1768.000000	65.308141 
1767.000000	65.305328 
1766.000000	65.301823 
1765.000000	65.298080 
1764.000000	65.294885 
1763.000000	65.293121 
1762.000000	65.293240 
1761.000000	65.294766 
1760.000000	65.296530 
1759.000000	65.296769 
1758.000000	65.293788 
1757.000000	65.286183 
1756.000000	65.273594 
1755.000000	65.256690 
1754.000000	65.237331 
1753.000000	65.217876 
1752.000000	65.200686 
1751.000000	65.187644 
1750.000000	65.179443 
1749.000000	65.175580 
1748.000000	65.174627 
1747.000000	65.174651 
1746.000000	65.173649 
1745.000000	65.170240 
1744.000000	65.163731 
1743.000000	65.154242 
1742.000000	65.142512 
1741.000000	65.129637 
1740.000000	65.116739 
1739.000000	65.104603 
1738.000000	65.093660 
1737.000000	65.084075 
1736.000000	65.075564 
1735.000000	65.067791 
1734.000000	65.060329 
1733.000000	65.052866 
1732.000000	65.045285 
1731.000000	65.037798 
1730.000000	65.030813 
1729.000000	65.025305 
1728.000000	65.022301 
1727.000000	65.023136 
1726.000000	65.028834 
1725.000000	65.039944 
1724.000000	65.056157 
1723.000000	65.076398 
1722.000000	65.098714 
1721.000000	65.120887 
1720.000000	65.140771 
1719.000000	65.156960 
1718.000000	65.169048 
1717.000000	65.177607 
1716.000000	65.183901 
1715.000000	65.189337 
1714.000000	65.194964 
1713.000000	65.201091 
1712.000000	65.207004 
1711.000000	65.211272 
1710.000000	65.212368 
1709.000000	65.209293 
1708.000000	65.201902 
1707.000000	65.191578 
1706.000000	65.180754 
1705.000000	65.172529 
1704.000000	65.169525 
1703.000000	65.173578 
1702.000000	65.184712 
1701.000000	65.201258 
1700.000000	65.219974 
1699.000000	65.237092 
1698.000000	65.249133 
1697.000000	65.253734 
1696.000000	65.250349 
1695.000000	65.240144 
1694.000000	65.225887 
1693.000000	65.210962 
1692.000000	65.198636 
1691.000000	65.191173 
1690.000000	65.189337 
1689.000000	65.192461 
1688.000000	65.198659 
1687.000000	65.205383 
1686.000000	65.210103 
1685.000000	65.210795 
1684.000000	65.206480 
1683.000000	65.197372 
1682.000000	65.184521 
1681.000000	65.169906 
1680.000000	65.155744 
1679.000000	65.144419 
1678.000000	65.137982 
1677.000000	65.137958 
1676.000000	65.145182 
1675.000000	65.159487 
1674.000000	65.179896 
1673.000000	65.204405 
1672.000000	65.230298 
1671.000000	65.254497 
1670.000000	65.274024 
1669.000000	65.286540 
1668.000000	65.290570 
1667.000000	65.285992 
1666.000000	65.274119 
1665.000000	65.257287 
1664.000000	65.238356 
1663.000000	65.220427 
1662.000000	65.206074 
1661.000000	65.197110 
1660.000000	65.194320 
1659.000000	65.197682 
1658.000000	65.206527 
1657.000000	65.219759 
1656.000000	65.236377 
1655.000000	65.255212 
1654.000000	65.275311 
1653.000000	65.295791 
1652.000000	65.315580 
1651.000000	65.333437 
1650.000000	65.347981 
1649.000000	65.358042 
1648.000000	65.362429 
1647.000000	65.360569 
1646.000000	65.352296 
1645.000000	65.338253 
1644.000000	65.319800 
1643.000000	65.298843 
1642.000000	65.277218 
1641.000000	65.256929 
1640.000000	65.239453 
1639.000000	65.225768 
1638.000000	65.216183 
1637.000000	65.210175 
1636.000000	65.206670 
1635.000000	65.204215 
1634.000000	65.201139 
1633.000000	65.196156 
1632.000000	65.188431 
1631.000000	65.178012 
1630.000000	65.165686 
1629.000000	65.153121 
1628.000000	65.142416 
1627.000000	65.135765 
1626.000000	65.134763 
1625.000000	65.140271 
1624.000000	65.152049 
1623.000000	65.168642 
1622.000000	65.187835 
1621.000000	65.206766 
1620.000000	65.222597 
1619.000000	65.232920 
1618.000000	65.236234 
1617.000000	65.232014 
1616.000000	65.220689 
1615.000000	65.203666 
1614.000000	65.182805 
1613.000000	65.160441 
1612.000000	65.138816 
1611.000000	65.119886 
1610.000000	65.105414 
1609.000000	65.096592 
1608.000000	65.094161 
1607.000000	65.098094 
1606.000000	65.107822 
1605.000000	65.121960 
1604.000000	65.138673 
1603.000000	65.155696 
1602.000000	65.170693 
1601.000000	65.181541 
1600.000000	65.186810 
1599.000000	65.185952 
1598.000000	65.179562 
1597.000000	65.169429 
1596.000000	65.158057 
1595.000000	65.148448 
1594.000000	65.143132 
1593.000000	65.143799 
1592.000000	65.150833 
1591.000000	65.163254 
1590.000000	65.178918 
1589.000000	65.195274 
1588.000000	65.209650 
1587.000000	65.220141 
1586.000000	65.225291 
1585.000000	65.224432 
1584.000000	65.217399 
1583.000000	65.204381 
1582.000000	65.185809 
1581.000000	65.162420 
1580.000000	65.135598 
1579.000000	65.107035 
1578.000000	65.078949 
1577.000000	65.053701 
1576.000000	65.033578 
1575.000000	65.020394 
1574.000000	65.015220 
1573.000000	65.017890 
1572.000000	65.027141 
1571.000000	65.040659 
1570.000000	65.055370 
1569.000000	65.067982 
1568.000000	65.075612 
1567.000000	65.076375 
1566.000000	65.069484 
1565.000000	65.055918 
1564.000000	65.037798 
1563.000000	65.018129 
1562.000000	65.000128 
1561.000000	64.986491 
1560.000000	64.979076 
1559.000000	64.978408 
1558.000000	64.983725 
1557.000000	64.993286 
1556.000000	65.004754 
1555.000000	65.016055 
1554.000000	65.025544 
1553.000000	65.032577 
1552.000000	65.037298 
1551.000000	65.040540 
1550.000000	65.043377 
1549.000000	65.046668 
1548.000000	65.051031 
1547.000000	65.056180 
1546.000000	65.061354 
1545.000000	65.065574 
1544.000000	65.067982 
1543.000000	65.068078 
1542.000000	65.065979 
1541.000000	65.062570 
1540.000000	65.059280 
1539.000000	65.057444 
1538.000000	65.058207 
1537.000000	65.061998 
1536.000000	65.068626 
1535.000000	65.077209 
1534.000000	65.086364 
1533.000000	65.094876 
1532.000000	65.101552 
1531.000000	65.105462 
1530.000000	65.106487 
1529.000000	65.104985 
1528.000000	65.101647 
1527.000000	65.097451 
1526.000000	65.093469 
1525.000000	65.090584 
1524.000000	65.089321 
1523.000000	65.089917 
1522.000000	65.092158 
1521.000000	65.095520 
1520.000000	65.099453 
1519.000000	65.103793 
1518.000000	65.108728 
1517.000000	65.114712 
1516.000000	65.122628 
1515.000000	65.133547 
1514.000000	65.148115 
1513.000000	65.166544 
1512.000000	65.188288 
1511.000000	65.211939 
1510.000000	65.235590 
1509.000000	65.257120 
1508.000000	65.274858 
1507.000000	65.287899 
1506.000000	65.296339 
1505.000000	65.301179 
1504.000000	65.304231 
1503.000000	65.307307 
1502.000000	65.312004 
1501.000000	65.318918 
1500.000000	65.327477 
1499.000000	65.336084 
1498.000000	65.342521 
1497.000000	65.344214 
1496.000000	65.338969 
1495.000000	65.325450 
1494.000000	65.303516 
1493.000000	65.274024 
1492.000000	65.238833 
1491.000000	65.200424 
1490.000000	65.161705 
1489.000000	65.125584 
1488.000000	65.094637 
1487.000000	65.070796 
1486.000000	65.055060 
1485.000000	65.047430 
1484.000000	65.046668 
1483.000000	65.050458 
1482.000000	65.056014 
1481.000000	65.060353 
1480.000000	65.061187 
1479.000000	65.057182 
1478.000000	65.048551 
1477.000000	65.036845 
1476.000000	65.024542 
1475.000000	65.014386 
1474.000000	65.008521 
1473.000000	65.007781 
1472.000000	65.011525 
1471.000000	65.017914 
1470.000000	65.024471 
1469.000000	65.028834 
1468.000000	65.029811 
1467.000000	65.027475 
1466.000000	65.023279 
1465.000000	65.019464 
1464.000000	65.018367 
1463.000000	65.021419 
1462.000000	65.028357 
1461.000000	65.037345 
1460.000000	65.045547 
1459.000000	65.049839 
1458.000000	65.047836 
1457.000000	65.038800 
1456.000000	65.024065 
1455.000000	65.006709 
1454.000000	64.990496 
1453.000000	64.979338 
1452.000000	64.975643 
1451.000000	64.980292 
1450.000000	64.992284 
1449.000000	65.009236 
1448.000000	65.028119 
1447.000000	65.046262 
1446.000000	65.062022 
1445.000000	65.074920 
1444.000000	65.085673 
1443.000000	65.095567 
1442.000000	65.106034 
1441.000000	65.118026 
1440.000000	65.131807 
1439.000000	65.147209 
1438.000000	65.163683 
1437.000000	65.180754 
1436.000000	65.197992 
1435.000000	65.215134 
1434.000000	65.231871 
1433.000000	65.247797 
1432.000000	65.262007 
1431.000000	65.273261 
1430.000000	65.280127 
1429.000000	65.281605 
1428.000000	65.276956 
1427.000000	65.266418 
1426.000000	65.250706 
1425.000000	65.231394 
1424.000000	65.210080 
1423.000000	65.188360 
1422.000000	65.167427 
1421.000000	65.148043 
1420.000000	65.130400 
1419.000000	65.114498 
1418.000000	65.100145 
1417.000000	65.087294 
1416.000000	65.075969 
1415.000000	65.066432 
1414.000000	65.058732 
1413.000000	65.052580 
1412.000000	65.047454 
1411.000000	65.042734 
1410.000000	65.037584 
1409.000000	65.031576 
1408.000000	65.024757 
1407.000000	65.017914 
1406.000000	65.012335 
1405.000000	65.009450 
1404.000000	65.010428 
1403.000000	65.015935 
1402.000000	65.025615 
1401.000000	65.038347 
1400.000000	65.052366 
1399.000000	65.065717 
1398.000000	65.076804 
1397.000000	65.084528 
1396.000000	65.088748 
1395.000000	65.089869 
1394.000000	65.088963 
1393.000000	65.087199 
1392.000000	65.085315 
1391.000000	65.083765 
1390.000000	65.082454 
1389.000000	65.080738 
1388.000000	65.077543 
1387.000000	65.071797 
1386.000000	65.062713 
1385.000000	65.049982 
1384.000000	65.033841 
1383.000000	65.015244 
1382.000000	64.995670 
1381.000000	64.976978 
1380.000000	64.961123 
1379.000000	64.949893 
1378.000000	64.944672 
1377.000000	64.946079 
1376.000000	64.953899 
1375.000000	64.967131 
1374.000000	64.984202 
1373.000000	65.003132 
1372.000000	65.021991 
1371.000000	65.039157 
1370.000000	65.053725 
1369.000000	65.065646 
1368.000000	65.075635 
1367.000000	65.084695 
1366.000000	65.093827 
1365.000000	65.103578 
1364.000000	65.113759 
1363.000000	65.123343 
1362.000000	65.130591 
1361.000000	65.133523 
1360.000000	65.130400 
1359.000000	65.120410 
1358.000000	65.103840 
1357.000000	65.082406 
1356.000000	65.058851 
1355.000000	65.036535 
1354.000000	65.018963 
1353.000000	65.009164 
1352.000000	65.008974 
1351.000000	65.018796 
1350.000000	65.037751 
1349.000000	65.063238 
1348.000000	65.092182 
1347.000000	65.120911 
1346.000000	65.145754 
1345.000000	65.163660 
1344.000000	65.172457 
1343.000000	65.171408 
1342.000000	65.161013 
1341.000000	65.142989 
1340.000000	65.119934 
1339.000000	65.094733 
1338.000000	65.070247 
1337.000000	65.048718 
1336.000000	65.031385 
1335.000000	65.018606 
1334.000000	65.009784 
1333.000000	65.003848 
1332.000000	64.999604 
1331.000000	64.996004 
1330.000000	64.992260 
1329.000000	64.988064 
1328.000000	64.983582 
1327.000000	64.978933 
1326.000000	64.974594 
1325.000000	64.970874 
1324.000000	64.968276 
1323.000000	64.967322 
1322.000000	64.968872 
1321.000000	64.973855 
1320.000000	64.982962 
1319.000000	64.996552 
1318.000000	65.014219 
1317.000000	65.034508 
1316.000000	65.055346 
1315.000000	65.074133 
1314.000000	65.088391 
1313.000000	65.096211 
1312.000000	65.096879 
1311.000000	65.090990 
1310.000000	65.080547 
1309.000000	65.068411 
1308.000000	65.057849 
1307.000000	65.051770 
1306.000000	65.052270 
1305.000000	65.060091 
1304.000000	65.074753 
1303.000000	65.094494 
1302.000000	65.117001 
1301.000000	65.139555 
1300.000000	65.159654 
1299.000000	65.175366 
1298.000000	65.185427 
1297.000000	65.189385 
1296.000000	65.187335 
1295.000000	65.179896 
1294.000000	65.168070 
1293.000000	65.152859 
1292.000000	65.135383 
1291.000000	65.116524 
1290.000000	65.097284 
1289.000000	65.078330 
1288.000000	65.060400 
1287.000000	65.044212 
1286.000000	65.030145 
1285.000000	65.018439 
1284.000000	65.009069 
1283.000000	65.001702 
1282.000000	64.995574 
1281.000000	64.989876 
1280.000000	64.983844 
1279.000000	64.976859 
1278.000000	64.968752 
1277.000000	64.959812 
1276.000000	64.950680 
1275.000000	64.942431 
1274.000000	64.936017 
1273.000000	64.932107 
1272.000000	64.930915 
1271.000000	64.931917 
1270.000000	64.934372 
1269.000000	64.937424 
1268.000000	64.940452 
1267.000000	64.943122 
1266.000000	64.945602 
1265.000000	64.948248 
1264.000000	64.951586 
1263.000000	64.955854 
1262.000000	64.960932 
1261.000000	64.966416 
1260.000000	64.971518 
1259.000000	64.975500 
1258.000000	64.977693 
1257.000000	64.977741 
1256.000000	64.975738 
1255.000000	64.972329 
1254.000000	64.968419 
1253.000000	64.964962 
1252.000000	64.962816 
1251.000000	64.962792 
1250.000000	64.965438 
1249.000000	64.970898 
1248.000000	64.979147 
1247.000000	64.989519 
1246.000000	65.000796 
1245.000000	65.011358 
1244.000000	65.019345 
1243.000000	65.022897 
1242.000000	65.020608 
1241.000000	65.011739 
1240.000000	64.996695 
1239.000000	64.976596 
1238.000000	64.953207 
1237.000000	64.928507 
1236.000000	64.904379 
1235.000000	64.882421 
1234.000000	64.863872 
1233.000000	64.849829 
1232.000000	64.841032 
1231.000000	64.838337 
1230.000000	64.842486 
1229.000000	64.853906 
1228.000000	64.872336 
1227.000000	64.896631 
1226.000000	64.924502 
1225.000000	64.952826 
1224.000000	64.978027 
1223.000000	64.996576 
1222.000000	65.006065 
1221.000000	65.005469 
1220.000000	64.995718 
1219.000000	64.979243 
1218.000000	64.959716 
1217.000000	64.941000 
1216.000000	64.926552 
1215.000000	64.918780 
1214.000000	64.918661 
1213.000000	64.925813 
1212.000000	64.938449 
1211.000000	64.953970 
1210.000000	64.969348 
1209.000000	64.981985 
1208.000000	64.989709 
1207.000000	64.990997 
1206.000000	64.985346 
1205.000000	64.973068 
1204.000000	64.955306 
1203.000000	64.933657 
1202.000000	64.910268 
1201.000000	64.887595 
1200.000000	64.868259 
1199.000000	64.854693 
1198.000000	64.848875 
1197.000000	64.851927 
1196.000000	64.863729 
1195.000000	64.883041 
1194.000000	64.907217 
1193.000000	64.932775 
1192.000000	64.955925 
1191.000000	64.973568 
1190.000000	64.983320 
1189.000000	64.984560 
1188.000000	64.978337 
1187.000000	64.967250 
1186.000000	64.954853 
1185.000000	64.944934 
1184.000000	64.940619 
1183.000000	64.943957 
1182.000000	64.955425 
1181.000000	64.974045 
1180.000000	64.997816 
1179.000000	65.024256 
1178.000000	65.050840 
1177.000000	65.075516 
1176.000000	65.096950 
1175.000000	65.114450 
1174.000000	65.127873 
1173.000000	65.137219 
1172.000000	65.142416 
1171.000000	65.143251 
1170.000000	65.139412 
1169.000000	65.130329 
1168.000000	65.115404 
1167.000000	65.094399 
1166.000000	65.067410 
1165.000000	65.035367 
1164.000000	64.999675 
1163.000000	64.962291 
1162.000000	64.925456 
1161.000000	64.891219 
1160.000000	64.861464 
1159.000000	64.837265 
1158.000000	64.819216 
1157.000000	64.807343 
1156.000000	64.801335 
1155.000000	64.800429 
1154.000000	64.803743 
1153.000000	64.810013 
1152.000000	64.818072 
1151.000000	64.826560 
1150.000000	64.834690 
1149.000000	64.842057 
1148.000000	64.848828 
1147.000000	64.855575 
1146.000000	64.862895 
1145.000000	64.871215 
1144.000000	64.880323 
1143.000000	64.889335 
1142.000000	64.896631 
1141.000000	64.900231 
1140.000000	64.898395 
1139.000000	64.889907 
1138.000000	64.874792 
1137.000000	64.853978 
1136.000000	64.829802 
1135.000000	64.805150 
1134.000000	64.782571 
1133.000000	64.764213 
1132.000000	64.751195 
1131.000000	64.743614 
1130.000000	64.740586 
1129.000000	64.740824 
1128.000000	64.743018 
1127.000000	64.746046 
1126.000000	64.748954 
1125.000000	64.751148 
1124.000000	64.752292 
1123.000000	64.752483 
1122.000000	64.752078 
1121.000000	64.751839 
1120.000000	64.752531 
1119.000000	64.754843 
1118.000000	64.759206 
1117.000000	64.765429 
1116.000000	64.772677 
1115.000000	64.779567 
1114.000000	64.784789 
1113.000000	64.787149 
1112.000000	64.786338 
1111.000000	64.783048 
1110.000000	64.778971 
1109.000000	64.776468 
1108.000000	64.777898 
1107.000000	64.785075 
1106.000000	64.798641 
1105.000000	64.817810 
1104.000000	64.840531 
1103.000000	64.863991 
1102.000000	64.885354 
1101.000000	64.902687 
1100.000000	64.915156 
1099.000000	64.923119 
1098.000000	64.927959 
1097.000000	64.931559 
1096.000000	64.935588 
1095.000000	64.940929 
1094.000000	64.947438 
1093.000000	64.954161 
1092.000000	64.959573 
1091.000000	64.962172 
1090.000000	64.960861 
1089.000000	64.955401 
1088.000000	64.946603 
1087.000000	64.935946 
1086.000000	64.925098 
1085.000000	64.915132 
1084.000000	64.906549 
1083.000000	64.898824 
1082.000000	64.890575 
1081.000000	64.880371 
1080.000000	64.867043 
1079.000000	64.850664 
1078.000000	64.832663 
1077.000000	64.815711 
1076.000000	64.802885 
1075.000000	64.797377 
1074.000000	64.801096 
1073.000000	64.814686 
1072.000000	64.837193 
1071.000000	64.866161 
1070.000000	64.897894 
1069.000000	64.928603 
1068.000000	64.954710 
1067.000000	64.973545 
1066.000000	64.983344 
1065.000000	64.983606 
1064.000000	64.974761 
1063.000000	64.957857 
1062.000000	64.934253 
1061.000000	64.905142 
1060.000000	64.871597 
1059.000000	64.834761 
1058.000000	64.796304 
1057.000000	64.758443 
1056.000000	64.724540 
1055.000000	64.698505 
1054.000000	64.684605 
1053.000000	64.686655 
1052.000000	64.706969 
1051.000000	64.745521 
1050.000000	64.799618 
1049.000000	64.863896 
1048.000000	64.931178 
1047.000000	64.993405 
1046.000000	65.043258 
1045.000000	65.075421 
1044.000000	65.087461 
1043.000000	65.079998 
1042.000000	65.056371 
1041.000000	65.021514 
1040.000000	64.981079 
1039.000000	64.940237 
1038.000000	64.902997 
1037.000000	64.872002 
1036.000000	64.848756 
1035.000000	64.833688 
1034.000000	64.826893 
1033.000000	64.827871 
1032.000000	64.835906 
1031.000000	64.849567 
1030.000000	64.866352 
1029.000000	64.883208 
1028.000000	64.896368 
1027.000000	64.902496 
1026.000000	64.899110 
1025.000000	64.885306 
1024.000000	64.862442 
1023.000000	64.833331 
1022.000000	64.801788 
1021.000000	64.771437 
1020.000000	64.744925 
1019.000000	64.723277 
1018.000000	64.706087 
1017.000000	64.691853 
1016.000000	64.678835 
1015.000000	64.665961 
1014.000000	64.653730 
1013.000000	64.643836 
1012.000000	64.638781 
1011.000000	64.640760 
1010.000000	64.650797 
1009.000000	64.668130 
1008.000000	64.690327 
1007.000000	64.713764 
1006.000000	64.734601 
1005.000000	64.750123 
1004.000000	64.759278 
1003.000000	64.762854 
1002.000000	64.763045 
1001.000000	64.762616 
1000.000000	64.764046 
999.000000	 64.768791 
998.000000	 64.776849 
997.000000	 64.787149 
996.000000	 64.797472 
995.000000	 64.805507 
994.000000	 64.809131 
993.000000	 64.807415 
992.000000	 64.800429 
991.000000	 64.789128 
990.000000	 64.775371 
989.000000	 64.761257 
988.000000	 64.749073 
987.000000	 64.740729 
986.000000	 64.737796 
985.000000	 64.741110 
984.000000	 64.750766 
983.000000	 64.765930 
982.000000	 64.784955 
981.000000	 64.805626 
980.000000	 64.825272 
979.000000	 64.841485 
978.000000	 64.852356 
977.000000	 64.856934 
976.000000	 64.855289 
975.000000	 64.848566 
974.000000	 64.838409 
973.000000	 64.827179 
972.000000	 64.817643 
971.000000	 64.812612 
970.000000	 64.814233 
969.000000	 64.824056 
968.000000	 64.842891 
967.000000	 64.870238 
966.000000	 64.904212 
965.000000	 64.941620 
964.000000	 64.978647 
963.000000	 65.010762 
962.000000	 65.033626 
961.000000	 65.043902 
960.000000	 65.039873 
959.000000	 65.022277 
958.000000	 64.994215 
957.000000	 64.960598 
956.000000	 64.927458 
955.000000	 64.901137 
954.000000	 64.886927 
953.000000	 64.887809 
952.000000	 64.903712 
951.000000	 64.931893 
950.000000	 64.967107 
949.000000	 65.002751 
948.000000	 65.031838 
947.000000	 65.048646 
946.000000	 65.049147 
945.000000	 65.031647 
944.000000	 64.996337 
943.000000	 64.945626 
942.000000	 64.882564 
941.000000	 64.810657 
940.000000	 64.733028 
939.000000	 64.652442 
938.000000	 64.571285 
937.000000	 64.492201 
936.000000	 64.418196 
935.000000	 64.352679 
934.000000	 64.299869 
933.000000	 64.264059 
932.000000	 64.249277 
931.000000	 64.258217 
930.000000	 64.291763 
929.000000	 64.348459 
928.000000	 64.424276 
927.000000	 64.512991 
926.000000	 64.606881 
925.000000	 64.698004 
924.000000	 64.778804 
923.000000	 64.843845 
922.000000	 64.890527 
921.000000	 64.919447 
920.000000	 64.933824 
919.000000	 64.938545 
918.000000	 64.939999 
917.000000	 64.943218 
916.000000	 64.951586 
915.000000	 64.964938 
914.000000	 64.980173 
913.000000	 64.991617 
912.000000	 64.993333 
911.000000	 64.980530 
910.000000	 64.951252 
909.000000	 64.908099 
908.000000	 64.857912 
907.000000	 64.810395 
906.000000	 64.775705 
905.000000	 64.762115 
904.000000	 64.773869 
903.000000	 64.809870 
902.000000	 64.863443 
901.000000	 64.924502 
900.000000	 64.980959 
899.000000	 65.021705 
898.000000	 65.038013 
897.000000	 65.025353 
896.000000	 64.983010 
895.000000	 64.913272 
894.000000	 64.820504 
893.000000	 64.709520 
892.000000	 64.586114 
891.000000	 64.456629 
890.000000	 64.328837 
889.000000	 64.211320 
888.000000	 64.113736 
887.000000	 64.045977 
886.000000	 64.016056 
885.000000	 64.027714 
884.000000	 64.079785 
883.000000	 64.165163 
882.000000	 64.271998 
881.000000	 64.384984 
880.000000	 64.489006 
879.000000	 64.571499 
878.000000	 64.625406 
877.000000	 64.649915 
876.000000	 64.650106 
875.000000	 64.635372 
874.000000	 64.616966 
873.000000	 64.605402 
872.000000	 64.608740 
871.000000	 64.630389 
870.000000	 64.670443 
869.000000	 64.724564 
868.000000	 64.786386 
867.000000	 64.847445 
866.000000	 64.899444 
865.000000	 64.934706 
864.000000	 64.947175 
863.000000	 64.932847 
862.000000	 64.890718 
861.000000	 64.822363 
860.000000	 64.731359 
859.000000	 64.623904 
858.000000	 64.508509 
857.000000	 64.394974 
856.000000	 64.293360 
855.000000	 64.212703 
854.000000	 64.159965 
853.000000	 64.138746 
852.000000	 64.148807 
851.000000	 64.185452 
850.000000	 64.240217 
849.000000	 64.303040 
848.000000	 64.364218 
847.000000	 64.415383 
846.000000	 64.451169 
845.000000	 64.470362 
844.000000	 64.475536 
843.000000	 64.471435 
842.000000	 64.463400 
841.000000	 64.455914 
840.000000	 64.451241 
839.000000	 64.449381 
838.000000	 64.448332 
837.000000	 64.445519 
836.000000	 64.439296 
835.000000	 64.429974 
834.000000	 64.420175 
833.000000	 64.414453 
832.000000	 64.417505 
831.000000	 64.433240 
830.000000	 64.461922 
829.000000	 64.499568 
828.000000	 64.538550 
827.000000	 64.569377 
826.000000	 64.582681 
825.000000	 64.571332 
824.000000	 64.533162 
823.000000	 64.471530 
822.000000	 64.393544 
821.000000	 64.308357 
820.000000	 64.224529 
819.000000	 64.148354 
818.000000	 64.082956 
817.000000	 64.028072 
816.000000	 63.981294 
815.000000	 63.939380 
814.000000	 63.899827 
813.000000	 63.862419 
812.000000	 63.827991 
811.000000	 63.799571 
810.000000	 63.780450 
809.000000	 63.774514 
808.000000	 63.783478 
807.000000	 63.808012 
806.000000	 63.846421 
805.000000	 63.896274 
804.000000	 63.953804 
803.000000	 64.015889 
802.000000	 64.080047 
801.000000	 64.145088 
800.000000	 64.210557 
799.000000	 64.276528 
798.000000	 64.342546 
797.000000	 64.407753 
796.000000	 64.470267 
795.000000	 64.527344 
794.000000	 64.575552 
793.000000	 64.612030 
792.000000	 64.634537 
791.000000	 64.642000 
790.000000	 64.634013 
789.000000	 64.611983 
788.000000	 64.577865 
787.000000	 64.534139 
786.000000	 64.482736 
785.000000	 64.426183 
784.000000	 64.366674 
783.000000	 64.306688 
782.000000	 64.248538 
781.000000	 64.194607 
780.000000	 64.147186 
779.000000	 64.108395 
778.000000	 64.079618 
777.000000	 64.060997 
776.000000	 64.051675 
775.000000	 64.049863 
774.000000	 64.053320 
773.000000	 64.059281 
772.000000	 64.066076 
771.000000	 64.073276 
770.000000	 64.081525 
769.000000	 64.091897 
768.000000	 64.105772 
767.000000	 64.124250 
766.000000	 64.147233 
765.000000	 64.173150 
764.000000	 64.199757 
763.000000	 64.224362 
762.000000	 64.244604 
761.000000	 64.258623 
760.000000	 64.265584 
759.000000	 64.264965 
758.000000	 64.257073 
757.000000	 64.241933 
756.000000	 64.219212 
755.000000	 64.188528 
754.000000	 64.149951 
753.000000	 64.104437 
752.000000	 64.054346 
751.000000	 64.003467 
750.000000	 63.956713 
749.000000	 63.918781 
748.000000	 63.893079 
747.000000	 63.880634 
746.000000	 63.879513 
745.000000	 63.885521 
744.000000	 63.893032 
743.000000	 63.896512 
742.000000	 63.891673 
741.000000	 63.876771 
740.000000	 63.852906 
739.000000	 63.823390 
738.000000	 63.793015 
737.000000	 63.766694 
736.000000	 63.748621 
735.000000	 63.741207 
734.000000	 63.745188 
733.000000	 63.759899 
732.000000	 63.783335 
731.000000	 63.813233 
730.000000	 63.846731 
729.000000	 63.881039 
728.000000	 63.912987 
727.000000	 63.939237 
726.000000	 63.956594 
725.000000	 63.962268 
724.000000	 63.954281 
723.000000	 63.932394 
722.000000	 63.897228 
721.000000	 63.850688 
720.000000	 63.795375 
719.000000	 63.734364 
718.000000	 63.671159 
717.000000	 63.609433 
716.000000	 63.552832 
715.000000	 63.504743 
714.000000	 63.468384 
713.000000	 63.446259 
712.000000	 63.439631 
711.000000	 63.448143 
710.000000	 63.469839 
709.000000	 63.501334 
708.000000	 63.537907 
707.000000	 63.574385 
706.000000	 63.605785 
705.000000	 63.628196 
704.000000	 63.639187 
703.000000	 63.638305 
702.000000	 63.626456 
701.000000	 63.605976 
700.000000	 63.579893 
699.000000	 63.551664 
698.000000	 63.524961 
697.000000	 63.502717 
696.000000	 63.487482 
695.000000	 63.479948 
694.000000	 63.479423 
693.000000	 63.482975 
692.000000	 63.486433 
691.000000	 63.484668 
690.000000	 63.472652 
689.000000	 63.446712 
688.000000	 63.405513 
687.000000	 63.350105 
686.000000	 63.283777 
685.000000	 63.211822 
684.000000	 63.140583 
683.000000	 63.075852 
682.000000	 63.022089 
681.000000	 62.982058 
680.000000	 62.956380 
679.000000	 62.943816 
678.000000	 62.941813 
677.000000	 62.947201 
676.000000	 62.956786 
675.000000	 62.967896 
674.000000	 62.978744 
673.000000	 62.987613 
672.000000	 62.993717 
671.000000	 62.996697 
670.000000	 62.996768 
669.000000	 62.994194 
668.000000	 62.989568 
667.000000	 62.983369 
666.000000	 62.976408 
665.000000	 62.969446 
664.000000	 62.963747 
663.000000	 62.960863 
662.000000	 62.962484 
661.000000	 62.970352 
660.000000	 62.985420 
659.000000	 63.007783 
658.000000	 63.036417 
657.000000	 63.069415 
656.000000	 63.104295 
655.000000	 63.138389 
654.000000	 63.169980 
653.000000	 63.197922 
652.000000	 63.221693 
651.000000	 63.240551 
650.000000	 63.253951 
649.000000	 63.260746 
648.000000	 63.259744 
647.000000	 63.249421 
646.000000	 63.228988 
645.000000	 63.198304 
644.000000	 63.158702 
643.000000	 63.112378 
642.000000	 63.062715 
641.000000	 63.013315 
640.000000	 62.967491 
639.000000	 62.927794 
638.000000	 62.895417 
637.000000	 62.870430 
636.000000	 62.852048 
635.000000	 62.839078 
634.000000	 62.830615 
633.000000	 62.826824 
632.000000	 62.829136 
631.000000	 62.839436 
630.000000	 62.859272 
629.000000	 62.889194 
628.000000	 62.927556 
627.000000	 62.970352 
626.000000	 63.011360 
625.000000	 63.043498 
624.000000	 63.060045 
623.000000	 63.056182 
622.000000	 63.030290 
621.000000	 62.984776 
620.000000	 62.925481 
619.000000	 62.860655 
618.000000	 62.799310 
617.000000	 62.749814 
616.000000	 62.717938 
615.000000	 62.706375 
614.000000	 62.714028 
613.000000	 62.737131 
612.000000	 62.769627 
611.000000	 62.804889 
610.000000	 62.835741 
609.000000	 62.855672 
608.000000	 62.859559 
607.000000	 62.844228 
606.000000	 62.809205 
605.000000	 62.756681 
604.000000	 62.691712 
603.000000	 62.621378 
602.000000	 62.553691 
601.000000	 62.495994 
600.000000	 62.453866 
599.000000	 62.429738 
598.000000	 62.422871 
597.000000	 62.429094 
596.000000	 62.442302 
595.000000	 62.455034 
594.000000	 62.460327 
593.000000	 62.452888 
592.000000	 62.429738 
591.000000	 62.391066 
590.000000	 62.339305 
589.000000	 62.279319 
588.000000	 62.217068 
587.000000	 62.159276 
586.000000	 62.111854 
585.000000	 62.079668 
584.000000	 62.065696 
583.000000	 62.070202 
582.000000	 62.090635 
581.000000	 62.121653 
580.000000	 62.156414 
579.000000	 62.187838 
578.000000	 62.210130 
577.000000	 62.219953 
576.000000	 62.216997 
575.000000	 62.203240 
574.000000	 62.182641 
573.000000	 62.160134 
572.000000	 62.140536 
571.000000	 62.127518 
570.000000	 62.123322 
569.000000	 62.129068 
568.000000	 62.144374 
567.000000	 62.168383 
566.000000	 62.199330 
565.000000	 62.234640 
564.000000	 62.271499 
563.000000	 62.307238 
562.000000	 62.339258 
561.000000	 62.364840 
560.000000	 62.382078 
559.000000	 62.390089 
558.000000	 62.388992 
557.000000	 62.380146 
556.000000	 62.365031 
555.000000	 62.345194 
554.000000	 62.322092 
553.000000	 62.297177 
552.000000	 62.272310 
551.000000	 62.250018 
550.000000	 62.233710 
549.000000	 62.227010 
548.000000	 62.233281 
547.000000	 62.254071 
546.000000	 62.288689 
545.000000	 62.332820 
544.000000	 62.379622 
543.000000	 62.419462 
542.000000	 62.442851 
541.000000	 62.440633 
540.000000	 62.406325 
539.000000	 62.336468 
538.000000	 62.232279 
537.000000	 62.098860 
536.000000	 61.944842 
535.000000	 61.781191 
534.000000	 61.619806 
533.000000	 61.472606 
532.000000	 61.350154 
531.000000	 61.260557 
530.000000	 61.208152 
529.000000	 61.193633 
528.000000	 61.214017 
527.000000	 61.262297 
526.000000	 61.328363 
525.000000	 61.401391 
524.000000	 61.471605 
523.000000	 61.531233 
522.000000	 61.575865 
521.000000	 61.604332 
520.000000	 61.618924 
519.000000	 61.623716 
518.000000	 61.623811 
517.000000	 61.624741 
516.000000	 61.630749 
515.000000	 61.645030 
514.000000	 61.668181 
513.000000	 61.698436 
512.000000	 61.731743 
511.000000	 61.762595 
510.000000	 61.785793 
509.000000	 61.798429 
508.000000	 61.799478 
507.000000	 61.791133 
506.000000	 61.775135 
505.000000	 61.751914 
504.000000	 61.719179 
503.000000	 61.672687 
502.000000	 61.607122 
501.000000	 61.518335 
500.000000	 61.405944 
499.000000	 61.274909 
498.000000	 61.133742 
497.000000	 60.993432 
496.000000	 60.864210 
495.000000	 60.754084 
494.000000	 60.668659 
493.000000	 60.610628 
492.000000	 60.578846 
491.000000	 60.569453 
490.000000	 60.577535 
489.000000	 60.597491 
488.000000	 60.622286 
487.000000	 60.645198 
486.000000	 60.659575 
485.000000	 60.660505 
484.000000	 60.644984 
483.000000	 60.612869 
482.000000	 60.566282 
481.000000	 60.510110 
480.000000	 60.451221 
479.000000	 60.396909 
478.000000	 60.353183 
477.000000	 60.324430 
476.000000	 60.312747 
475.000000	 60.318470 
474.000000	 60.340189 
473.000000	 60.375761 
472.000000	 60.421872 
471.000000	 60.472321 
470.000000	 60.517644 
469.000000	 60.544824 
468.000000	 60.538840 
467.000000	 60.485386 
466.000000	 60.374307 
465.000000	 60.201978 
464.000000	 59.974551 
463.000000	 59.708333 
462.000000	 59.429144 
461.000000	 59.166908 
460.000000	 58.952283 
459.000000	 58.809924 
458.000000	 58.755731 
457.000000	 58.792448 
456.000000	 58.911800 
455.000000	 59.095883 
454.000000	 59.321379 
453.000000	 59.562540 
452.000000	 59.796023 
451.000000	 60.002517 
450.000000	 60.169553 
449.000000	 60.289573 
448.000000	 60.364055 
447.000000	 60.401201 
446.000000	 60.412597 
445.000000	 60.408759 
444.000000	 60.396718 
443.000000	 60.376739 
442.000000	 60.339689 
441.000000	 60.269379 
440.000000	 60.147428 
439.000000	 59.959411 
438.000000	 59.703254 
437.000000	 59.390997 
436.000000	 59.045219 
435.000000	 58.697795 
434.000000	 58.384943 
433.000000	 58.139348 
432.000000	 57.982015 
431.000000	 57.919549 
430.000000	 57.942748 
429.000000	 58.029699 
428.000000	 58.151435 
427.000000	 58.277177 
426.000000	 58.380746 
425.000000	 58.441805 
424.000000	 58.449053 
423.000000	 58.393502 
422.000000	 58.266639 
421.000000	 58.058929 
420.000000	 57.762622 
419.000000	 57.367634 
418.000000	 56.868004 
417.000000	 56.268477 
416.000000	 55.593180 
415.000000	 54.886960 
414.000000	 54.218482 
413.000000	 53.670096 
412.000000	 53.327798 
411.000000	 53.272247 
410.000000	 53.555011 
409.000000	 54.172801 
408.000000	 55.066156 
407.000000	 56.128978 
406.000000	 57.223391 
405.000000	 58.203554 
404.000000	 58.945298 
403.000000	 59.358572 
402.000000	 59.414601 
401.000000	 59.157872 
400.000000	 58.676981 
399.000000	 58.087444 
398.000000	 57.486772 
397.000000	 56.934952 
396.000000	 56.439328 
395.000000	 55.972552 
394.000000	 55.471849 
393.000000	 54.864263 
392.000000	 54.127860 
391.000000	 53.314852 
390.000000	 52.502393 
389.000000	 51.796126 
388.000000	 51.264309 
387.000000	 50.961232 
386.000000	 50.994563 
385.000000	 51.494526 
384.000000	 52.632641 
383.000000	 54.516649 
382.000000	 57.096529 
381.000000	 60.143947 
380.000000	 63.255834 
379.000000	 65.942764 
378.000000	 67.768096 
377.000000	 68.399977 
376.000000	 67.802977 
375.000000	 66.082048 
374.000000	 63.369703 
373.000000	 59.895634 
372.000000	 55.803418 
371.000000	 51.470351 
370.000000	 47.495055 

