PE IR       SPECTRUM    SPECTRUM    ASCII       PEDS        1.60        
  -1
C-9D65~1.ASC
17/03/27
21:40:19.00
17/03/27
21:40:19.00
tln
$C-4040-8_t0088$<tbV0>[-13.0,5.2,8.0,0.0,27,1,0]
370.000000
64









2002,4.07    
MIRTGS : RIGHTBACK : INTERNAL 2
MIR : ON : INTERNAL 2
OPTKBR

0.200000
8
8.000000
FILLER
RATIO
SPECTRUM
UNLOCKED 256

DOUBLE
64
COMBINED
1
0
0


1.000000
RATIO


1
0
TRUE
51149
0
LEFT NOT FITTED RIGHT NOT FITTED 0
NONE
NONE
15600
12.000000
4.427000
51148
TRUE
1 0 8 72 0 0 0 0 

15798.010000






#HDR
-1
-1
#GR
CM-1
%T
0.00002384185791015625
0.0
5000.000000
-1.000000
4631
8
124.601602
39.467787
#DATA
5000.000000	64.353823  
4999.000000	64.284682  
4998.000000	64.217615  
4997.000000	64.158105  
4996.000000	64.112448  
4995.000000	64.086341  
4994.000000	64.085030  
4993.000000	64.111423  
4992.000000	64.166665  
4991.000000	64.249157  
4990.000000	64.354753  
4989.000000	64.476990  
4988.000000	64.606833  
4987.000000	64.733123  
4986.000000	64.844441  
4985.000000	64.930868  
4984.000000	64.985370  
4983.000000	65.004801  
4982.000000	64.991092  
4981.000000	64.950680  
4980.000000	64.893460  
4979.000000	64.830255  
4978.000000	64.771318  
4977.000000	64.723587  
4976.000000	64.690470  
4975.000000	64.670538  
4974.000000	64.659237  
4973.000000	64.649224  
4972.000000	64.632654  
4971.000000	64.602875  
4970.000000	64.555287  
4969.000000	64.489746  
4968.000000	64.409160  
4967.000000	64.321565  
4966.000000	64.236736  
4965.000000	64.167404  
4964.000000	64.125943  
4963.000000	64.123558  
4962.000000	64.167261  
4961.000000	64.258718  
4960.000000	64.393329  
4959.000000	64.560008  
4958.000000	64.742350  
4957.000000	64.921998  
4956.000000	65.081691  
4955.000000	65.207648  
4954.000000	65.291714  
4953.000000	65.332508  
4952.000000	65.334677  
4951.000000	65.307283  
4950.000000	65.261030  
4949.000000	65.206503  
4948.000000	65.151357  
4947.000000	65.101432  
4946.000000	65.058350  
4945.000000	65.021371  
4944.000000	64.987373  
4943.000000	64.953732  
4942.000000	64.918446  
4941.000000	64.880990  
4940.000000	64.842534  
4939.000000	64.805388  
4938.000000	64.772629  
4937.000000	64.746570  
4936.000000	64.728665  
4935.000000	64.718794  
4934.000000	64.715194  
4933.000000	64.714646  
4932.000000	64.713263  
4931.000000	64.707136  
4930.000000	64.693212  
4929.000000	64.670038  
4928.000000	64.637231  
4927.000000	64.595794  
4926.000000	64.548206  
4925.000000	64.498209  
4924.000000	64.449810  
4923.000000	64.407181  
4922.000000	64.374470  
4921.000000	64.355301  
4920.000000	64.352560  
4919.000000	64.367938  
4918.000000	64.400815  
4917.000000	64.448595  
4916.000000	64.506530  
4915.000000	64.568805  
4914.000000	64.628672  
4913.000000	64.680314  
4912.000000	64.719533  
4911.000000	64.744734  
4910.000000	64.756774  
4909.000000	64.758825  
4908.000000	64.755439  
4907.000000	64.750790  
4906.000000	64.747548  
4905.000000	64.745998  
4904.000000	64.744424  
4903.000000	64.739489  
4902.000000	64.727950  
4901.000000	64.707708  
4900.000000	64.679598  
4899.000000	64.648461  
4898.000000	64.622855  
4897.000000	64.612960  
4896.000000	64.628458  
4895.000000	64.675903  
4894.000000	64.756584  
4893.000000	64.865231  
4892.000000	64.990353  
4891.000000	65.116453  
4890.000000	65.226626  
4889.000000	65.306401  
4888.000000	65.346527  
4887.000000	65.344285  
4886.000000	65.304660  
4885.000000	65.238595  
4884.000000	65.160822  
4883.000000	65.087223  
4882.000000	65.030813  
4881.000000	65.000438  
4880.000000	64.997792  
4879.000000	65.018224  
4878.000000	65.051198  
4877.000000	65.083861  
4876.000000	65.102362  
4875.000000	65.095257  
4874.000000	65.055322  
4873.000000	64.981007  
4872.000000	64.876222  
4871.000000	64.749550  
4870.000000	64.612126  
4869.000000	64.475870  
4868.000000	64.351248  
4867.000000	64.246344  
4866.000000	64.166259  
4865.000000	64.113306  
4864.000000	64.087653  
4863.000000	64.088273  
4862.000000	64.112591  
4861.000000	64.157509  
4860.000000	64.218020  
4859.000000	64.288687  
4858.000000	64.361596  
4857.000000	64.430093  
4856.000000	64.488792  
4855.000000	64.536070  
4854.000000	64.573740  
4853.000000	64.606809  
4852.000000	64.641618  
4851.000000	64.684152  
4850.000000	64.738130  
4849.000000	64.802670  
4848.000000	64.871954  
4847.000000	64.936470  
4846.000000	64.985394  
4845.000000	65.009546  
4844.000000	65.004086  
4843.000000	64.970111  
4842.000000	64.914727  
4841.000000	64.849567  
4840.000000	64.788413  
4839.000000	64.744257  
4838.000000	64.726352  
4837.000000	64.738845  
4836.000000	64.779520  
4835.000000	64.842224  
4834.000000	64.917016  
4833.000000	64.992594  
4832.000000	65.058660  
4831.000000	65.107178  
4830.000000	65.134978  
4829.000000	65.143060  
4828.000000	65.137243  
4827.000000	65.125799  
4826.000000	65.118122  
4825.000000	65.122485  
4824.000000	65.143394  
4823.000000	65.180540  
4822.000000	65.228056  
4821.000000	65.275907  
4820.000000	65.311431  
4819.000000	65.322494  
4818.000000	65.300488  
4817.000000	65.242576  
4816.000000	65.152716  
4815.000000	65.040802  
4814.000000	64.920616  
4813.000000	64.806938  
4812.000000	64.712142  
4811.000000	64.644479  
4810.000000	64.606714  
4809.000000	64.596915  
4808.000000	64.609599  
4807.000000	64.637994  
4806.000000	64.675211  
4805.000000	64.716196  
4804.000000	64.757347  
4803.000000	64.797377  
4802.000000	64.835429  
4801.000000	64.871191  
4800.000000	64.903426  
4799.000000	64.930272  
4798.000000	64.949345  
4797.000000	64.958643  
4796.000000	64.957237  
4795.000000	64.945459  
4794.000000	64.925289  
4793.000000	64.900016  
4792.000000	64.874124  
4791.000000	64.851927  
4790.000000	64.836907  
4789.000000	64.831495  
4788.000000	64.836287  
4787.000000	64.850139  
4786.000000	64.870166  
4785.000000	64.892315  
4784.000000	64.912533  
4783.000000	64.926910  
4782.000000	64.933419  
4781.000000	64.931917  
4780.000000	64.924883  
4779.000000	64.916110  
4778.000000	64.910840  
4777.000000	64.914393  
4776.000000	64.931082  
4775.000000	64.963364  
4774.000000	65.010881  
4773.000000	65.070557  
4772.000000	65.137004  
4771.000000	65.203690  
4770.000000	65.264439  
4769.000000	65.314388  
4768.000000	65.351796  
4767.000000	65.378117  
4766.000000	65.397644  
4765.000000	65.416145  
4764.000000	65.439128  
4763.000000	65.469837  
4762.000000	65.508604  
4761.000000	65.552115  
4760.000000	65.593910  
4759.000000	65.625953  
4758.000000	65.641379  
4757.000000	65.635943  
4756.000000	65.609693  
4755.000000	65.567135  
4754.000000	65.516114  
4753.000000	65.466284  
4752.000000	65.426778  
4751.000000	65.404176  
4750.000000	65.401077  
4749.000000	65.416026  
4748.000000	65.444660  
4747.000000	65.480685  
4746.000000	65.517807  
4745.000000	65.550374  
4744.000000	65.574479  
4743.000000	65.587806  
4742.000000	65.589332  
4741.000000	65.579485  
4740.000000	65.559720  
4739.000000	65.532541  
4738.000000	65.501356  
4737.000000	65.470981  
4736.000000	65.447044  
4735.000000	65.435218  
4734.000000	65.439844  
4733.000000	65.463352  
4732.000000	65.504837  
4731.000000	65.560054  
4730.000000	65.621685  
4729.000000	65.681004  
4728.000000	65.729379  
4727.000000	65.760064  
4726.000000	65.769362  
4725.000000	65.756988  
4724.000000	65.726065  
4723.000000	65.682291  
4722.000000	65.632605  
4721.000000	65.583682  
4720.000000	65.541028  
4719.000000	65.508747  
4718.000000	65.488910  
4717.000000	65.481925  
4716.000000	65.486550  
4715.000000	65.500497  
4714.000000	65.520739  
4713.000000	65.544033  
4712.000000	65.567016  
4711.000000	65.586280  
4710.000000	65.598893  
4709.000000	65.602660  
4708.000000	65.596246  
4707.000000	65.579509  
4706.000000	65.553379  
4705.000000	65.519785  
4704.000000	65.481472  
4703.000000	65.441966  
4702.000000	65.404844  
4701.000000	65.374159  
4700.000000	65.353560  
4699.000000	65.346455  
4698.000000	65.355348  
4697.000000	65.381193  
4696.000000	65.423059  
4695.000000	65.477514  
4694.000000	65.538883  
4693.000000	65.599727  
4692.000000	65.651702  
4691.000000	65.687441  
4690.000000	65.701675  
4689.000000	65.692687  
4688.000000	65.662765  
4687.000000	65.617513  
4686.000000	65.564703  
4685.000000	65.512585  
4684.000000	65.467977  
4683.000000	65.435075  
4682.000000	65.414786  
4681.000000	65.405082  
4680.000000	65.402150  
4679.000000	65.402317  
4678.000000	65.403580  
4677.000000	65.405607  
4676.000000	65.410423  
4675.000000	65.421295  
4674.000000	65.442061  
4673.000000	65.474724  
4672.000000	65.519404  
4671.000000	65.573573  
4670.000000	65.632486  
4669.000000	65.690588  
4668.000000	65.741991  
4667.000000	65.782094  
4666.000000	65.807843  
4665.000000	65.818405  
4664.000000	65.814876  
4663.000000	65.799760  
4662.000000	65.776538  
4661.000000	65.748882  
4660.000000	65.720534  
4659.000000	65.694594  
4658.000000	65.673351  
4657.000000	65.657830  
4656.000000	65.647363  
4655.000000	65.639472  
4654.000000	65.630054  
4653.000000	65.614104  
4652.000000	65.586662  
4651.000000	65.544104  
4650.000000	65.485072  
4649.000000	65.411782  
4648.000000	65.329647  
4647.000000	65.246844  
4646.000000	65.172362  
4645.000000	65.114521  
4644.000000	65.079092  
4643.000000	65.068149  
4642.000000	65.079498  
4641.000000	65.107583  
4640.000000	65.144681  
4639.000000	65.183067  
4638.000000	65.215992  
4637.000000	65.239763  
4636.000000	65.253734  
4635.000000	65.259742  
4634.000000	65.260529  
4633.000000	65.259265  
4632.000000	65.258264  
4631.000000	65.258216  
4630.000000	65.258121  
4629.000000	65.256047  
4628.000000	65.249633  
4627.000000	65.237355  
4626.000000	65.218734  
4625.000000	65.194249  
4624.000000	65.165328  
4623.000000	65.133857  
4622.000000	65.102148  
4621.000000	65.071845  
4620.000000	65.044593  
4619.000000	65.021753  
4618.000000	65.004825  
4617.000000	64.995408  
4616.000000	64.994907  
4615.000000	65.004301  
4614.000000	65.023231  
4613.000000	65.049672  
4612.000000	65.079522  
4611.000000	65.107274  
4610.000000	65.126061  
4609.000000	65.129208  
4608.000000	65.111446  
4607.000000	65.070223  
4606.000000	65.006017  
4605.000000	64.922618  
4604.000000	64.826750  
4603.000000	64.727306  
4602.000000	64.634442  
4601.000000	64.558100  
4600.000000	64.506697  
4599.000000	64.485931  
4598.000000	64.497876  
4597.000000	64.540410  
4596.000000	64.607667  
4595.000000	64.690470  
4594.000000	64.777874  
4593.000000	64.858412  
4592.000000	64.921617  
4591.000000	64.959645  
4590.000000	64.967727  
4589.000000	64.945363  
4588.000000	64.895510  
4587.000000	64.825081  
4586.000000	64.743328  
4585.000000	64.661622  
4584.000000	64.591598  
4583.000000	64.544200  
4582.000000	64.528536  
4581.000000	64.549779  
4580.000000	64.608693  
4579.000000	64.700078  
4578.000000	64.813661  
4577.000000	64.934492  
4576.000000	65.045905  
4575.000000	65.132808  
4574.000000	65.184998  
4573.000000	65.199208  
4572.000000	65.179133  
4571.000000	65.134215  
4570.000000	65.076518  
4569.000000	65.018630  
4568.000000	64.969754  
4567.000000	64.934372  
4566.000000	64.910793  
4565.000000	64.893960  
4564.000000	64.876055  
4563.000000	64.849901  
4562.000000	64.810705  
4561.000000	64.757394  
4560.000000	64.693450  
4559.000000	64.625549  
4558.000000	64.562296  
4557.000000	64.511466  
4556.000000	64.478516  
4555.000000	64.465570  
4554.000000	64.469933  
4553.000000	64.484834  
4552.000000	64.500284  
4551.000000	64.505624  
4550.000000	64.491081  
4549.000000	64.450693  
4548.000000	64.383983  
4547.000000	64.297366  
4546.000000	64.202594  
4545.000000	64.115047  
4544.000000	64.050817  
4543.000000	64.022850  
4542.000000	64.037775  
4541.000000	64.094233  
4540.000000	64.183139  
4539.000000	64.290165  
4538.000000	64.398789  
4537.000000	64.494729  
4536.000000	64.568471  
4535.000000	64.616942  
4534.000000	64.643907  
4533.000000	64.656186  
4532.000000	64.660859  
4531.000000	64.661431  
4530.000000	64.656782  
4529.000000	64.640116  
4528.000000	64.601659  
4527.000000	64.532113  
4526.000000	64.427137  
4525.000000	64.289641  
4524.000000	64.130735  
4523.000000	63.967990  
4522.000000	63.821840  
4521.000000	63.710713  
4520.000000	63.646864  
4519.000000	63.633108  
4518.000000	63.662934  
4517.000000	63.722848  
4516.000000	63.796281  
4515.000000	63.867259  
4514.000000	63.924527  
4513.000000	63.962817  
4512.000000	63.983535  
4511.000000	63.990998  
4510.000000	63.992094  
4509.000000	63.992643  
4508.000000	63.996863  
4507.000000	64.005780  
4506.000000	64.018368  
4505.000000	64.033389  
4504.000000	64.049220  
4503.000000	64.065814  
4502.000000	64.083194  
4501.000000	64.101672  
4500.000000	64.120364  
4499.000000	64.137029  
4498.000000	64.148092  
4497.000000	64.149403  
4496.000000	64.137935  
4495.000000	64.112710  
4494.000000	64.075207  
4493.000000	64.028978  
4492.000000	63.979268  
4491.000000	63.930964  
4490.000000	63.886833  
4489.000000	63.846135  
4488.000000	63.805556  
4487.000000	63.759493  
4486.000000	63.702106  
4485.000000	63.629317  
4484.000000	63.540053  
4483.000000	63.437962  
4482.000000	63.330626  
4481.000000	63.229060  
4480.000000	63.143801  
4479.000000	63.084411  
4478.000000	63.056993  
4477.000000	63.063073  
4476.000000	63.099122  
4475.000000	63.156938  
4474.000000	63.225150  
4473.000000	63.291215  
4472.000000	63.343739  
4471.000000	63.374900  
4470.000000	63.381385  
4469.000000	63.365268  
4468.000000	63.332653  
4467.000000	63.291859  
4466.000000	63.251161  
4465.000000	63.217091  
4464.000000	63.192772  
4463.000000	63.178443  
4462.000000	63.171148  
4461.000000	63.167452  
4460.000000	63.163089  
4459.000000	63.154077  
4458.000000	63.137269  
4457.000000	63.111209  
4456.000000	63.075876  
4455.000000	63.031244  
4454.000000	62.978696  
4453.000000	62.920260  
4452.000000	62.859511  
4451.000000	62.800884  
4450.000000	62.750029  
4449.000000	62.713122  
4448.000000	62.695574  
4447.000000	62.700653  
4446.000000	62.728786  
4445.000000	62.776637  
4444.000000	62.838816  
4443.000000	62.908625  
4442.000000	62.977981  
4441.000000	63.038635  
4440.000000	63.083291  
4439.000000	63.106942  
4438.000000	63.105678  
4437.000000	63.079142  
4436.000000	63.031864  
4435.000000	62.973618  
4434.000000	62.918186  
4433.000000	62.880969  
4432.000000	62.876677  
4431.000000	62.914776  
4430.000000	62.996768  
4429.000000	63.115143  
4428.000000	63.255858  
4427.000000	63.399958  
4426.000000	63.528203  
4425.000000	63.624596  
4424.000000	63.678336  
4423.000000	63.687062  
4422.000000	63.661432  
4421.000000	63.611221  
4420.000000	63.535213  
4419.000000	63.438630  
4418.000000	63.340759  
4417.000000	63.239526  
4416.000000	63.109087  
4415.000000	62.939882  
4414.000000	62.741088  
4413.000000	62.520813  
4412.000000	62.289381  
4411.000000	62.051725  
4410.000000	61.809134  
4409.000000	61.583113  
4408.000000	61.398768  
4407.000000	61.258602  
4406.000000	61.151885  
4405.000000	61.061930  
4404.000000	60.969758  
4403.000000	60.860395  
4402.000000	60.726928  
4401.000000	60.577154  
4400.000000	60.430836  
4399.000000	60.270190  
4398.000000	60.118699  
4397.000000	60.012054  
4396.000000	60.069561  
4395.000000	60.447239  
4394.000000	61.382818  
4393.000000	63.115692  
4392.000000	65.906095  
4391.000000	69.928455  
4390.000000	75.348567  
4389.000000	82.216405  
4388.000000	90.417671  
4387.000000	99.567699  
4386.000000	108.824419 
4385.000000	117.003774 
4384.000000	122.681736 
4383.000000	124.601602 
4382.000000	122.154116 
4381.000000	115.521502 
4380.000000	105.932736 
4379.000000	95.152759  
4378.000000	85.022115  
4377.000000	76.969933  
4376.000000	71.538472  
4375.000000	68.511128  
4374.000000	67.174100  
4373.000000	66.598653  
4372.000000	66.216921  
4371.000000	65.733981  
4370.000000	65.183305  
4369.000000	64.765191  
4368.000000	64.502382  
4367.000000	64.406538  
4366.000000	64.341092  
4365.000000	64.204001  
4364.000000	63.971304  
4363.000000	63.679742  
4362.000000	63.431620  
4361.000000	63.288116  
4360.000000	63.248562  
4359.000000	63.286757  
4358.000000	63.354015  
4357.000000	63.415718  
4356.000000	63.453054  
4355.000000	63.468861  
4354.000000	63.479804  
4353.000000	63.471698  
4352.000000	63.425874  
4351.000000	63.338136  
4350.000000	63.213920  
4349.000000	63.084697  
4348.000000	62.985754  
4347.000000	62.918138  
4346.000000	62.878608  
4345.000000	62.884044  
4344.000000	62.941503  
4343.000000	63.036632  
4342.000000	63.150882  
4341.000000	63.267564  
4340.000000	63.370704  
4339.000000	63.447499  
4338.000000	63.492870  
4337.000000	63.509321  
4336.000000	63.505268  
4335.000000	63.491845  
4334.000000	63.480949  
4333.000000	63.481855  
4332.000000	63.498592  
4331.000000	63.528919  
4330.000000	63.566613  
4329.000000	63.602781  
4328.000000	63.628268  
4327.000000	63.635993  
4326.000000	63.622927  
4325.000000	63.591051  
4324.000000	63.545989  
4323.000000	63.496732  
4322.000000	63.452315  
4321.000000	63.421344  
4320.000000	63.410162  
4319.000000	63.422107  
4318.000000	63.457727  
4317.000000	63.514184  
4316.000000	63.586544  
4315.000000	63.667941  
4314.000000	63.750839  
4313.000000	63.827586  
4312.000000	63.891172  
4311.000000	63.935995  
4310.000000	63.958430  
4309.000000	63.957595  
4308.000000	63.935565  
4307.000000	63.897013  
4306.000000	63.848376  
4305.000000	63.797593  
4304.000000	63.752532  
4303.000000	63.720226  
4302.000000	63.705134  
4301.000000	63.708615  
4300.000000	63.728356  
4299.000000	63.759303  
4298.000000	63.794565  
4297.000000	63.826775  
4296.000000	63.849496  
4295.000000	63.858270  
4294.000000	63.850975  
4293.000000	63.827538  
4292.000000	63.790202  
4291.000000	63.742303  
4290.000000	63.688588  
4289.000000	63.634228  
4288.000000	63.584685  
4287.000000	63.544964  
4286.000000	63.518905  
4285.000000	63.508820  
4284.000000	63.514494  
4283.000000	63.533234  
4282.000000	63.560342  
4281.000000	63.590121  
4280.000000	63.617038  
4279.000000	63.636946  
4278.000000	63.648486  
4277.000000	63.653135  
4276.000000	63.654947  
4275.000000	63.659214  
4274.000000	63.670396  
4273.000000	63.691282  
4272.000000	63.721990  
4271.000000	63.760280  
4270.000000	63.802599  
4269.000000	63.844633  
4268.000000	63.883948  
4267.000000	63.918781  
4266.000000	63.948249  
4265.000000	63.971543  
4264.000000	63.987612  
4263.000000	63.994836  
4262.000000	63.991093  
4261.000000	63.974905  
4260.000000	63.946652  
4259.000000	63.909220  
4258.000000	63.868427  
4257.000000	63.831949  
4256.000000	63.807916  
4255.000000	63.803076  
4254.000000	63.820981  
4253.000000	63.860845  
4252.000000	63.917636  
4251.000000	63.983321  
4250.000000	64.048838  
4249.000000	64.106082  
4248.000000	64.149713  
4247.000000	64.177846  
4246.000000	64.192628  
4245.000000	64.198303  
4244.000000	64.201259  
4243.000000	64.207887  
4242.000000	64.224100  
4241.000000	64.254307  
4240.000000	64.300823  
4239.000000	64.364171  
4238.000000	64.442014  
4237.000000	64.530301  
4236.000000	64.622092  
4235.000000	64.709043  
4234.000000	64.781618  
4233.000000	64.831018  
4232.000000	64.850306  
4231.000000	64.836072  
4230.000000	64.789438  
4229.000000	64.716172  
4228.000000	64.626526  
4227.000000	64.533376  
4226.000000	64.449739  
4225.000000	64.386534  
4224.000000	64.350414  
4223.000000	64.343047  
4222.000000	64.361190  
4221.000000	64.398145  
4220.000000	64.445519  
4219.000000	64.495086  
4218.000000	64.540481  
4217.000000	64.578008  
4216.000000	64.605808  
4215.000000	64.624094  
4214.000000	64.633178  
4213.000000	64.634561  
4212.000000	64.630079  
4211.000000	64.622688  
4210.000000	64.616632  
4209.000000	64.616250  
4208.000000	64.625930  
4207.000000	64.647889  
4206.000000	64.682173  
4205.000000	64.724326  
4204.000000	64.766263  
4203.000000	64.796972  
4202.000000	64.805364  
4201.000000	64.782905  
4200.000000	64.726376  
4199.000000	64.639568  
4198.000000	64.533448  
4197.000000	64.424419  
4196.000000	64.331650  
4195.000000	64.273166  
4194.000000	64.262390  
4193.000000	64.305782  
4192.000000	64.400959  
4191.000000	64.537858  
4190.000000	64.699816  
4189.000000	64.866566  
4188.000000	65.018320  
4187.000000	65.137410  
4186.000000	65.213513  
4185.000000	65.244245  
4184.000000	65.236711  
4183.000000	65.204501  
4182.000000	65.166068  
4181.000000	65.140604  
4180.000000	65.143442  
4179.000000	65.184044  
4178.000000	65.262627  
4177.000000	65.371227  
4176.000000	65.494871  
4175.000000	65.615844  
4174.000000	65.717101  
4173.000000	65.786433  
4172.000000	65.818285  
4171.000000	65.814709  
4170.000000	65.784025  
4169.000000	65.737915  
4168.000000	65.688562  
4167.000000	65.645098  
4166.000000	65.612769  
4165.000000	65.591216  
4164.000000	65.577077  
4163.000000	65.564036  
4162.000000	65.545773  
4161.000000	65.517044  
4160.000000	65.475058  
4159.000000	65.420389  
4158.000000	65.356445  
4157.000000	65.289258  
4156.000000	65.224862  
4155.000000	65.169739  
4154.000000	65.129327  
4153.000000	65.107297  
4152.000000	65.104937  
4151.000000	65.121030  
4150.000000	65.152311  
4149.000000	65.193653  
4148.000000	65.238690  
4147.000000	65.280866  
4146.000000	65.314173  
4145.000000	65.333843  
4144.000000	65.336775  
4143.000000	65.322232  
4142.000000	65.291786  
4141.000000	65.248560  
4140.000000	65.197014  
4139.000000	65.142202  
4138.000000	65.089392  
4137.000000	65.043616  
4136.000000	65.009403  
4135.000000	64.989995  
4134.000000	64.987611  
4133.000000	65.002918  
4132.000000	65.035009  
4131.000000	65.081405  
4130.000000	65.137887  
4129.000000	65.198802  
4128.000000	65.257740  
4127.000000	65.308260  
4126.000000	65.345144  
4125.000000	65.364909  
4124.000000	65.366482  
4123.000000	65.351390  
4122.000000	65.323448  
4121.000000	65.287995  
4120.000000	65.251016  
4119.000000	65.217924  
4118.000000	65.192747  
4117.000000	65.177869  
4116.000000	65.173721  
4115.000000	65.179324  
4114.000000	65.192770  
4113.000000	65.211939  
4112.000000	65.235114  
4111.000000	65.260910  
4110.000000	65.288352  
4109.000000	65.316319  
4108.000000	65.343284  
4107.000000	65.366792  
4106.000000	65.384054  
4105.000000	65.392017  
4104.000000	65.387868  
4103.000000	65.369820  
4102.000000	65.337991  
4101.000000	65.294265  
4100.000000	65.242338  
4099.000000	65.186858  
4098.000000	65.132761  
4097.000000	65.084266  
4096.000000	65.044403  
4095.000000	65.014791  
4094.000000	64.995527  
4093.000000	64.986276  
4092.000000	64.986681  
4091.000000	64.996647  
4090.000000	65.016293  
4089.000000	65.045142  
4088.000000	65.081906  
4087.000000	65.123677  
4086.000000	65.166330  
4085.000000	65.204858  
4084.000000	65.234303  
4083.000000	65.250897  
4082.000000	65.253043  
4081.000000	65.241670  
4080.000000	65.219950  
4079.000000	65.192842  
4078.000000	65.165829  
4077.000000	65.143752  
4076.000000	65.130019  
4075.000000	65.126299  
4074.000000	65.132117  
4073.000000	65.145683  
4072.000000	65.164160  
4071.000000	65.184807  
4070.000000	65.204763  
4069.000000	65.221738  
4068.000000	65.234255  
4067.000000	65.241646  
4066.000000	65.244412  
4065.000000	65.243816  
4064.000000	65.242052  
4063.000000	65.241527  
4062.000000	65.244221  
4061.000000	65.251040  
4060.000000	65.261220  
4059.000000	65.272569  
4058.000000	65.282249  
4057.000000	65.287947  
4056.000000	65.288329  
4055.000000	65.284013  
4054.000000	65.277814  
4053.000000	65.274167  
4052.000000	65.277814  
4051.000000	65.292596  
4050.000000	65.320110  
4049.000000	65.359354  
4048.000000	65.406441  
4047.000000	65.455627  
4046.000000	65.500760  
4045.000000	65.536546  
4044.000000	65.560150  
4043.000000	65.571260  
4042.000000	65.571951  
4041.000000	65.565609  
4040.000000	65.555739  
4039.000000	65.544772  
4038.000000	65.533304  
4037.000000	65.520095  
4036.000000	65.502619  
4035.000000	65.478086  
4034.000000	65.444421  
4033.000000	65.401029  
4032.000000	65.349388  
4031.000000	65.292692  
4030.000000	65.235519  
4029.000000	65.182495  
4028.000000	65.138053  
4027.000000	65.105509  
4026.000000	65.086984  
4025.000000	65.082883  
4024.000000	65.092229  
4023.000000	65.112686  
4022.000000	65.141248  
4021.000000	65.173959  
4020.000000	65.206933  
4019.000000	65.236544  
4018.000000	65.260195  
4017.000000	65.276384  
4016.000000	65.285229  
4015.000000	65.288257  
4014.000000	65.288019  
4013.000000	65.287399  
4012.000000	65.288615  
4011.000000	65.292763  
4010.000000	65.299391  
4009.000000	65.306687  
4008.000000	65.311884  
4007.000000	65.311932  
4006.000000	65.304660  
4005.000000	65.289092  
4004.000000	65.265583  
4003.000000	65.235805  
4002.000000	65.202093  
4001.000000	65.167212  
4000.000000	65.133738  
3999.000000	65.104126  
3998.000000	65.080237  
3997.000000	65.063667  
3996.000000	65.055418  
3995.000000	65.055918  
3994.000000	65.065026  
3993.000000	65.082049  
3992.000000	65.105390  
3991.000000	65.133142  
3990.000000	65.162777  
3989.000000	65.192365  
3988.000000	65.220451  
3987.000000	65.246748  
3986.000000	65.271782  
3985.000000	65.296745  
3984.000000	65.322756  
3983.000000	65.350413  
3982.000000	65.378999  
3981.000000	65.406513  
3980.000000	65.429759  
3979.000000	65.445160  
3978.000000	65.449309  
3977.000000	65.439939  
3976.000000	65.416145  
3975.000000	65.378999  
3974.000000	65.331196  
3973.000000	65.276551  
3972.000000	65.219521  
3971.000000	65.164399  
3970.000000	65.114879  
3969.000000	65.073823  
3968.000000	65.043330  
3967.000000	65.024328  
3966.000000	65.017223  
3965.000000	65.021681  
3964.000000	65.036773  
3963.000000	65.060734  
3962.000000	65.091204  
3961.000000	65.125441  
3960.000000	65.160250  
3959.000000	65.192174  
3958.000000	65.217995  
3957.000000	65.235090  
3956.000000	65.241765  
3955.000000	65.237307  
3954.000000	65.222311  
3953.000000	65.198516  
3952.000000	65.168762  
3951.000000	65.136408  
3950.000000	65.105032  
3949.000000	65.077805  
3948.000000	65.057158  
3947.000000	65.044140  
3946.000000	65.038228  
3945.000000	65.037655  
3944.000000	65.039610  
3943.000000	65.040969  
3942.000000	65.038371  
3941.000000	65.029549  
3940.000000	65.013790  
3939.000000	64.992260  
3938.000000	64.967179  
3937.000000	64.941906  
3936.000000	64.919972  
3935.000000	64.904284  
3934.000000	64.896416  
3933.000000	64.896392  
3932.000000	64.902591  
3931.000000	64.912462  
3930.000000	64.923167  
3929.000000	64.932179  
3928.000000	64.937806  
3927.000000	64.939594  
3926.000000	64.938187  
3925.000000	64.934539  
3924.000000	64.929604  
3923.000000	64.923930  
3922.000000	64.917516  
3921.000000	64.910054  
3920.000000	64.901733  
3919.000000	64.893198  
3918.000000	64.886283  
3917.000000	64.883852  
3916.000000	64.889240  
3915.000000	64.905381  
3914.000000	64.933633  
3913.000000	64.973020  
3912.000000	65.020084  
3911.000000	65.069389  
3910.000000	65.114760  
3909.000000	65.150332  
3908.000000	65.172386  
3907.000000	65.180063  
3906.000000	65.175414  
3905.000000	65.162920  
3904.000000	65.147447  
3903.000000	65.132927  
3902.000000	65.121126  
3901.000000	65.111470  
3900.000000	65.101337  
3899.000000	65.087485  
3898.000000	65.067648  
3897.000000	65.041875  
3896.000000	65.013194  
3895.000000	64.986848  
3894.000000	64.969253  
3893.000000	64.965558  
3892.000000	64.978480  
3891.000000	65.006589  
3890.000000	65.044450  
3889.000000	65.083408  
3888.000000	65.113997  
3887.000000	65.127897  
3886.000000	65.119886  
3885.000000	65.089488  
3884.000000	65.040850  
3883.000000	64.982056  
3882.000000	64.922690  
3881.000000	64.872407  
3880.000000	64.838743  
3879.000000	64.825916  
3878.000000	64.834308  
3877.000000	64.860892  
3876.000000	64.900541  
3875.000000	64.947032  
3874.000000	64.994549  
3873.000000	65.038299  
3872.000000	65.075159  
3871.000000	65.103483  
3870.000000	65.122723  
3869.000000	65.132808  
3868.000000	65.133595  
3867.000000	65.125298  
3866.000000	65.107750  
3865.000000	65.081024  
3864.000000	65.045285  
3863.000000	65.001964  
3862.000000	64.953088  
3861.000000	64.901614  
3860.000000	64.850473  
3859.000000	64.802908  
3858.000000	64.761257  
3857.000000	64.726901  
3856.000000	64.700174  
3855.000000	64.680004  
3854.000000	64.664888  
3853.000000	64.653086  
3852.000000	64.643406  
3851.000000	64.635396  
3850.000000	64.629292  
3849.000000	64.625525  
3848.000000	64.624452  
3847.000000	64.626073  
3846.000000	64.629530  
3845.000000	64.633488  
3844.000000	64.636230  
3843.000000	64.636826  
3842.000000	64.635610  
3841.000000	64.634966  
3840.000000	64.638495  
3839.000000	64.650464  
3838.000000	64.674568  
3837.000000	64.712500  
3836.000000	64.763069  
3835.000000	64.821815  
3834.000000	64.881753  
3833.000000	64.934849  
3832.000000	64.973688  
3831.000000	64.993596  
3830.000000	64.993190  
3829.000000	64.975476  
3828.000000	64.947056  
3827.000000	64.916706  
3826.000000	64.893293  
3825.000000	64.883804  
3824.000000	64.892125  
3823.000000	64.917945  
3822.000000	64.957165  
3821.000000	65.003037  
3820.000000	65.048027  
3819.000000	65.085339  
3818.000000	65.110468  
3817.000000	65.121865  
3816.000000	65.120935  
3815.000000	65.111041  
3814.000000	65.096187  
3813.000000	65.080046  
3812.000000	65.064573  
3811.000000	65.049958  
3810.000000	65.034675  
3809.000000	65.016436  
3808.000000	64.993453  
3807.000000	64.965677  
3806.000000	64.935040  
3805.000000	64.905142  
3804.000000	64.880514  
3803.000000	64.865136  
3802.000000	64.861345  
3801.000000	64.868760  
3800.000000	64.884567  
3799.000000	64.904212  
3798.000000	64.922690  
3797.000000	64.935779  
3796.000000	64.941024  
3795.000000	64.938139  
3794.000000	64.929080  
3793.000000	64.917469  
3792.000000	64.907479  
3791.000000	64.902710  
3790.000000	64.905810  
3789.000000	64.917492  
3788.000000	64.937114  
3787.000000	64.962124  
3786.000000	64.989376  
3785.000000	65.014743  
3784.000000	65.034127  
3783.000000	65.044021  
3782.000000	65.041708  
3781.000000	65.026545  
3780.000000	64.999818  
3779.000000	64.965152  
3778.000000	64.927840  
3777.000000	64.893937  
3776.000000	64.868950  
3775.000000	64.856791  
3774.000000	64.859008  
3773.000000	64.874768  
3772.000000	64.901232  
3771.000000	64.934682  
3770.000000	64.971494  
3769.000000	65.008902  
3768.000000	65.045380  
3767.000000	65.080475  
3766.000000	65.114545  
3765.000000	65.148043  
3764.000000	65.181207  
3763.000000	65.213847  
3762.000000	65.244770  
3761.000000	65.272808  
3760.000000	65.296053  
3759.000000	65.313410  
3758.000000	65.323519  
3757.000000	65.325236  
3756.000000	65.317130  
3755.000000	65.298199  
3754.000000	65.268039  
3753.000000	65.227198  
3752.000000	65.177917  
3751.000000	65.124297  
3750.000000	65.071749  
3749.000000	65.026330  
3748.000000	64.993429  
3747.000000	64.976763  
3746.000000	64.977359  
3745.000000	64.993500  
3744.000000	65.020990  
3743.000000	65.053915  
3742.000000	65.086221  
3741.000000	65.112853  
3740.000000	65.130376  
3739.000000	65.137672  
3738.000000	65.135693  
3737.000000	65.127110  
3736.000000	65.115094  
3735.000000	65.102672  
3734.000000	65.092229  
3733.000000	65.085601  
3732.000000	65.083742  
3731.000000	65.087366  
3730.000000	65.097284  
3729.000000	65.114092  
3728.000000	65.138387  
3727.000000	65.170049  
3726.000000	65.207791  
3725.000000	65.248942  
3724.000000	65.289783  
3723.000000	65.325641  
3722.000000	65.352010  
3721.000000	65.365076  
3720.000000	65.363025  
3719.000000	65.346002  
3718.000000	65.316247  
3717.000000	65.277481  
3716.000000	65.234303  
3715.000000	65.191102  
3714.000000	65.151572  
3713.000000	65.118098  
3712.000000	65.091919  
3711.000000	65.073394  
3710.000000	65.062284  
3709.000000	65.057873  
3708.000000	65.059065  
3707.000000	65.064430  
3706.000000	65.072584  
3705.000000	65.081286  
3704.000000	65.088629  
3703.000000	65.092635  
3702.000000	65.092444  
3701.000000	65.088152  
3700.000000	65.081262  
3699.000000	65.074276  
3698.000000	65.069985  
3697.000000	65.070748  
3696.000000	65.077638  
3695.000000	65.089917  
3694.000000	65.105175  
3693.000000	65.119743  
3692.000000	65.129709  
3691.000000	65.131831  
3690.000000	65.124821  
3689.000000	65.109586  
3688.000000	65.088939  
3687.000000	65.066766  
3686.000000	65.047097  
3685.000000	65.033054  
3684.000000	65.025901  
3683.000000	65.025091  
3682.000000	65.028429  
3681.000000	65.033006  
3680.000000	65.036177  
3679.000000	65.036177  
3678.000000	65.032505  
3677.000000	65.026259  
3676.000000	65.019488  
3675.000000	65.014576  
3674.000000	65.013408  
3673.000000	65.016794  
3672.000000	65.024447  
3671.000000	65.035223  
3670.000000	65.047407  
3669.000000	65.059804  
3668.000000	65.071797  
3667.000000	65.084171  
3666.000000	65.098619  
3665.000000	65.117621  
3664.000000	65.143609  
3663.000000	65.178108  
3662.000000	65.220999  
3661.000000	65.270233  
3660.000000	65.321993  
3659.000000	65.371060  
3658.000000	65.411829  
3657.000000	65.439343  
3656.000000	65.450263  
3655.000000	65.443706  
3654.000000	65.421223  
3653.000000	65.386676  
3652.000000	65.345287  
3651.000000	65.303063  
3650.000000	65.265417  
3649.000000	65.236639  
3648.000000	65.219306  
3647.000000	65.214228  
3646.000000	65.220618  
3645.000000	65.236639  
3644.000000	65.259647  
3643.000000	65.286636  
3642.000000	65.314579  
3641.000000	65.340399  
3640.000000	65.361428  
3639.000000	65.374898  
3638.000000	65.379071  
3637.000000	65.372991  
3636.000000	65.357089  
3635.000000	65.332937  
3634.000000	65.303325  
3633.000000	65.271687  
3632.000000	65.241479  
3631.000000	65.215682  
3630.000000	65.196228  
3629.000000	65.183830  
3628.000000	65.177893  
3627.000000	65.176987  
3626.000000	65.179252  
3625.000000	65.183281  
3624.000000	65.188002  
3623.000000	65.193223  
3622.000000	65.199208  
3621.000000	65.206599  
3620.000000	65.215992  
3619.000000	65.227580  
3618.000000	65.240693  
3617.000000	65.254116  
3616.000000	65.266275  
3615.000000	65.275382  
3614.000000	65.279793  
3613.000000	65.278315  
3612.000000	65.270543  
3611.000000	65.257120  
3610.000000	65.239644  
3609.000000	65.220594  
3608.000000	65.202832  
3607.000000	65.189123  
3606.000000	65.181589  
3605.000000	65.181279  
3604.000000	65.188074  
3603.000000	65.200638  
3602.000000	65.216708  
3601.000000	65.233612  
3600.000000	65.248799  
3599.000000	65.260338  
3598.000000	65.267181  
3597.000000	65.269279  
3596.000000	65.267539  
3595.000000	65.263366  
3594.000000	65.258574  
3593.000000	65.254807  
3592.000000	65.253376  
3591.000000	65.255093  
3590.000000	65.260124  
3589.000000	65.268325  
3588.000000	65.278792  
3587.000000	65.290188  
3586.000000	65.300869  
3585.000000	65.309119  
3584.000000	65.313577  
3583.000000	65.313792  
3582.000000	65.310192  
3581.000000	65.304017  
3580.000000	65.296983  
3579.000000	65.290713  
3578.000000	65.286326  
3577.000000	65.284013  
3576.000000	65.282964  
3575.000000	65.281391  
3574.000000	65.277290  
3573.000000	65.268778  
3572.000000	65.254473  
3571.000000	65.234136  
3570.000000	65.208506  
3569.000000	65.179753  
3568.000000	65.150690  
3567.000000	65.124726  
3566.000000	65.105056  
3565.000000	65.094423  
3564.000000	65.094566  
3563.000000	65.105938  
3562.000000	65.127348  
3561.000000	65.156126  
3560.000000	65.188360  
3559.000000	65.219593  
3558.000000	65.245199  
3557.000000	65.261769  
3556.000000	65.267658  
3555.000000	65.263247  
3554.000000	65.250873  
3553.000000	65.234327  
3552.000000	65.217757  
3551.000000	65.204906  
3550.000000	65.198254  
3549.000000	65.198493  
3548.000000	65.204787  
3547.000000	65.215349  
3546.000000	65.228152  
3545.000000	65.241956  
3544.000000	65.256237  
3543.000000	65.271329  
3542.000000	65.287804  
3541.000000	65.305852  
3540.000000	65.324521  
3539.000000	65.341544  
3538.000000	65.353727  
3537.000000	65.357708  
3536.000000	65.350818  
3535.000000	65.332460  
3534.000000	65.303730  
3533.000000	65.267276  
3532.000000	65.226817  
3531.000000	65.186142  
3530.000000	65.148568  
3529.000000	65.116333  
3528.000000	65.090894  
3527.000000	65.072965  
3526.000000	65.063238  
3525.000000	65.062594  
3524.000000	65.072011  
3523.000000	65.092253  
3522.000000	65.123081  
3521.000000	65.162491  
3520.000000	65.206456  
3519.000000	65.249252  
3518.000000	65.283989  
3517.000000	65.304327  
3516.000000	65.305709  
3515.000000	65.286874  
3514.000000	65.250015  
3513.000000	65.201044  
3512.000000	65.148210  
3511.000000	65.100765  
3510.000000	65.066885  
3509.000000	65.052270  
3508.000000	65.059041  
3507.000000	65.085077  
3506.000000	65.125107  
3505.000000	65.171623  
3504.000000	65.216469  
3503.000000	65.253043  
3502.000000	65.277171  
3501.000000	65.288162  
3500.000000	65.288114  
3499.000000	65.281510  
3498.000000	65.273499  
3497.000000	65.268683  
3496.000000	65.270018  
3495.000000	65.278244  
3494.000000	65.291976  
3493.000000	65.308594  
3492.000000	65.325140  
3491.000000	65.339612  
3490.000000	65.351438  
3489.000000	65.361618  
3488.000000	65.372061  
3487.000000	65.384840  
3486.000000	65.400934  
3485.000000	65.419840  
3484.000000	65.439224  
3483.000000	65.455698  
3482.000000	65.465259  
3481.000000	65.465068  
3480.000000	65.453529  
3479.000000	65.431189  
3478.000000	65.400338  
3477.000000	65.364575  
3476.000000	65.327811  
3475.000000	65.293312  
3474.000000	65.263295  
3473.000000	65.238571  
3472.000000	65.219211  
3471.000000	65.204954  
3470.000000	65.195512  
3469.000000	65.190982  
3468.000000	65.191602  
3467.000000	65.197849  
3466.000000	65.209317  
3465.000000	65.224981  
3464.000000	65.243124  
3463.000000	65.261888  
3462.000000	65.279197  
3461.000000	65.293598  
3460.000000	65.304732  
3459.000000	65.313100  
3458.000000	65.319705  
3457.000000	65.325593  
3456.000000	65.331077  
3455.000000	65.335774  
3454.000000	65.338468  
3453.000000	65.337872  
3452.000000	65.332841  
3451.000000	65.323328  
3450.000000	65.310835  
3449.000000	65.297818  
3448.000000	65.287065  
3447.000000	65.281248  
3446.000000	65.282082  
3445.000000	65.289878  
3444.000000	65.303230  
3443.000000	65.319609  
3442.000000	65.335941  
3441.000000	65.348792  
3440.000000	65.354990  
3439.000000	65.351963  
3438.000000	65.337848  
3437.000000	65.311861  
3436.000000	65.274405  
3435.000000	65.226817  
3434.000000	65.171813  
3433.000000	65.113258  
3432.000000	65.056180  
3431.000000	65.005731  
3430.000000	64.967155  
3429.000000	64.944410  
3428.000000	64.940142  
3427.000000	64.954495  
3426.000000	64.985871  
3425.000000	65.031218  
3424.000000	65.086817  
3423.000000	65.148615  
3422.000000	65.212845  
3421.000000	65.276050  
3420.000000	65.335154  
3419.000000	65.387392  
3418.000000	65.430212  
3417.000000	65.461277  
3416.000000	65.478682  
3415.000000	65.481281  
3414.000000	65.468811  
3413.000000	65.441989  
3412.000000	65.402817  
3411.000000	65.354347  
3410.000000	65.300488  
3409.000000	65.245509  
3408.000000	65.193796  
3407.000000	65.148949  
3406.000000	65.113759  
3405.000000	65.089607  
3404.000000	65.076375  
3403.000000	65.072679  
3402.000000	65.075802  
3401.000000	65.082764  
3400.000000	65.090250  
3399.000000	65.096235  
3398.000000	65.100002  
3397.000000	65.102791  
3396.000000	65.106916  
3395.000000	65.115523  
3394.000000	65.131354  
3393.000000	65.155720  
3392.000000	65.187716  
3391.000000	65.224361  
3390.000000	65.261197  
3389.000000	65.293025  
3388.000000	65.314960  
3387.000000	65.323829  
3386.000000	65.318775  
3385.000000	65.301346  
3384.000000	65.274930  
3383.000000	65.244197  
3382.000000	65.213704  
3381.000000	65.187311  
3380.000000	65.166950  
3379.000000	65.152668  
3378.000000	65.142512  
3377.000000	65.133690  
3376.000000	65.123152  
3375.000000	65.108275  
3374.000000	65.087676  
3373.000000	65.061569  
3372.000000	65.031838  
3371.000000	65.001320  
3370.000000	64.973425  
3369.000000	64.951419  
3368.000000	64.937567  
3367.000000	64.932680  
3366.000000	64.935898  
3365.000000	64.945173  
3364.000000	64.957523  
3363.000000	64.969730  
3362.000000	64.979100  
3361.000000	64.983773  
3360.000000	64.983177  
3359.000000	64.978122  
3358.000000	64.970064  
3357.000000	64.960789  
3356.000000	64.952039  
3355.000000	64.945054  
3354.000000	64.940309  
3353.000000	64.937543  
3352.000000	64.935970  
3351.000000	64.934849  
3350.000000	64.933705  
3349.000000	64.932656  
3348.000000	64.932084  
3347.000000	64.933276  
3346.000000	64.937496  
3345.000000	64.946532  
3344.000000	64.962053  
3343.000000	64.985585  
3342.000000	65.017986  
3341.000000	65.059065  
3340.000000	65.107369  
3339.000000	65.159845  
3338.000000	65.212535  
3337.000000	65.260696  
3336.000000	65.299510  
3335.000000	65.325021  
3334.000000	65.335059  
3333.000000	65.329289  
3332.000000	65.309429  
3331.000000	65.278792  
3330.000000	65.241909  
3329.000000	65.203571  
3328.000000	65.168023  
3327.000000	65.138602  
3326.000000	65.117263  
3325.000000	65.104722  
3324.000000	65.100479  
3323.000000	65.103220  
3322.000000	65.111374  
3321.000000	65.123009  
3320.000000	65.136480  
3319.000000	65.150070  
3318.000000	65.162563  
3317.000000	65.172886  
3316.000000	65.180754  
3315.000000	65.186047  
3314.000000	65.189218  
3313.000000	65.191149  
3312.000000	65.192914  
3311.000000	65.195560  
3310.000000	65.200257  
3309.000000	65.208196  
3308.000000	65.220236  
3307.000000	65.236639  
3306.000000	65.257453  
3305.000000	65.282225  
3304.000000	65.309810  
3303.000000	65.338420  
3302.000000	65.365839  
3301.000000	65.389633  
3300.000000	65.407562  
3299.000000	65.417885  
3298.000000	65.419554  
3297.000000	65.412592  
3296.000000	65.398383  
3295.000000	65.379166  
3294.000000	65.357995  
3293.000000	65.337848  
3292.000000	65.321516  
3291.000000	65.310573  
3290.000000	65.305662  
3289.000000	65.305924  
3288.000000	65.309572  
3287.000000	65.314149  
3286.000000	65.317320  
3285.000000	65.317010  
3284.000000	65.311956  
3283.000000	65.301704  
3282.000000	65.286588  
3281.000000	65.267324  
3280.000000	65.244674  
3279.000000	65.219259  
3278.000000	65.191698  
3277.000000	65.162539  
3276.000000	65.132641  
3275.000000	65.103673  
3274.000000	65.078139  
3273.000000	65.058970  
3272.000000	65.049099  
3271.000000	65.050816  
3270.000000	65.064835  
3269.000000	65.089821  
3268.000000	65.122461  
3267.000000	65.157985  
3266.000000	65.191221  
3265.000000	65.217566  
3264.000000	65.234255  
3263.000000	65.240669  
3262.000000	65.238475  
3261.000000	65.231156  
3260.000000	65.222549  
3259.000000	65.215754  
3258.000000	65.212202  
3257.000000	65.211486  
3256.000000	65.211343  
3255.000000	65.208649  
3254.000000	65.200471  
3253.000000	65.185284  
3252.000000	65.163540  
3251.000000	65.137672  
3250.000000	65.111327  
3249.000000	65.088653  
3248.000000	65.072679  
3247.000000	65.064859  
3246.000000	65.064430  
3245.000000	65.069079  
3244.000000	65.075302  
3243.000000	65.079998  
3242.000000	65.081048  
3241.000000	65.078282  
3240.000000	65.072751  
3239.000000	65.067005  
3238.000000	65.063619  
3237.000000	65.064883  
3236.000000	65.071916  
3235.000000	65.084457  
3234.000000	65.100955  
3233.000000	65.119099  
3232.000000	65.136694  
3231.000000	65.151977  
3230.000000	65.163922  
3229.000000	65.172243  
3228.000000	65.177249  
3227.000000	65.179514  
3226.000000	65.179562  
3225.000000	65.177679  
3224.000000	65.173959  
3223.000000	65.168428  
3222.000000	65.161299  
3221.000000	65.152883  
3220.000000	65.144014  
3219.000000	65.135788  
3218.000000	65.129876  
3217.000000	65.128111  
3216.000000	65.132474  
3215.000000	65.144801  
3214.000000	65.166163  
3213.000000	65.196752  
3212.000000	65.235018  
3211.000000	65.278029  
3210.000000	65.321373  
3209.000000	65.359926  
3208.000000	65.388727  
3207.000000	65.403771  
3206.000000	65.403127  
3205.000000	65.387153  
3204.000000	65.358877  
3203.000000	65.323257  
3202.000000	65.286374  
3201.000000	65.254139  
3200.000000	65.231013  
3199.000000	65.219283  
3198.000000	65.218782  
3197.000000	65.227198  
3196.000000	65.240716  
3195.000000	65.255045  
3194.000000	65.266561  
3193.000000	65.272951  
3192.000000	65.273261  
3191.000000	65.268111  
3190.000000	65.259003  
3189.000000	65.247941  
3188.000000	65.236353  
3187.000000	65.225195  
3186.000000	65.214562  
3185.000000	65.203976  
3184.000000	65.192985  
3183.000000	65.181422  
3182.000000	65.169978  
3181.000000	65.160107  
3180.000000	65.153741  
3179.000000	65.152931  
3178.000000	65.158867  
3177.000000	65.171861  
3176.000000	65.190958  
3175.000000	65.213942  
3174.000000	65.237736  
3173.000000	65.259337  
3172.000000	65.276169  
3171.000000	65.286588  
3170.000000	65.289878  
3169.000000	65.286421  
3168.000000	65.277266  
3167.000000	65.263748  
3166.000000	65.247154  
3165.000000	65.228676  
3164.000000	65.209102  
3163.000000	65.189385  
3162.000000	65.170526  
3161.000000	65.153527  
3160.000000	65.139603  
3159.000000	65.129971  
3158.000000	65.125608  
3157.000000	65.126800  
3156.000000	65.133476  
3155.000000	65.145349  
3154.000000	65.162110  
3153.000000	65.183281  
3152.000000	65.208840  
3151.000000	65.239000  
3150.000000	65.274167  
3149.000000	65.314292  
3148.000000	65.358710  
3147.000000	65.405464  
3146.000000	65.451622  
3145.000000	65.493273  
3144.000000	65.526151  
3143.000000	65.546274  
3142.000000	65.550899  
3141.000000	65.538930  
3140.000000	65.511512  
3139.000000	65.471673  
3138.000000	65.424370  
3137.000000	65.374994  
3136.000000	65.328717  
3135.000000	65.288972  
3134.000000	65.257978  
3133.000000	65.235257  
3132.000000	65.218424  
3131.000000	65.203571  
3130.000000	65.186309  
3129.000000	65.163087  
3128.000000	65.131688  
3127.000000	65.092444  
3126.000000	65.047621  
3125.000000	65.001821  
3124.000000	64.960575  
3123.000000	64.929413  
3122.000000	64.912366  
3121.000000	64.911317  
3120.000000	64.925432  
3119.000000	64.951086  
3118.000000	64.982509  
3117.000000	65.013313  
3116.000000	65.038037  
3115.000000	65.052938  
3114.000000	65.057277  
3113.000000	65.053439  
3112.000000	65.046501  
3111.000000	65.042757  
3110.000000	65.048241  
3109.000000	65.067291  
3108.000000	65.100955  
3107.000000	65.147423  
3106.000000	65.201425  
3105.000000	65.255784  
3104.000000	65.302658  
3103.000000	65.335822  
3102.000000	65.351581  
3101.000000	65.349364  
3100.000000	65.331912  
3099.000000	65.304446  
3098.000000	65.273165  
3097.000000	65.243721  
3096.000000	65.219998  
3095.000000	65.203785  
3094.000000	65.194416  
3093.000000	65.189456  
3092.000000	65.185761  
3091.000000	65.180516  
3090.000000	65.171742  
3089.000000	65.158867  
3088.000000	65.142416  
3087.000000	65.123820  
3086.000000	65.104651  
3085.000000	65.086412  
3084.000000	65.070104  
3083.000000	65.056252  
3082.000000	65.045356  
3081.000000	65.037965  
3080.000000	65.034651  
3079.000000	65.036153  
3078.000000	65.043163  
3077.000000	65.056347  
3076.000000	65.075254  
3075.000000	65.098905  
3074.000000	65.125894  
3073.000000	65.154337  
3072.000000	65.182065  
3071.000000	65.206861  
3070.000000	65.226864  
3069.000000	65.240502  
3068.000000	65.246891  
3067.000000	65.245652  
3066.000000	65.237140  
3065.000000	65.222787  
3064.000000	65.204977  
3063.000000	65.187048  
3062.000000	65.172624  
3061.000000	65.165400  
3060.000000	65.168070  
3059.000000	65.182042  
3058.000000	65.206408  
3057.000000	65.238380  
3056.000000	65.273094  
3055.000000	65.304613  
3054.000000	65.326809  
3053.000000	65.334725  
3052.000000	65.325260  
3051.000000	65.297913  
3050.000000	65.254783  
3049.000000	65.200185  
3048.000000	65.140128  
3047.000000	65.081310  
3046.000000	65.030169  
3045.000000	64.991950  
3044.000000	64.970231  
3043.000000	64.966607  
3042.000000	64.980530  
3041.000000	65.009593  
3040.000000	65.050053  
3039.000000	65.097236  
3038.000000	65.146136  
3037.000000	65.191960  
3036.000000	65.230512  
3035.000000	65.258765  
3034.000000	65.275073  
3033.000000	65.279364  
3032.000000	65.273284  
3031.000000	65.259575  
3030.000000	65.242123  
3029.000000	65.224695  
3028.000000	65.210628  
3027.000000	65.201783  
3026.000000	65.198731  
3025.000000	65.200233  
3024.000000	65.204191  
3023.000000	65.207767  
3022.000000	65.208387  
3021.000000	65.204167  
3020.000000	65.194487  
3019.000000	65.179991  
3018.000000	65.162158  
3017.000000	65.143132  
3016.000000	65.124821  
3015.000000	65.108990  
3014.000000	65.096735  
3013.000000	65.088725  
3012.000000	65.085291  
3011.000000	65.086483  
3010.000000	65.092110  
3009.000000	65.101599  
3008.000000	65.114164  
3007.000000	65.127944  
3006.000000	65.140485  
3005.000000	65.149402  
3004.000000	65.152788  
3003.000000	65.149450  
3002.000000	65.139412  
3001.000000	65.124082  
3000.000000	65.105938  
2999.000000	65.087914  
2998.000000	65.072751  
2997.000000	65.062141  
2996.000000	65.056395  
2995.000000	65.054607  
2994.000000	65.054798  
2993.000000	65.054512  
2992.000000	65.051579  
2991.000000	65.045022  
2990.000000	65.034914  
2989.000000	65.022468  
2988.000000	65.009689  
2987.000000	64.998650  
2986.000000	64.990973  
2985.000000	64.987039  
2984.000000	64.986181  
2983.000000	64.986658  
2982.000000	64.985728  
2981.000000	64.980506  
2980.000000	64.968562  
2979.000000	64.948463  
2978.000000	64.920186  
2977.000000	64.885187  
2976.000000	64.846205  
2975.000000	64.807009  
2974.000000	64.771461  
2973.000000	64.743161  
2972.000000	64.724564  
2971.000000	64.717173  
2970.000000	64.721012  
2969.000000	64.735174  
2968.000000	64.757633  
2967.000000	64.786005  
2966.000000	64.817643  
2965.000000	64.850020  
2964.000000	64.880943  
2963.000000	64.908742  
2962.000000	64.932370  
2961.000000	64.951467  
2960.000000	64.966225  
2959.000000	64.977455  
2958.000000	64.986085  
2957.000000	64.993238  
2956.000000	64.999985  
2955.000000	65.007185  
2954.000000	65.015554  
2953.000000	65.025520  
2952.000000	65.037107  
2951.000000	65.050244  
2950.000000	65.064787  
2949.000000	65.080285  
2948.000000	65.096044  
2947.000000	65.111041  
2946.000000	65.123891  
2945.000000	65.133404  
2944.000000	65.138173  
2943.000000	65.137195  
2942.000000	65.129756  
2941.000000	65.116286  
2940.000000	65.097808  
2939.000000	65.075993  
2938.000000	65.052771  
2937.000000	65.030336  
2936.000000	65.010499  
2935.000000	64.994740  
2934.000000	64.983701  
2933.000000	64.977169  
2932.000000	64.974141  
2931.000000	64.973044  
2930.000000	64.971709  
2929.000000	64.967846  
2928.000000	64.959144  
2927.000000	64.943695  
2926.000000	64.920258  
2925.000000	64.888572  
2924.000000	64.849567  
2923.000000	64.805483  
2922.000000	64.759564  
2921.000000	64.715743  
2920.000000	64.677953  
2919.000000	64.649939  
2918.000000	64.634180  
2917.000000	64.632201  
2916.000000	64.644002  
2915.000000	64.668369  
2914.000000	64.703035  
2913.000000	64.744806  
2912.000000	64.790081  
2911.000000	64.835238  
2910.000000	64.876556  
2909.000000	64.911246  
2908.000000	64.937162  
2907.000000	64.953494  
2906.000000	64.960789  
2905.000000	64.960575  
2904.000000	64.954996  
2903.000000	64.946603  
2902.000000	64.937829  
2901.000000	64.930343  
2900.000000	64.924669  
2899.000000	64.920520  
2898.000000	64.917039  
2897.000000	64.912962  
2896.000000	64.907264  
2895.000000	64.899754  
2894.000000	64.891314  
2893.000000	64.883637  
2892.000000	64.879059  
2891.000000	64.879608  
2890.000000	64.886617  
2889.000000	64.899992  
2888.000000	64.918112  
2887.000000	64.937996  
2886.000000	64.956140  
2885.000000	64.969086  
2884.000000	64.974641  
2883.000000	64.972424  
2882.000000	64.963984  
2881.000000	64.952683  
2880.000000	64.942717  
2879.000000	64.938020  
2878.000000	64.941596  
2877.000000	64.954853  
2876.000000	64.977216  
2875.000000	65.006470  
2874.000000	65.039539  
2873.000000	65.073251  
2872.000000	65.105175  
2871.000000	65.133690  
2870.000000	65.158152  
2869.000000	65.178179  
2868.000000	65.193557  
2867.000000	65.203380  
2866.000000	65.206050  
2865.000000	65.199565  
2864.000000	65.182256  
2863.000000	65.153670  
2862.000000	65.115499  
2861.000000	65.071725  
2860.000000	65.028381  
2859.000000	64.992237  
2858.000000	64.969849  
2857.000000	64.965534  
2856.000000	64.980435  
2855.000000	65.011787  
2854.000000	65.053725  
2853.000000	65.098094  
2852.000000	65.136528  
2851.000000	65.161824  
2850.000000	65.169763  
2849.000000	65.159702  
2848.000000	65.134549  
2847.000000	65.099954  
2846.000000	65.062880  
2845.000000	65.030241  
2844.000000	65.007305  
2843.000000	64.997363  
2842.000000	65.000677  
2841.000000	65.015482  
2840.000000	65.037703  
2839.000000	65.062451  
2838.000000	65.084648  
2837.000000	65.099954  
2836.000000	65.105605  
2835.000000	65.100765  
2834.000000	65.086936  
2833.000000	65.067338  
2832.000000	65.046405  
2831.000000	65.028810  
2830.000000	65.018534  
2829.000000	65.018200  
2828.000000	65.028476  
2827.000000	65.048098  
2826.000000	65.074396  
2825.000000	65.103983  
2824.000000	65.133762  
2823.000000	65.161442  
2822.000000	65.185999  
2821.000000	65.207409  
2820.000000	65.226340  
2819.000000	65.243506  
2818.000000	65.259194  
2817.000000	65.272855  
2816.000000	65.283465  
2815.000000	65.289545  
2814.000000	65.290284  
2813.000000	65.285611  
2812.000000	65.276384  
2811.000000	65.264201  
2810.000000	65.251278  
2809.000000	65.239953  
2808.000000	65.232205  
2807.000000	65.229344  
2806.000000	65.231823  
2805.000000	65.239238  
2804.000000	65.250420  
2803.000000	65.263915  
2802.000000	65.278029  
2801.000000	65.291070  
2800.000000	65.301537  
2799.000000	65.308260  
2798.000000	65.310454  
2797.000000	65.307974  
2796.000000	65.301442  
2795.000000	65.292119  
2794.000000	65.281724  
2793.000000	65.272307  
2792.000000	65.265870  
2791.000000	65.264010  
2790.000000	65.267539  
2789.000000	65.276503  
2788.000000	65.290188  
2787.000000	65.307116  
2786.000000	65.325427  
2785.000000	65.342903  
2784.000000	65.357542  
2783.000000	65.367579  
2782.000000	65.372252  
2781.000000	65.371608  
2780.000000	65.367007  
2779.000000	65.360689  
2778.000000	65.355229  
2777.000000	65.353322  
2776.000000	65.356755  
2775.000000	65.366220  
2774.000000	65.380549  
2773.000000	65.397214  
2772.000000	65.412616  
2771.000000	65.422844  
2770.000000	65.424847  
2769.000000	65.417242  
2768.000000	65.400695  
2767.000000	65.377879  
2766.000000	65.352892  
2765.000000	65.330314  
2764.000000	65.314102  
2763.000000	65.306591  
2762.000000	65.308237  
2761.000000	65.317344  
2760.000000	65.330958  
2759.000000	65.345358  
2758.000000	65.357112  
2757.000000	65.363717  
2756.000000	65.364098  
2755.000000	65.358757  
2754.000000	65.349197  
2753.000000	65.337681  
2752.000000	65.326285  
2751.000000	65.316772  
2750.000000	65.309929  
2749.000000	65.305685  
2748.000000	65.303492  
2747.000000	65.302252  
2746.000000	65.300822  
2745.000000	65.298247  
2744.000000	65.293955  
2743.000000	65.287995  
2742.000000	65.280890  
2741.000000	65.273404  
2740.000000	65.266275  
2739.000000	65.260195  
2738.000000	65.255761  
2737.000000	65.253162  
2736.000000	65.252351  
2735.000000	65.253090  
2734.000000	65.255188  
2733.000000	65.258669  
2732.000000	65.263843  
2731.000000	65.270948  
2730.000000	65.280508  
2729.000000	65.292668  
2728.000000	65.307545  
2727.000000	65.324926  
2726.000000	65.344405  
2725.000000	65.365147  
2724.000000	65.386295  
2723.000000	65.407037  
2722.000000	65.426564  
2721.000000	65.444374  
2720.000000	65.459656  
2719.000000	65.471625  
2718.000000	65.479111  
2717.000000	65.480995  
2716.000000	65.476131  
2715.000000	65.463757  
2714.000000	65.443801  
2713.000000	65.417098  
2712.000000	65.385532  
2711.000000	65.351867  
2710.000000	65.319466  
2709.000000	65.291690  
2708.000000	65.271592  
2707.000000	65.261220  
2706.000000	65.261435  
2705.000000	65.271496  
2704.000000	65.289378  
2703.000000	65.312099  
2702.000000	65.336060  
2701.000000	65.357804  
2700.000000	65.374422  
2699.000000	65.384197  
2698.000000	65.386581  
2697.000000	65.382194  
2696.000000	65.372586  
2695.000000	65.359640  
2694.000000	65.345478  
2693.000000	65.331959  
2692.000000	65.320491  
2691.000000	65.311956  
2690.000000	65.306615  
2689.000000	65.304279  
2688.000000	65.304398  
2687.000000	65.306210  
2686.000000	65.308785  
2685.000000	65.311145  
2684.000000	65.312194  
2683.000000	65.311121  
2682.000000	65.307140  
2681.000000	65.299749  
2680.000000	65.288805  
2679.000000	65.274548  
2678.000000	65.257692  
2677.000000	65.239143  
2676.000000	65.220141  
2675.000000	65.202069  
2674.000000	65.186476  
2673.000000	65.175175  
2672.000000	65.169596  
2671.000000	65.170764  
2670.000000	65.178871  
2669.000000	65.193009  
2668.000000	65.211248  
2667.000000	65.230751  
2666.000000	65.248560  
2665.000000	65.261960  
2664.000000	65.269446  
2663.000000	65.270948  
2662.000000	65.267848  
2661.000000	65.262436  
2660.000000	65.257382  
2659.000000	65.254831  
2658.000000	65.255808  
2657.000000	65.259909  
2656.000000	65.265512  
2655.000000	65.270113  
2654.000000	65.271306  
2653.000000	65.267324  
2652.000000	65.257501  
2651.000000	65.242624  
2650.000000	65.224170  
2649.000000	65.204310  
2648.000000	65.184974  
2647.000000	65.167760  
2646.000000	65.153741  
2645.000000	65.143656  
2644.000000	65.138149  
2643.000000	65.137743  
2642.000000	65.143108  
2641.000000	65.154719  
2640.000000	65.172863  
2639.000000	65.197134  
2638.000000	65.226268  
2637.000000	65.258097  
2636.000000	65.289759  
2635.000000	65.317940  
2634.000000	65.339565  
2633.000000	65.352201  
2632.000000	65.354609  
2631.000000	65.347027  
2630.000000	65.331077  
2629.000000	65.309667  
2628.000000	65.286135  
2627.000000	65.264105  
2626.000000	65.246438  
2625.000000	65.235257  
2624.000000	65.231299  
2623.000000	65.234065  
2622.000000	65.241885  
2621.000000	65.252447  
2620.000000	65.263271  
2619.000000	65.272235  
2618.000000	65.278220  
2617.000000	65.280795  
2616.000000	65.280485  
2615.000000	65.278434  
2614.000000	65.276193  
2613.000000	65.275025  
2612.000000	65.275931  
2611.000000	65.279459  
2610.000000	65.285491  
2609.000000	65.293574  
2608.000000	65.302753  
2607.000000	65.311932  
2606.000000	65.319705  
2605.000000	65.324592  
2604.000000	65.325307  
2603.000000	65.320920  
2602.000000	65.311002  
2601.000000	65.295863  
2600.000000	65.276741  
2599.000000	65.255570  
2598.000000	65.234875  
2597.000000	65.216994  
2596.000000	65.203452  
2595.000000	65.194702  
2594.000000	65.190005  
2593.000000	65.187549  
2592.000000	65.184974  
2591.000000	65.180015  
2590.000000	65.171241  
2589.000000	65.158796  
2588.000000	65.144157  
2587.000000	65.129995  
2586.000000	65.119361  
2585.000000	65.114903  
2584.000000	65.118050  
2583.000000	65.128445  
2582.000000	65.144109  
2581.000000	65.161871  
2580.000000	65.178155  
2579.000000	65.189790  
2578.000000	65.194725  
2577.000000	65.192413  
2576.000000	65.183830  
2575.000000	65.170836  
2574.000000	65.155863  
2573.000000	65.141224  
2572.000000	65.128731  
2571.000000	65.119528  
2570.000000	65.113973  
2569.000000	65.111970  
2568.000000	65.113186  
2567.000000	65.117144  
2566.000000	65.123414  
2565.000000	65.131545  
2564.000000	65.141057  
2563.000000	65.151357  
2562.000000	65.162062  
2561.000000	65.172719  
2560.000000	65.183091  
2559.000000	65.193271  
2558.000000	65.203452  
2557.000000	65.213751  
2556.000000	65.224051  
2555.000000	65.234136  
2554.000000	65.243268  
2553.000000	65.250396  
2552.000000	65.254592  
2551.000000	65.255117  
2550.000000	65.251803  
2549.000000	65.244960  
2548.000000	65.235328  
2547.000000	65.223789  
2546.000000	65.211224  
2545.000000	65.198159  
2544.000000	65.184879  
2543.000000	65.171527  
2542.000000	65.158224  
2541.000000	65.145516  
2540.000000	65.134406  
2539.000000	65.126085  
2538.000000	65.121841  
2537.000000	65.122342  
2536.000000	65.127325  
2535.000000	65.135717  
2534.000000	65.145754  
2533.000000	65.155529  
2532.000000	65.163493  
2531.000000	65.169215  
2530.000000	65.173387  
2529.000000	65.177893  
2528.000000	65.184974  
2527.000000	65.196514  
2526.000000	65.213108  
2525.000000	65.233516  
2524.000000	65.254831  
2523.000000	65.273046  
2522.000000	65.284252  
2521.000000	65.285730  
2520.000000	65.277075  
2519.000000	65.260434  
2518.000000	65.240359  
2517.000000	65.222644  
2516.000000	65.212750  
2515.000000	65.214538  
2514.000000	65.228891  
2513.000000	65.253734  
2512.000000	65.283989  
2511.000000	65.313124  
2510.000000	65.334773  
2509.000000	65.344119  
2508.000000	65.339612  
2507.000000	65.323090  
2506.000000	65.299415  
2505.000000	65.275049  
2504.000000	65.256333  
2503.000000	65.247678  
2502.000000	65.250515  
2501.000000	65.262937  
2500.000000	65.280532  
2499.000000	65.297770  
2498.000000	65.309596  
2497.000000	65.312862  
2496.000000	65.307044  
2495.000000	65.294313  
2494.000000	65.278458  
2493.000000	65.264010  
2492.000000	65.254664  
2491.000000	65.252614  
2490.000000	65.257954  
2489.000000	65.268921  
2488.000000	65.283012  
2487.000000	65.297484  
2486.000000	65.310406  
2485.000000	65.320706  
2484.000000	65.328001  
2483.000000	65.332412  
2482.000000	65.334057  
2481.000000	65.332794  
2480.000000	65.328383  
2479.000000	65.320348  
2478.000000	65.308547  
2477.000000	65.293002  
2476.000000	65.274262  
2475.000000	65.253210  
2474.000000	65.231037  
2473.000000	65.209197  
2472.000000	65.189266  
2471.000000	65.172934  
2470.000000	65.161776  
2469.000000	65.156936  
2468.000000	65.158820  
2467.000000	65.166878  
2466.000000	65.179681  
2465.000000	65.194773  
2464.000000	65.209269  
2463.000000	65.220141  
2462.000000	65.225458  
2461.000000	65.224623  
2460.000000	65.218901  
2459.000000	65.210986  
2458.000000	65.204477  
2457.000000	65.203142  
2456.000000	65.209770  
2455.000000	65.225219  
2454.000000	65.248274  
2453.000000	65.276288  
2452.000000	65.305519  
2451.000000	65.332198  
2450.000000	65.352988  
2449.000000	65.365529  
2448.000000	65.368843  
2447.000000	65.363430  
2446.000000	65.351057  
2445.000000	65.334391  
2444.000000	65.316987  
2443.000000	65.302538  
2442.000000	65.294790  
2441.000000	65.296673  
2440.000000	65.310263  
2439.000000	65.335679  
2438.000000	65.371155  
2437.000000	65.412425  
2436.000000	65.453648  
2435.000000	65.487766  
2434.000000	65.507698  
2433.000000	65.507483  
2432.000000	65.483593  
2431.000000	65.435647  
2430.000000	65.366315  
2429.000000	65.281605  
2428.000000	65.189647  
2427.000000	65.099835  
2426.000000	65.021514  
2425.000000	64.962649  
2424.000000	64.928841  
2423.000000	64.922261  
2422.000000	64.941525  
2421.000000	64.981627  
2420.000000	65.034914  
2419.000000	65.092206  
2418.000000	65.144610  
2417.000000	65.184712  
2416.000000	65.207839  
2415.000000	65.212893  
2414.000000	65.202236  
2413.000000	65.181112  
2412.000000	65.156340  
2411.000000	65.134644  
2410.000000	65.121269  
2409.000000	65.119290  
2408.000000	65.128993  
2407.000000	65.148496  
2406.000000	65.174365  
2405.000000	65.202569  
2404.000000	65.229582  
2403.000000	65.252995  
2402.000000	65.271878  
2401.000000	65.286231  
2400.000000	65.297245  
2399.000000	65.306091  
2398.000000	65.314173  
2397.000000	65.322589  
2396.000000	65.331983  
2395.000000	65.342330  
2394.000000	65.353202  
2393.000000	65.364170  
2392.000000	65.374493  
2391.000000	65.383338  
2390.000000	65.389895  
2389.000000	65.393567  
2388.000000	65.394544  
2387.000000	65.393638  
2386.000000	65.392374  
2385.000000	65.392374  
2384.000000	65.395259  
2383.000000	65.401983  
2382.000000	65.412354  
2381.000000	65.424871  
2380.000000	65.436959  
2379.000000	65.445566  
2378.000000	65.447998  
2377.000000	65.442728  
2376.000000	65.429830  
2375.000000	65.411114  
2374.000000	65.389728  
2373.000000	65.369391  
2372.000000	65.353631  
2371.000000	65.344715  
2370.000000	65.343117  
2369.000000	65.347647  
2368.000000	65.355801  
2367.000000	65.364575  
2366.000000	65.371203  
2365.000000	65.373754  
2364.000000	65.371561  
2363.000000	65.365052  
2362.000000	65.355372  
2361.000000	65.343999  
2360.000000	65.332293  
2359.000000	65.321207  
2358.000000	65.311193  
2357.000000	65.302681  
2356.000000	65.295958  
2355.000000	65.291404  
2354.000000	65.289568  
2353.000000	65.290927  
2352.000000	65.295648  
2351.000000	65.303230  
2350.000000	65.312767  
2349.000000	65.322875  
2348.000000	65.332102  
2347.000000	65.339183  
2346.000000	65.343427  
2345.000000	65.344882  
2344.000000	65.344142  
2343.000000	65.342211  
2342.000000	65.340018  
2341.000000	65.338277  
2340.000000	65.337276  
2339.000000	65.336894  
2338.000000	65.336775  
2337.000000	65.336608  
2336.000000	65.336227  
2335.000000	65.335822  
2334.000000	65.335583  
2333.000000	65.335774  
2332.000000	65.336179  
2331.000000	65.336346  
2330.000000	65.335440  
2329.000000	65.332508  
2328.000000	65.326976  
2327.000000	65.318679  
2326.000000	65.308141  
2325.000000	65.296387  
2324.000000	65.284848  
2323.000000	65.275025  
2322.000000	65.268206  
2321.000000	65.265130  
2320.000000	65.266013  
2319.000000	65.270352  
2318.000000	65.277051  
2317.000000	65.284705  
2316.000000	65.291905  
2315.000000	65.297412  
2314.000000	65.300250  
2313.000000	65.299868  
2312.000000	65.296244  
2311.000000	65.289926  
2310.000000	65.281891  
2309.000000	65.273642  
2308.000000	65.266680  
2307.000000	65.262484  
2306.000000	65.261983  
2305.000000	65.265536  
2304.000000	65.272831  
2303.000000	65.282917  
2302.000000	65.294408  
2301.000000	65.305685  
2300.000000	65.315246  
2299.000000	65.321707  
2298.000000	65.324163  
2297.000000	65.322113  
2296.000000	65.315914  
2295.000000	65.306305  
2294.000000	65.294957  
2293.000000	65.283894  
2292.000000	65.275621  
2291.000000	65.272355  
2290.000000	65.275883  
2289.000000	65.287137  
2288.000000	65.305590  
2287.000000	65.329432  
2286.000000	65.355706  
2285.000000	65.380954  
2284.000000	65.401649  
2283.000000	65.415024  
2282.000000	65.419721  
2281.000000	65.415835  
2280.000000	65.404796  
2279.000000	65.388846  
2278.000000	65.370440  
2277.000000	65.351653  
2276.000000	65.333771  
2275.000000	65.317201  
2274.000000	65.301847  
2273.000000	65.287351  
2272.000000	65.273761  
2271.000000	65.261721  
2270.000000	65.252423  
2269.000000	65.247273  
2268.000000	65.247368  
2267.000000	65.252971  
2266.000000	65.262913  
2265.000000	65.274953  
2264.000000	65.285968  
2263.000000	65.293002  
2262.000000	65.293812  
2261.000000	65.288066  
2260.000000	65.277266  
2259.000000	65.264844  
2258.000000	65.255260  
2257.000000	65.252828  
2256.000000	65.260434  
2255.000000	65.278816  
2254.000000	65.306067  
2253.000000	65.338182  
2252.000000	65.370011  
2251.000000	65.396356  
2250.000000	65.413308  
2249.000000	65.418934  
2248.000000	65.413641  
2247.000000	65.400052  
2246.000000	65.382051  
2245.000000	65.363812  
2244.000000	65.348768  
2243.000000	65.339159  
2242.000000	65.335345  
2241.000000	65.336298  
2240.000000	65.339779  
2239.000000	65.343260  
2238.000000	65.344595  
2237.000000	65.342521  
2236.000000	65.337252  
2235.000000	65.329933  
2234.000000	65.323019  
2233.000000	65.319347  
2232.000000	65.321588  
2231.000000	65.331482  
2230.000000	65.349173  
2229.000000	65.372967  
2228.000000	65.399527  
2227.000000	65.424585  
2226.000000	65.443682  
2225.000000	65.453481  
2224.000000	65.452361  
2223.000000	65.440917  
2222.000000	65.421748  
2221.000000	65.398812  
2220.000000	65.376353  
2219.000000	65.358138  
2218.000000	65.346717  
2217.000000	65.342879  
2216.000000	65.346026  
2215.000000	65.353941  
2214.000000	65.364003  
2213.000000	65.373110  
2212.000000	65.378832  
2211.000000	65.379381  
2210.000000	65.373754  
2209.000000	65.362167  
2208.000000	65.345454  
2207.000000	65.325522  
2206.000000	65.304851  
2205.000000	65.286231  
2204.000000	65.272331  
2203.000000	65.265035  
2202.000000	65.265107  
2201.000000	65.271663  
2200.000000	65.282583  
2199.000000	65.295004  
2198.000000	65.305948  
2197.000000	65.313100  
2196.000000	65.315485  
2195.000000	65.313291  
2194.000000	65.307927  
2193.000000	65.301275  
2192.000000	65.295124  
2191.000000	65.290546  
2190.000000	65.287709  
2189.000000	65.286016  
2188.000000	65.284252  
2187.000000	65.281295  
2186.000000	65.276432  
2185.000000	65.269827  
2184.000000	65.262484  
2183.000000	65.255737  
2182.000000	65.250849  
2181.000000	65.248465  
2180.000000	65.248513  
2179.000000	65.250039  
2178.000000	65.251827  
2177.000000	65.252399  
2176.000000	65.250825  
2175.000000	65.246772  
2174.000000	65.240740  
2173.000000	65.233778  
2172.000000	65.227270  
2171.000000	65.222382  
2170.000000	65.219783  
2169.000000	65.219354  
2168.000000	65.220046  
2167.000000	65.220212  
2166.000000	65.218043  
2165.000000	65.212249  
2164.000000	65.202236  
2163.000000	65.188622  
2162.000000	65.173149  
2161.000000	65.158271  
2160.000000	65.146660  
2159.000000	65.140342  
2158.000000	65.140652  
2157.000000	65.147352  
2156.000000	65.158987  
2155.000000	65.172886  
2154.000000	65.186047  
2153.000000	65.195488  
2152.000000	65.198874  
2151.000000	65.194845  
2150.000000	65.183424  
2149.000000	65.165638  
2148.000000	65.143418  
2147.000000	65.119099  
2146.000000	65.095114  
2145.000000	65.073704  
2144.000000	65.056729  
2143.000000	65.045690  
2142.000000	65.041708  
2141.000000	65.045332  
2140.000000	65.056705  
2139.000000	65.075182  
2138.000000	65.099573  
2137.000000	65.127730  
2136.000000	65.157079  
2135.000000	65.184473  
2134.000000	65.207171  
2133.000000	65.223050  
2132.000000	65.231275  
2131.000000	65.232491  
2130.000000	65.228724  
2129.000000	65.223073  
2128.000000	65.218782  
2127.000000	65.218710  
2126.000000	65.224170  
2125.000000	65.234756  
2124.000000	65.248203  
2123.000000	65.261077  
2122.000000	65.269827  
2121.000000	65.271997  
2120.000000	65.267014  
2119.000000	65.256547  
2118.000000	65.244150  
2117.000000	65.234303  
2116.000000	65.231490  
2115.000000	65.238809  
2114.000000	65.257024  
2113.000000	65.284061  
2112.000000	65.315818  
2111.000000	65.346956  
2110.000000	65.372085  
2109.000000	65.386795  
2108.000000	65.388894  
2107.000000	65.378642  
2106.000000	65.358638  
2105.000000	65.333151  
2104.000000	65.306758  
2103.000000	65.283584  
2102.000000	65.266823  
2101.000000	65.257549  
2100.000000	65.255260  
2099.000000	65.257573  
2098.000000	65.261125  
2097.000000	65.262436  
2096.000000	65.258669  
2095.000000	65.248727  
2094.000000	65.233492  
2093.000000	65.215682  
2092.000000	65.199422  
2091.000000	65.189313  
2090.000000	65.189456  
2089.000000	65.202474  
2088.000000	65.228843  
2087.000000	65.267062  
2086.000000	65.313792  
2085.000000	65.364861  
2084.000000	65.415668  
2083.000000	65.462136  
2082.000000	65.500569  
2081.000000	65.528249  
2080.000000	65.542912  
2079.000000	65.542554  
2078.000000	65.526080  
2077.000000	65.493178  
2076.000000	65.445518  
2075.000000	65.387153  
2074.000000	65.324616  
2073.000000	65.266585  
2072.000000	65.221834  
2071.000000	65.197753  
2070.000000	65.198135  
2069.000000	65.222215  
2068.000000	65.264415  
2067.000000	65.315532  
2066.000000	65.364742  
2065.000000	65.402221  
2064.000000	65.421414  
2063.000000	65.420722  
2062.000000	65.403485  
2061.000000	65.376806  
2060.000000	65.349316  
2059.000000	65.329051  
2058.000000	65.320992  
2057.000000	65.326237  
2056.000000	65.342164  
2055.000000	65.363216  
2054.000000	65.383458  
2053.000000	65.397357  
2052.000000	65.402054  
2051.000000	65.397143  
2050.000000	65.384411  
2049.000000	65.367174  
2048.000000	65.348720  
2047.000000	65.331697  
2046.000000	65.317273  
2045.000000	65.305233  
2044.000000	65.294361  
2043.000000	65.283393  
2042.000000	65.271639  
2041.000000	65.259385  
2040.000000	65.247917  
2039.000000	65.239143  
2038.000000	65.234851  
2037.000000	65.236425  
2036.000000	65.244245  
2035.000000	65.257573  
2034.000000	65.274572  
2033.000000	65.293288  
2032.000000	65.311884  
2031.000000	65.329098  
2030.000000	65.344285  
2029.000000	65.357589  
2028.000000	65.369677  
2027.000000	65.381526  
2026.000000	65.393924  
2025.000000	65.407347  
2024.000000	65.421843  
2023.000000	65.437197  
2022.000000	65.452909  
2021.000000	65.468573  
2020.000000	65.483593  
2019.000000	65.497541  
2018.000000	65.509605  
2017.000000	65.518903  
2016.000000	65.524172  
2015.000000	65.524196  
2014.000000	65.517783  
2013.000000	65.504145  
2012.000000	65.483140  
2011.000000	65.455579  
2010.000000	65.423226  
2009.000000	65.388417  
2008.000000	65.353989  
2007.000000	65.322494  
2006.000000	65.295910  
2005.000000	65.275216  
2004.000000	65.260291  
2003.000000	65.250229  
2002.000000	65.243530  
2001.000000	65.238928  
2000.000000	65.235137  
1999.000000	65.232014  
1998.000000	65.229940  
1997.000000	65.230083  
1996.000000	65.233588  
1995.000000	65.241193  
1994.000000	65.252780  
1993.000000	65.267181  
1992.000000	65.282106  
1991.000000	65.294814  
1990.000000	65.302515  
1989.000000	65.303158  
1988.000000	65.295958  
1987.000000	65.281581  
1986.000000	65.262150  
1985.000000	65.241003  
1984.000000	65.221786  
1983.000000	65.208101  
1982.000000	65.202546  
1981.000000	65.206718  
1980.000000	65.220475  
1979.000000	65.242242  
1978.000000	65.269136  
1977.000000	65.297651  
1976.000000	65.324234  
1975.000000	65.345907  
1974.000000	65.360569  
1973.000000	65.367460  
1972.000000	65.366959  
1971.000000	65.360379  
1970.000000	65.349197  
1969.000000	65.335178  
1968.000000	65.319728  
1967.000000	65.304040  
1966.000000	65.288996  
1965.000000	65.275406  
1964.000000	65.263867  
1963.000000	65.255069  
1962.000000	65.249633  
1961.000000	65.248012  
1960.000000	65.250396  
1959.000000	65.256500  
1958.000000	65.265607  
1957.000000	65.276575  
1956.000000	65.287947  
1955.000000	65.298199  
1954.000000	65.306162  
1953.000000	65.311098  
1952.000000	65.312838  
1951.000000	65.311813  
1950.000000	65.308713  
1949.000000	65.304517  
1948.000000	65.300273  
1947.000000	65.296506  
1946.000000	65.293383  
1945.000000	65.290570  
1944.000000	65.287494  
1943.000000	65.283513  
1942.000000	65.278005  
1941.000000	65.270805  
1940.000000	65.262317  
1939.000000	65.253615  
1938.000000	65.246033  
1937.000000	65.241122  
1936.000000	65.240025  
1935.000000	65.243363  
1934.000000	65.251088  
1933.000000	65.262603  
1932.000000	65.277028  
1931.000000	65.293431  
1930.000000	65.310931  
1929.000000	65.328884  
1928.000000	65.346646  
1927.000000	65.363645  
1926.000000	65.379071  
1925.000000	65.391993  
1924.000000	65.401172  
1923.000000	65.405440  
1922.000000	65.403723  
1921.000000	65.395545  
1920.000000	65.380811  
1919.000000	65.360355  
1918.000000	65.335631  
1917.000000	65.308570  
1916.000000	65.281438  
1915.000000	65.256619  
1914.000000	65.236401  
1913.000000	65.222644  
1912.000000	65.216612  
1911.000000	65.218734  
1910.000000	65.228438  
1909.000000	65.244102  
1908.000000	65.263152  
1907.000000	65.282416  
1906.000000	65.298748  
1905.000000	65.309596  
1904.000000	65.313792  
1903.000000	65.311455  
1902.000000	65.304207  
1901.000000	65.294694  
1900.000000	65.285968  
1899.000000	65.280532  
1898.000000	65.279984  
1897.000000	65.284419  
1896.000000	65.292716  
1895.000000	65.302658  
1894.000000	65.311813  
1893.000000	65.318226  
1892.000000	65.320849  
1891.000000	65.319728  
1890.000000	65.315961  
1889.000000	65.311145  
1888.000000	65.306782  
1887.000000	65.303945  
1886.000000	65.302705  
1885.000000	65.302491  
1884.000000	65.302324  
1883.000000	65.301132  
1882.000000	65.298318  
1881.000000	65.293860  
1880.000000	65.288615  
1879.000000	65.283894  
1878.000000	65.281248  
1877.000000	65.281820  
1876.000000	65.286064  
1875.000000	65.293574  
1874.000000	65.303349  
1873.000000	65.313744  
1872.000000	65.323185  
1871.000000	65.330386  
1870.000000	65.334653  
1869.000000	65.336132  
1868.000000	65.335345  
1867.000000	65.333199  
1866.000000	65.330481  
1865.000000	65.327692  
1864.000000	65.324974  
1863.000000	65.322160  
1862.000000	65.318965  
1861.000000	65.315175  
1860.000000	65.310668  
1859.000000	65.305590  
1858.000000	65.300345  
1857.000000	65.295338  
1856.000000	65.290999  
1855.000000	65.287470  
1854.000000	65.284800  
1853.000000	65.282917  
1852.000000	65.281677  
1851.000000	65.280961  
1850.000000	65.280842  
1849.000000	65.281558  
1848.000000	65.283465  
1847.000000	65.286993  
1846.000000	65.292477  
1845.000000	65.300083  
1844.000000	65.309739  
1843.000000	65.320897  
1842.000000	65.332746  
1841.000000	65.344119  
1840.000000	65.353918  
1839.000000	65.361022  
1838.000000	65.364408  
1837.000000	65.363430  
1836.000000	65.357780  
1835.000000	65.347623  
1834.000000	65.333509  
1833.000000	65.316510  
1832.000000	65.297937  
1831.000000	65.279507  
1830.000000	65.263032  
1829.000000	65.250134  
1828.000000	65.242171  
1827.000000	65.240097  
1826.000000	65.244197  
1825.000000	65.254163  
1824.000000	65.269088  
1823.000000	65.287733  
1822.000000	65.308594  
1821.000000	65.330243  
1820.000000	65.351366  
1819.000000	65.371012  
1818.000000	65.388226  
1817.000000	65.402293  
1816.000000	65.412473  
1815.000000	65.418100  
1814.000000	65.418624  
1813.000000	65.414047  
1812.000000	65.404701  
1811.000000	65.391612  
1810.000000	65.376019  
1809.000000	65.359544  
1808.000000	65.343523  
1807.000000	65.329098  
1806.000000	65.316820  
1805.000000	65.306949  
1804.000000	65.299510  
1803.000000	65.294361  
1802.000000	65.291476  
1801.000000	65.290856  
1800.000000	65.292453  
1799.000000	65.295958  
1798.000000	65.300655  
1797.000000	65.305280  
1796.000000	65.308427  
1795.000000	65.308547  
1794.000000	65.304875  
1793.000000	65.297436  
1792.000000	65.287446  
1791.000000	65.276813  
1790.000000	65.267848  
1789.000000	65.262413  
1788.000000	65.261292  
1787.000000	65.264034  
1786.000000	65.269112  
1785.000000	65.274310  
1784.000000	65.277481  
1783.000000	65.277075  
1782.000000	65.272736  
1781.000000	65.265178  
1780.000000	65.256190  
1779.000000	65.247774  
1778.000000	65.241765  
1777.000000	65.239214  
1776.000000	65.240240  
1775.000000	65.244078  
1774.000000	65.249514  
1773.000000	65.255284  
1772.000000	65.260648  
1771.000000	65.265417  
1770.000000	65.270137  
1769.000000	65.275645  
1768.000000	65.282750  
1767.000000	65.291976  
1766.000000	65.302968  
1765.000000	65.314769  
1764.000000	65.325808  
1763.000000	65.334224  
1762.000000	65.338158  
1761.000000	65.336275  
1760.000000	65.328001  
1759.000000	65.313673  
1758.000000	65.294528  
1757.000000	65.272569  
1756.000000	65.250205  
1755.000000	65.229701  
1754.000000	65.212917  
1753.000000	65.201091  
1752.000000	65.194272  
1751.000000	65.191555  
1750.000000	65.191006  
1749.000000	65.190386  
1748.000000	65.187287  
1747.000000	65.179681  
1746.000000	65.166378  
1745.000000	65.147447  
1744.000000	65.124440  
1743.000000	65.100049  
1742.000000	65.077662  
1741.000000	65.060448  
1740.000000	65.051102  
1739.000000	65.051031  
1738.000000	65.060162  
1737.000000	65.076947  
1736.000000	65.098714  
1735.000000	65.122318  
1734.000000	65.144777  
1733.000000	65.163636  
1732.000000	65.177249  
1731.000000	65.184926  
1730.000000	65.186667  
1729.000000	65.183424  
1728.000000	65.176081  
1727.000000	65.166401  
1726.000000	65.156531  
1725.000000	65.149188  
1724.000000	65.147352  
1723.000000	65.153837  
1722.000000	65.171003  
1721.000000	65.199184  
1720.000000	65.236353  
1719.000000	65.277743  
1718.000000	65.316772  
1717.000000	65.345978  
1716.000000	65.358805  
1715.000000	65.351080  
1714.000000	65.322375  
1713.000000	65.276241  
1712.000000	65.219688  
1711.000000	65.161609  
1710.000000	65.110969  
1709.000000	65.075016  
1708.000000	65.057969  
1707.000000	65.060520  
1706.000000	65.080118  
1705.000000	65.112543  
1704.000000	65.152740  
1703.000000	65.195989  
1702.000000	65.238809  
1701.000000	65.278768  
1700.000000	65.314650  
1699.000000	65.345263  
1698.000000	65.370130  
1697.000000	65.388703  
1696.000000	65.401101  
1695.000000	65.408039  
1694.000000	65.411090  
1693.000000	65.412616  
1692.000000	65.414857  
1691.000000	65.419769  
1690.000000	65.427875  
1689.000000	65.438246  
1688.000000	65.448355  
1687.000000	65.454864  
1686.000000	65.454649  
1685.000000	65.445709  
1684.000000	65.427923  
1683.000000	65.402984  
1682.000000	65.373826  
1681.000000	65.343856  
1680.000000	65.315699  
1679.000000	65.291166  
1678.000000	65.270662  
1677.000000	65.253853  
1676.000000	65.240263  
1675.000000	65.229773  
1674.000000	65.223002  
1673.000000	65.220999  
1672.000000	65.224599  
1671.000000	65.233969  
1670.000000	65.248155  
1669.000000	65.264916  
1668.000000	65.280413  
1667.000000	65.290498  
1666.000000	65.291690  
1665.000000	65.282034  
1664.000000	65.261793  
1663.000000	65.233469  
1662.000000	65.201497  
1661.000000	65.171170  
1660.000000	65.147495  
1659.000000	65.134334  
1658.000000	65.133333  
1657.000000	65.144062  
1656.000000	65.163898  
1655.000000	65.189003  
1654.000000	65.214967  
1653.000000	65.237808  
1652.000000	65.254831  
1651.000000	65.264940  
1650.000000	65.268731  
1649.000000	65.268182  
1648.000000	65.265607  
1647.000000	65.262913  
1646.000000	65.260839  
1645.000000	65.258908  
1644.000000	65.255427  
1643.000000	65.248155  
1642.000000	65.235042  
1641.000000	65.215134  
1640.000000	65.189027  
1639.000000	65.159201  
1638.000000	65.129399  
1637.000000	65.103936  
1636.000000	65.086531  
1635.000000	65.079498  
1634.000000	65.083050  
1633.000000	65.095281  
1632.000000	65.112709  
1631.000000	65.131163  
1630.000000	65.146899  
1629.000000	65.157365  
1628.000000	65.161418  
1627.000000	65.159559  
1626.000000	65.153360  
1625.000000	65.145063  
1624.000000	65.137100  
1623.000000	65.131330  
1622.000000	65.129089  
1621.000000	65.130519  
1620.000000	65.135216  
1619.000000	65.141725  
1618.000000	65.148210  
1617.000000	65.152645  
1616.000000	65.153074  
1615.000000	65.148138  
1614.000000	65.137267  
1613.000000	65.120911  
1612.000000	65.100598  
1611.000000	65.078687  
1610.000000	65.057969  
1609.000000	65.041208  
1608.000000	65.030622  
1607.000000	65.027546  
1606.000000	65.031981  
1605.000000	65.042662  
1604.000000	65.057206  
1603.000000	65.072798  
1602.000000	65.086722  
1601.000000	65.096998  
1600.000000	65.102624  
1599.000000	65.103673  
1598.000000	65.101146  
1597.000000	65.096640  
1596.000000	65.091800  
1595.000000	65.087985  
1594.000000	65.085959  
1593.000000	65.086078  
1592.000000	65.088200  
1591.000000	65.091967  
1590.000000	65.096592  
1589.000000	65.101408  
1588.000000	65.105414  
1587.000000	65.107417  
1586.000000	65.106153  
1585.000000	65.100526  
1584.000000	65.089845  
1583.000000	65.074157  
1582.000000	65.054440  
1581.000000	65.032696  
1580.000000	65.011787  
1579.000000	64.994883  
1578.000000	64.984846  
1577.000000	64.983439  
1576.000000	64.991140  
1575.000000	65.006995  
1574.000000	65.028595  
1573.000000	65.052890  
1572.000000	65.076661  
1571.000000	65.096950  
1570.000000	65.111565  
1569.000000	65.119147  
1568.000000	65.119218  
1567.000000	65.111923  
1566.000000	65.097904  
1565.000000	65.077948  
1564.000000	65.053272  
1563.000000	65.025305  
1562.000000	64.995765  
1561.000000	64.966535  
1560.000000	64.939761  
1559.000000	64.917421  
1558.000000	64.901208  
1557.000000	64.892148  
1556.000000	64.890527  
1555.000000	64.895796  
1554.000000	64.906764  
1553.000000	64.921832  
1552.000000	64.939284  
1551.000000	64.957332  
1550.000000	64.974451  
1549.000000	64.989376  
1548.000000	65.001368  
1547.000000	65.010380  
1546.000000	65.016961  
1545.000000	65.022063  
1544.000000	65.026950  
1543.000000	65.033197  
1542.000000	65.041851  
1541.000000	65.053391  
1540.000000	65.067386  
1539.000000	65.082597  
1538.000000	65.097141  
1537.000000	65.108990  
1536.000000	65.116357  
1535.000000	65.118074  
1534.000000	65.114212  
1533.000000	65.105867  
1532.000000	65.095257  
1531.000000	65.084981  
1530.000000	65.077757  
1529.000000	65.075874  
1528.000000	65.080785  
1527.000000	65.092754  
1526.000000	65.111184  
1525.000000	65.134596  
1524.000000	65.160679  
1523.000000	65.186643  
1522.000000	65.209531  
1521.000000	65.226507  
1520.000000	65.235161  
1519.000000	65.234088  
1518.000000	65.222787  
1517.000000	65.202307  
1516.000000	65.175056  
1515.000000	65.144896  
1514.000000	65.116310  
1513.000000	65.093708  
1512.000000	65.080761  
1511.000000	65.079545  
1510.000000	65.090036  
1509.000000	65.110206  
1508.000000	65.136504  
1507.000000	65.164709  
1506.000000	65.190696  
1505.000000	65.211462  
1504.000000	65.225696  
1503.000000	65.233945  
1502.000000	65.237998  
1501.000000	65.240430  
1500.000000	65.243554  
1499.000000	65.248918  
1498.000000	65.256667  
1497.000000	65.265631  
1496.000000	65.273666  
1495.000000	65.278363  
1494.000000	65.277743  
1493.000000	65.271091  
1492.000000	65.258932  
1491.000000	65.243029  
1490.000000	65.225934  
1489.000000	65.210080  
1488.000000	65.197157  
1487.000000	65.187764  
1486.000000	65.181446  
1485.000000	65.176796  
1484.000000	65.172147  
1483.000000	65.165996  
1482.000000	65.157485  
1481.000000	65.146493  
1480.000000	65.133476  
1479.000000	65.119147  
1478.000000	65.104317  
1477.000000	65.089559  
1476.000000	65.075159  
1475.000000	65.061044  
1474.000000	65.046977  
1473.000000	65.032815  
1472.000000	65.018367  
1471.000000	65.003752  
1470.000000	64.989328  
1469.000000	64.976000  
1468.000000	64.964914  
1467.000000	64.957594  
1466.000000	64.955711  
1465.000000	64.960980  
1464.000000	64.974784  
1463.000000	64.997553  
1462.000000	65.028691  
1461.000000	65.066003  
1460.000000	65.105772  
1459.000000	65.143227  
1458.000000	65.172743  
1457.000000	65.189504  
1456.000000	65.190005  
1455.000000	65.173816  
1454.000000	65.143632  
1453.000000	65.105271  
1452.000000	65.066742  
1451.000000	65.036463  
1450.000000	65.021347  
1449.000000	65.025115  
1448.000000	65.047621  
1447.000000	65.084958  
1446.000000	65.130519  
1445.000000	65.176486  
1444.000000	65.215921  
1443.000000	65.243577  
1442.000000	65.257048  
1441.000000	65.256667  
1440.000000	65.245151  
1439.000000	65.226864  
1438.000000	65.206718  
1437.000000	65.189385  
1436.000000	65.178179  
1435.000000	65.174818  
1434.000000	65.178799  
1433.000000	65.188455  
1432.000000	65.200829  
1431.000000	65.212798  
1430.000000	65.221762  
1429.000000	65.225887  
1428.000000	65.224695  
1427.000000	65.219068  
1426.000000	65.210676  
1425.000000	65.201401  
1424.000000	65.192914  
1423.000000	65.186285  
1422.000000	65.181684  
1421.000000	65.178442  
1420.000000	65.175557  
1419.000000	65.171980  
1418.000000	65.167140  
1417.000000	65.161252  
1416.000000	65.155267  
1415.000000	65.150666  
1414.000000	65.148854  
1413.000000	65.150809  
1412.000000	65.156841  
1411.000000	65.166687  
1410.000000	65.179610  
1409.000000	65.194535  
1408.000000	65.210628  
1407.000000	65.227270  
1406.000000	65.244436  
1405.000000	65.262198  
1404.000000	65.280318  
1403.000000	65.297937  
1402.000000	65.313529  
1401.000000	65.324854  
1400.000000	65.329599  
1399.000000	65.325880  
1398.000000	65.312886  
1397.000000	65.291142  
1396.000000	65.262722  
1395.000000	65.230798  
1394.000000	65.199232  
1393.000000	65.171551  
1392.000000	65.150427  
1391.000000	65.137100  
1390.000000	65.131306  
1389.000000	65.131402  
1388.000000	65.135216  
1387.000000	65.140414  
1386.000000	65.145349  
1385.000000	65.149593  
1384.000000	65.154004  
1383.000000	65.160179  
1382.000000	65.169739  
1381.000000	65.183615  
1380.000000	65.201306  
1379.000000	65.220856  
1378.000000	65.238904  
1377.000000	65.251874  
1376.000000	65.256619  
1375.000000	65.251517  
1374.000000	65.237021  
1373.000000	65.215468  
1372.000000	65.190696  
1371.000000	65.167093  
1370.000000	65.148520  
1369.000000	65.137290  
1368.000000	65.133833  
1367.000000	65.136694  
1366.000000	65.143132  
1365.000000	65.149855  
1364.000000	65.153884  
1363.000000	65.153241  
1362.000000	65.147185  
1361.000000	65.136170  
1360.000000	65.121436  
1359.000000	65.104627  
1358.000000	65.087556  
1357.000000	65.071868  
1356.000000	65.059018  
1355.000000	65.050005  
1354.000000	65.045714  
1353.000000	65.046644  
1352.000000	65.052843  
1351.000000	65.064048  
1350.000000	65.079355  
1349.000000	65.097784  
1348.000000	65.117788  
1347.000000	65.138053  
1346.000000	65.157365  
1345.000000	65.175175  
1344.000000	65.191340  
1343.000000	65.206098  
1342.000000	65.219926  
1341.000000	65.233159  
1340.000000	65.245699  
1339.000000	65.256690  
1338.000000	65.264487  
1337.000000	65.266919  
1336.000000	65.261816  
1335.000000	65.247440  
1334.000000	65.223145  
1333.000000	65.189695  
1332.000000	65.149378  
1331.000000	65.105891  
1330.000000	65.063738  
1329.000000	65.027594  
1328.000000	65.001010  
1327.000000	64.986133  
1326.000000	64.982867  
1325.000000	64.989185  
1324.000000	65.001511  
1323.000000	65.015459  
1322.000000	65.027022  
1321.000000	65.033173  
1320.000000	65.032744  
1319.000000	65.026140  
1318.000000	65.015530  
1317.000000	65.003681  
1316.000000	64.993500  
1315.000000	64.987301  
1314.000000	64.986157  
1313.000000	64.989900  
1312.000000	64.997196  
1311.000000	65.006017  
1310.000000	65.014290  
1309.000000	65.020442  
1308.000000	65.023398  
1307.000000	65.022993  
1306.000000	65.019631  
1305.000000	65.014219  
1304.000000	65.007710  
1303.000000	65.000796  
1302.000000	64.993977  
1301.000000	64.987444  
1300.000000	64.981198  
1299.000000	64.975357  
1298.000000	64.970183  
1297.000000	64.966130  
1296.000000	64.963865  
1295.000000	64.963865  
1294.000000	64.966607  
1293.000000	64.972090  
1292.000000	64.979934  
1291.000000	64.989137  
1290.000000	64.998483  
1289.000000	65.006589  
1288.000000	65.012407  
1287.000000	65.015435  
1286.000000	65.015673  
1285.000000	65.014171  
1284.000000	65.012550  
1283.000000	65.013027  
1282.000000	65.017700  
1281.000000	65.028142  
1280.000000	65.044951  
1279.000000	65.067505  
1278.000000	65.093684  
1277.000000	65.120220  
1276.000000	65.143013  
1275.000000	65.158224  
1274.000000	65.162777  
1273.000000	65.155005  
1272.000000	65.135359  
1271.000000	65.106320  
1270.000000	65.072083  
1269.000000	65.037941  
1268.000000	65.009284  
1267.000000	64.990687  
1266.000000	64.984512  
1265.000000	64.990925  
1264.000000	65.007185  
1263.000000	65.028548  
1262.000000	65.048980  
1261.000000	65.062689  
1260.000000	65.065145  
1259.000000	65.053963  
1258.000000	65.029621  
1257.000000	64.995241  
1256.000000	64.956045  
1255.000000	64.917969  
1254.000000	64.887022  
1253.000000	64.867901  
1252.000000	64.863467  
1251.000000	64.874124  
1250.000000	64.898085  
1249.000000	64.931654  
1248.000000	64.969897  
1247.000000	65.007781  
1246.000000	65.040802  
1245.000000	65.065908  
1244.000000	65.081501  
1243.000000	65.087795  
1242.000000	65.086579  
1241.000000	65.080308  
1240.000000	65.072131  
1239.000000	65.064263  
1238.000000	65.058064  
1237.000000	65.053176  
1236.000000	65.048456  
1235.000000	65.041732  
1234.000000	65.030646  
1233.000000	65.013313  
1232.000000	64.989209  
1231.000000	64.959287  
1230.000000	64.926195  
1229.000000	64.893460  
1228.000000	64.864778  
1227.000000	64.843249  
1226.000000	64.830708  
1225.000000	64.827251  
1224.000000	64.831399  
1223.000000	64.840769  
1222.000000	64.852595  
1221.000000	64.864540  
1220.000000	64.875388  
1219.000000	64.884710  
1218.000000	64.893269  
1217.000000	64.901781  
1216.000000	64.911341  
1215.000000	64.922618  
1214.000000	64.936113  
1213.000000	64.951872  
1212.000000	64.969587  
1211.000000	64.989018  
1210.000000	65.009522  
1209.000000	65.030503  
1208.000000	65.050697  
1207.000000	65.068411  
1206.000000	65.081310  
1205.000000	65.086936  
1204.000000	65.083169  
1203.000000	65.068745  
1202.000000	65.043926  
1201.000000	65.010643  
1200.000000	64.972066  
1199.000000	64.932250  
1198.000000	64.895415  
1197.000000	64.865136  
1196.000000	64.843750  
1195.000000	64.832043  
1194.000000	64.829468  
1193.000000	64.834332  
1192.000000	64.844441  
1191.000000	64.857387  
1190.000000	64.871025  
1189.000000	64.883732  
1188.000000	64.894652  
1187.000000	64.903426  
1186.000000	64.909958  
1185.000000	64.914274  
1184.000000	64.916419  
1183.000000	64.916205  
1182.000000	64.913368  
1181.000000	64.907217  
1180.000000	64.897203  
1179.000000	64.882874  
1178.000000	64.864039  
1177.000000	64.841222  
1176.000000	64.815902  
1175.000000	64.790368  
1174.000000	64.767456  
1173.000000	64.750170  
1172.000000	64.741158  
1171.000000	64.742088  
1170.000000	64.753460  
1169.000000	64.774274  
1168.000000	64.802002  
1167.000000	64.833450  
1166.000000	64.865064  
1165.000000	64.893484  
1164.000000	64.915990  
1163.000000	64.930868  
1162.000000	64.937520  
1161.000000	64.936399  
1160.000000	64.928650  
1159.000000	64.915895  
1158.000000	64.899826  
1157.000000	64.882135  
1156.000000	64.864063  
1155.000000	64.846658  
1154.000000	64.830422  
1153.000000	64.815664  
1152.000000	64.802336  
1151.000000	64.790344  
1150.000000	64.779710  
1149.000000	64.770436  
1148.000000	64.762949  
1147.000000	64.758086  
1146.000000	64.757061  
1145.000000	64.761328  
1144.000000	64.772272  
1143.000000	64.790606  
1142.000000	64.815878  
1141.000000	64.846229  
1140.000000	64.878630  
1139.000000	64.909243  
1138.000000	64.934110  
1137.000000	64.950251  
1136.000000	64.956355  
1135.000000	64.953136  
1134.000000	64.943027  
1133.000000	64.929628  
1132.000000	64.916706  
1131.000000	64.907479  
1130.000000	64.903879  
1129.000000	64.906072  
1128.000000	64.912700  
1127.000000	64.921641  
1126.000000	64.930820  
1125.000000	64.938831  
1124.000000	64.945483  
1123.000000	64.951515  
1122.000000	64.958214  
1121.000000	64.966964  
1120.000000	64.978480  
1119.000000	64.992523  
1118.000000	65.007972  
1117.000000	65.022897  
1116.000000	65.035414  
1115.000000	65.044069  
1114.000000	65.048599  
1113.000000	65.049839  
1112.000000	65.049862  
1111.000000	65.051746  
1110.000000	65.058422  
1109.000000	65.072441  
1108.000000	65.094161  
1107.000000	65.122294  
1106.000000	65.152883  
1105.000000	65.180373  
1104.000000	65.198087  
1103.000000	65.199899  
1102.000000	65.181732  
1101.000000	65.142464  
1100.000000	65.084934  
1099.000000	65.015482  
1098.000000	64.943027  
1097.000000	64.877486  
1096.000000	64.827632  
1095.000000	64.799356  
1094.000000	64.794349  
1093.000000	64.809727  
1092.000000	64.839148  
1091.000000	64.874362  
1090.000000	64.907002  
1089.000000	64.930534  
1088.000000	64.941477  
1087.000000	64.940071  
1086.000000	64.929342  
1085.000000	64.914155  
1084.000000	64.899682  
1083.000000	64.890027  
1082.000000	64.887094  
1081.000000	64.890527  
1080.000000	64.898276  
1079.000000	64.907360  
1078.000000	64.915013  
1077.000000	64.919590  
1076.000000	64.920949  
1075.000000	64.920568  
1074.000000	64.920735  
1073.000000	64.923834  
1072.000000	64.931511  
1071.000000	64.943885  
1070.000000	64.959502  
1069.000000	64.975380  
1068.000000	64.987921  
1067.000000	64.993667  
1066.000000	64.990353  
1065.000000	64.977431  
1064.000000	64.956235  
1063.000000	64.930009  
1062.000000	64.902973  
1061.000000	64.879655  
1060.000000	64.863514  
1059.000000	64.856600  
1058.000000	64.858531  
1057.000000	64.867043  
1056.000000	64.878177  
1055.000000	64.887285  
1054.000000	64.890265  
1053.000000	64.884424  
1052.000000	64.869379  
1051.000000	64.847016  
1050.000000	64.821076  
1049.000000	64.796090  
1048.000000	64.776158  
1047.000000	64.764094  
1046.000000	64.760661  
1045.000000	64.764690  
1044.000000	64.773106  
1043.000000	64.781975  
1042.000000	64.786958  
1041.000000	64.784431  
1040.000000	64.772057  
1039.000000	64.749431  
1038.000000	64.718317  
1037.000000	64.682126  
1036.000000	64.645600  
1035.000000	64.613699  
1034.000000	64.590573  
1033.000000	64.578700  
1032.000000	64.578509  
1031.000000	64.588499  
1030.000000	64.605808  
1029.000000	64.627265  
1028.000000	64.649987  
1027.000000	64.672064  
1026.000000	64.692640  
1025.000000	64.711761  
1024.000000	64.729881  
1023.000000	64.747262  
1022.000000	64.763307  
1021.000000	64.776563  
1020.000000	64.785122  
1019.000000	64.787292  
1018.000000	64.782214  
1017.000000	64.770698  
1016.000000	64.755392  
1015.000000	64.740490  
1014.000000	64.730930  
1013.000000	64.731478  
1012.000000	64.745402  
1011.000000	64.773869  
1010.000000	64.815282  
1009.000000	64.865732  
1008.000000	64.919137  
1007.000000	64.968371  
1006.000000	65.006375  
1005.000000	65.027499  
1004.000000	65.028715  
1003.000000	65.010142  
1002.000000	64.975166  
1001.000000	64.930319  
1000.000000	64.883732  
999.000000	 64.844012  
998.000000	 64.818096  
997.000000	 64.810323  
996.000000	 64.821076  
995.000000	 64.847469  
994.000000	 64.883303  
993.000000	 64.920687  
992.000000	 64.951586  
991.000000	 64.969706  
990.000000	 64.971590  
989.000000	 64.957308  
988.000000	 64.930009  
987.000000	 64.894628  
986.000000	 64.856791  
985.000000	 64.821386  
984.000000	 64.791703  
983.000000	 64.769029  
982.000000	 64.752888  
981.000000	 64.741849  
980.000000	 64.734268  
979.000000	 64.729452  
978.000000	 64.727640  
977.000000	 64.730381  
976.000000	 64.740180  
975.000000	 64.759540  
974.000000	 64.789485  
973.000000	 64.828705  
972.000000	 64.872980  
971.000000	 64.915776  
970.000000	 64.949250  
969.000000	 64.966845  
968.000000	 64.964270  
967.000000	 64.942097  
966.000000	 64.905643  
965.000000	 64.864325  
964.000000	 64.829635  
963.000000	 64.812183  
962.000000	 64.819145  
961.000000	 64.852476  
960.000000	 64.908480  
959.000000	 64.978384  
958.000000	 65.050601  
957.000000	 65.113568  
956.000000	 65.158438  
955.000000	 65.180754  
954.000000	 65.180969  
953.000000	 65.162897  
952.000000	 65.132522  
951.000000	 65.095734  
950.000000	 65.057373  
949.000000	 65.020632  
948.000000	 64.987039  
947.000000	 64.957714  
946.000000	 64.933443  
945.000000	 64.916038  
944.000000	 64.907407  
943.000000	 64.909076  
942.000000	 64.921522  
941.000000	 64.943790  
940.000000	 64.972758  
939.000000	 65.003204  
938.000000	 65.028810  
937.000000	 65.043401  
936.000000	 65.041947  
935.000000	 65.021944  
934.000000	 64.983344  
933.000000	 64.928698  
932.000000	 64.862680  
931.000000	 64.791560  
930.000000	 64.722514  
929.000000	 64.662623  
928.000000	 64.618134  
927.000000	 64.593148  
926.000000	 64.588999  
925.000000	 64.603662  
924.000000	 64.631938  
923.000000	 64.665985  
922.000000	 64.697003  
921.000000	 64.716529  
920.000000	 64.718341  
919.000000	 64.698958  
918.000000	 64.657425  
917.000000	 64.595699  
916.000000	 64.517879  
915.000000	 64.430117  
914.000000	 64.339041  
913.000000	 64.252185  
912.000000	 64.177107  
911.000000	 64.121150  
910.000000	 64.090704  
909.000000	 64.090037  
908.000000	 64.120435  
907.000000	 64.178943  
906.000000	 64.258456  
905.000000	 64.348077  
904.000000	 64.435029  
903.000000	 64.507317  
902.000000	 64.556241  
901.000000	 64.578461  
900.000000	 64.576387  
899.000000	 64.557003  
898.000000	 64.530110  
897.000000	 64.505267  
896.000000	 64.490270  
895.000000	 64.489841  
894.000000	 64.505028  
893.000000	 64.534354  
892.000000	 64.574313  
891.000000	 64.621496  
890.000000	 64.672565  
889.000000	 64.724969  
888.000000	 64.776515  
887.000000	 64.825057  
886.000000	 64.868068  
885.000000	 64.902567  
884.000000	 64.925336  
883.000000	 64.933466  
882.000000	 64.925646  
881.000000	 64.903283  
880.000000	 64.870071  
879.000000	 64.831852  
878.000000	 64.795613  
877.000000	 64.768195  
876.000000	 64.754462  
875.000000	 64.756155  
874.000000	 64.771342  
873.000000	 64.794373  
872.000000	 64.816975  
871.000000	 64.829874  
870.000000	 64.824414  
869.000000	 64.794516  
868.000000	 64.737868  
867.000000	 64.656710  
866.000000	 64.557385  
865.000000	 64.449310  
864.000000	 64.343070  
863.000000	 64.248728  
862.000000	 64.174127  
861.000000	 64.123916  
860.000000	 64.099168  
859.000000	 64.097952  
858.000000	 64.115452  
857.000000	 64.146280  
856.000000	 64.185309  
855.000000	 64.228725  
854.000000	 64.273643  
853.000000	 64.318752  
852.000000	 64.363527  
851.000000	 64.407682  
850.000000	 64.450240  
849.000000	 64.489889  
848.000000	 64.524745  
847.000000	 64.553189  
846.000000	 64.574313  
845.000000	 64.588212  
844.000000	 64.596199  
843.000000	 64.601039  
842.000000	 64.605927  
841.000000	 64.614343  
840.000000	 64.628791  
839.000000	 64.650583  
838.000000	 64.679241  
837.000000	 64.713025  
836.000000	 64.748716  
835.000000	 64.782953  
834.000000	 64.811897  
833.000000	 64.831757  
832.000000	 64.839482  
831.000000	 64.833545  
830.000000	 64.813780  
829.000000	 64.781260  
828.000000	 64.738607  
827.000000	 64.689636  
826.000000	 64.638710  
825.000000	 64.590525  
824.000000	 64.548802  
823.000000	 64.515948  
822.000000	 64.492988  
821.000000	 64.479541  
820.000000	 64.473652  
819.000000	 64.472484  
818.000000	 64.473104  
817.000000	 64.472889  
816.000000	 64.469528  
815.000000	 64.461421  
814.000000	 64.447379  
813.000000	 64.427161  
812.000000	 64.400768  
811.000000	 64.369463  
810.000000	 64.335417  
809.000000	 64.302253  
808.000000	 64.274430  
807.000000	 64.256525  
806.000000	 64.252209  
805.000000	 64.263081  
804.000000	 64.287996  
803.000000	 64.322948  
802.000000	 64.361906  
801.000000	 64.397764  
800.000000	 64.423632  
799.000000	 64.434218  
798.000000	 64.426803  
797.000000	 64.401578  
796.000000	 64.361500  
795.000000	 64.310956  
794.000000	 64.254951  
793.000000	 64.198255  
792.000000	 64.144611  
791.000000	 64.096760  
790.000000	 64.056396  
789.000000	 64.024639  
788.000000	 64.002418  
787.000000	 63.990449  
786.000000	 63.989639  
785.000000	 64.000272  
784.000000	 64.022231  
783.000000	 64.054656  
782.000000	 64.096021  
781.000000	 64.143514  
780.000000	 64.193415  
779.000000	 64.241456  
778.000000	 64.283061  
777.000000	 64.313936  
776.000000	 64.330911  
775.000000	 64.332389  
774.000000	 64.319181  
773.000000	 64.294672  
772.000000	 64.264225  
771.000000	 64.233970  
770.000000	 64.209699  
769.000000	 64.195466  
768.000000	 64.192509  
767.000000	 64.199137  
766.000000	 64.210867  
765.000000	 64.221787  
764.000000	 64.225673  
763.000000	 64.218139  
762.000000	 64.198088  
761.000000	 64.167904  
760.000000	 64.132714  
759.000000	 64.098572  
758.000000	 64.070916  
757.000000	 64.051985  
756.000000	 64.040160  
755.000000	 64.030146  
754.000000	 64.014101  
753.000000	 63.985228  
752.000000	 63.939881  
751.000000	 63.880372  
750.000000	 63.814735  
749.000000	 63.755559  
748.000000	 63.716721  
747.000000	 63.708972  
746.000000	 63.736629  
745.000000	 63.795399  
744.000000	 63.872933  
743.000000	 63.951277  
742.000000	 64.011526  
741.000000	 64.039468  
740.000000	 64.029550  
739.000000	 63.986444  
738.000000	 63.924026  
737.000000	 63.861417  
736.000000	 63.817691  
735.000000	 63.806462  
734.000000	 63.832044  
733.000000	 63.888955  
732.000000	 63.963055  
731.000000	 64.036583  
730.000000	 64.092540  
729.000000	 64.119410  
728.000000	 64.114236  
727.000000	 64.082312  
726.000000	 64.036345  
725.000000	 63.991689  
724.000000	 63.962793  
723.000000	 63.959169  
722.000000	 63.982748  
721.000000	 64.028286  
720.000000	 64.084196  
719.000000	 64.136695  
718.000000	 64.172148  
717.000000	 64.180636  
716.000000	 64.157319  
715.000000	 64.103317  
714.000000	 64.024329  
713.000000	 63.929104  
712.000000	 63.827419  
711.000000	 63.728189  
710.000000	 63.638615  
709.000000	 63.563632  
708.000000	 63.506007  
707.000000	 63.466715  
706.000000	 63.445520  
705.000000	 63.441300  
704.000000	 63.451695  
703.000000	 63.473749  
702.000000	 63.502597  
701.000000	 63.533186  
700.000000	 63.559317  
699.000000	 63.576221  
698.000000	 63.581013  
697.000000	 63.573384  
696.000000	 63.555431  
695.000000	 63.531017  
694.000000	 63.504743  
693.000000	 63.480496  
692.000000	 63.460397  
691.000000	 63.444900  
690.000000	 63.432955  
689.000000	 63.423013  
688.000000	 63.413882  
687.000000	 63.405752  
686.000000	 63.400220  
685.000000	 63.399720  
684.000000	 63.406634  
683.000000	 63.421797  
682.000000	 63.443970  
681.000000	 63.469767  
680.000000	 63.494586  
679.000000	 63.513040  
678.000000	 63.520860  
677.000000	 63.516521  
676.000000	 63.501453  
675.000000	 63.479614  
674.000000	 63.456225  
673.000000	 63.436675  
672.000000	 63.424420  
671.000000	 63.420796  
670.000000	 63.423347  
669.000000	 63.427424  
668.000000	 63.426327  
667.000000	 63.413572  
666.000000	 63.383960  
665.000000	 63.335061  
664.000000	 63.267683  
663.000000	 63.185977  
662.000000	 63.097119  
661.000000	 63.009762  
660.000000	 62.932777  
659.000000	 62.873482  
658.000000	 62.836718  
657.000000	 62.824082  
656.000000	 62.834143  
655.000000	 62.862920  
654.000000	 62.904310  
653.000000	 62.951660  
652.000000	 62.998676  
651.000000	 63.040876  
650.000000	 63.075327  
649.000000	 63.101100  
648.000000	 63.118815  
647.000000	 63.129615  
646.000000	 63.134551  
645.000000	 63.133692  
644.000000	 63.125681  
643.000000	 63.108515  
642.000000	 63.080644  
641.000000	 63.041758  
640.000000	 62.993526  
639.000000	 62.940597  
638.000000	 62.890672  
637.000000	 62.852549  
636.000000	 62.834334  
635.000000	 62.841296  
634.000000	 62.874197  
633.000000	 62.928152  
632.000000	 62.993073  
631.000000	 63.055539  
630.000000	 63.101458  
629.000000	 63.119196  
628.000000	 63.102316  
627.000000	 63.050866  
626.000000	 62.971568  
625.000000	 62.875628  
624.000000	 62.776446  
623.000000	 62.686228  
622.000000	 62.614202  
621.000000	 62.565159  
620.000000	 62.540078  
619.000000	 62.536263  
618.000000	 62.550330  
617.000000	 62.579202  
616.000000	 62.622046  
615.000000	 62.679290  
614.000000	 62.753081  
613.000000	 62.844991  
612.000000	 62.955021  
611.000000	 63.079786  
610.000000	 63.211750  
609.000000	 63.339591  
608.000000	 63.450002  
607.000000	 63.530087  
606.000000	 63.569879  
605.000000	 63.564515  
604.000000	 63.515400  
603.000000	 63.429975  
602.000000	 63.320279  
601.000000	 63.200545  
600.000000	 63.084578  
599.000000	 62.983250  
598.000000	 62.904119  
597.000000	 62.849903  
596.000000	 62.819647  
595.000000	 62.809133  
594.000000	 62.811875  
593.000000	 62.821292  
592.000000	 62.830853  
591.000000	 62.836599  
590.000000	 62.836432  
589.000000	 62.831664  
588.000000	 62.825155  
587.000000	 62.821555  
586.000000	 62.825655  
585.000000	 62.840986  
584.000000	 62.868809  
583.000000	 62.907028  
582.000000	 62.950754  
581.000000	 62.992525  
580.000000	 63.023972  
579.000000	 63.037228  
578.000000	 63.026499  
577.000000	 62.989091  
576.000000	 62.926030  
575.000000	 62.841987  
574.000000	 62.744736  
573.000000	 62.643361  
572.000000	 62.547278  
571.000000	 62.465119  
570.000000	 62.403345  
569.000000	 62.366437  
568.000000	 62.355351  
567.000000	 62.367320  
566.000000	 62.396574  
565.000000	 62.434554  
564.000000	 62.472724  
563.000000	 62.502956  
562.000000	 62.520527  
561.000000	 62.523412  
560.000000	 62.514257  
559.000000	 62.498903  
558.000000	 62.485694  
557.000000	 62.482738  
556.000000	 62.497162  
555.000000	 62.533164  
554.000000	 62.590813  
553.000000	 62.665414  
552.000000	 62.748456  
551.000000	 62.828683  
550.000000	 62.894034  
549.000000	 62.933969  
548.000000	 62.940979  
547.000000	 62.912464  
546.000000	 62.851738  
545.000000	 62.767601  
544.000000	 62.672758  
543.000000	 62.580943  
542.000000	 62.505650  
541.000000	 62.455391  
540.000000	 62.432456  
539.000000	 62.431931  
538.000000	 62.443685  
537.000000	 62.455010  
536.000000	 62.454414  
535.000000	 62.434434  
534.000000	 62.393522  
533.000000	 62.335300  
532.000000	 62.267184  
531.000000	 62.196731  
530.000000	 62.128949  
529.000000	 62.064647  
528.000000	 62.000799  
527.000000	 61.932206  
526.000000	 61.854410  
525.000000	 61.767482  
524.000000	 61.677789  
523.000000	 61.597251  
522.000000	 61.541175  
521.000000	 61.524343  
520.000000	 61.556816  
519.000000	 61.639714  
518.000000	 61.764430  
517.000000	 61.914491  
516.000000	 62.068343  
515.000000	 62.205147  
514.000000	 62.307548  
513.000000	 62.364339  
512.000000	 62.372088  
511.000000	 62.334966  
510.000000	 62.262892  
509.000000	 62.168049  
508.000000	 62.063288  
507.000000	 61.960744  
506.000000	 61.869382  
505.000000	 61.795806  
504.000000	 61.742258  
503.000000	 61.708259  
502.000000	 61.690354  
501.000000	 61.683797  
500.000000	 61.681890  
499.000000	 61.677241  
498.000000	 61.663460  
497.000000	 61.636185  
496.000000	 61.593246  
495.000000	 61.535596  
494.000000	 61.466646  
493.000000	 61.392855  
492.000000	 61.321568  
491.000000	 61.261916  
490.000000	 61.221837  
489.000000	 61.209201  
488.000000	 61.231040  
487.000000	 61.292195  
486.000000	 61.394047  
485.000000	 61.532926  
484.000000	 61.700344  
483.000000	 61.881971  
482.000000	 62.061023  
481.000000	 62.217235  
480.000000	 62.331199  
479.000000	 62.385010  
478.000000	 62.366318  
477.000000	 62.269330  
476.000000	 62.097239  
475.000000	 61.860370  
474.000000	 61.575555  
473.000000	 61.263227  
472.000000	 60.945391  
471.000000	 60.640668  
470.000000	 60.363721  
469.000000	 60.123395  
468.000000	 59.925985  
467.000000	 59.776234  
466.000000	 59.681391  
465.000000	 59.649062  
464.000000	 59.688973  
463.000000	 59.810090  
462.000000	 60.016584  
461.000000	 60.300326  
460.000000	 60.640478  
459.000000	 61.005187  
458.000000	 61.354017  
457.000000	 61.642599  
456.000000	 61.832594  
455.000000	 61.900472  
454.000000	 61.841440  
453.000000	 61.670613  
452.000000	 61.420011  
451.000000	 61.132979  
450.000000	 60.853910  
449.000000	 60.620284  
448.000000	 60.456204  
447.000000	 60.370373  
446.000000	 60.356616  
445.000000	 60.398626  
444.000000	 60.475873  
443.000000	 60.568165  
442.000000	 60.663676  
441.000000	 60.756969  
440.000000	 60.836696  
439.000000	 60.884785  
438.000000	 60.886144  
437.000000	 60.823202  
436.000000	 60.675072  
435.000000	 60.422563  
434.000000	 60.058403  
433.000000	 59.587121  
432.000000	 59.033465  
431.000000	 58.433198  
430.000000	 57.821774  
429.000000	 57.236933  
428.000000	 56.714391  
427.000000	 56.284117  
426.000000	 55.968856  
425.000000	 55.777740  
424.000000	 55.704021  
423.000000	 55.725789  
422.000000	 55.809354  
421.000000	 55.911779  
420.000000	 55.988383  
419.000000	 56.005144  
418.000000	 55.951356  
417.000000	 55.854201  
416.000000	 55.784630  
415.000000	 55.860280  
414.000000	 56.223487  
413.000000	 57.022309  
412.000000	 58.355236  
411.000000	 60.246229  
410.000000	 62.592983  
409.000000	 65.186738  
408.000000	 67.708396  
407.000000	 69.784736  
406.000000	 71.060180  
405.000000	 71.268630  
404.000000	 70.318889  
403.000000	 68.313980  
402.000000	 65.567016  
401.000000	 62.557721  
400.000000	 59.818720  
399.000000	 57.823586  
398.000000	 56.883978  
397.000000	 57.103443  
396.000000	 58.343458  
395.000000	 60.284352  
394.000000	 62.485170  
393.000000	 64.485144  
392.000000	 65.971994  
391.000000	 66.848015  
390.000000	 67.208051  
389.000000	 67.278385  
388.000000	 67.317938  
387.000000	 67.503929  
386.000000	 67.893147  
385.000000	 68.375825  
384.000000	 68.662071  
383.000000	 68.400239  
382.000000	 67.332005  
381.000000	 65.375542  
380.000000	 62.748289  
379.000000	 59.834051  
378.000000	 57.167887  
377.000000	 55.147027  
376.000000	 53.864812  
375.000000	 53.084373  
374.000000	 52.304482  
373.000000	 50.921678  
372.000000	 48.388791  
371.000000	 44.515347  
370.000000	 39.467787  

