PE IR       SPECTRUM    SPECTRUM    ASCII       PEDS        1.60        
  -1
C-4C09~1.ASC
17/03/28
00:21:56.00
17/03/28
00:21:56.00
tln
$C-4040-8_t0117$<tbV0>[-2.6,13.0,8.0,0.0,27,1,0]
370.000000
64









2002,4.07    
MIRTGS : RIGHTBACK : INTERNAL 2
MIR : ON : INTERNAL 2
OPTKBR

0.200000
8
8.000000
FILLER
RATIO
SPECTRUM
UNLOCKED 256

DOUBLE
64
COMBINED
1
0
0


1.000000
RATIO


1
0
TRUE
51149
0
LEFT NOT FITTED RIGHT NOT FITTED 0
NONE
NONE
15600
12.000000
4.427000
51148
TRUE
1 0 8 72 0 0 0 0 

15798.010000






#HDR
-1
-1
#GR
CM-1
%T
0.00002384185791015625
0.0
5000.000000
-1.000000
4631
8
89.695358
22.782778
#DATA
5000.000000	64.597535 
4999.000000	64.648175 
4998.000000	64.708852 
4997.000000	64.772129 
4996.000000	64.830255 
4995.000000	64.876365 
4994.000000	64.906287 
4993.000000	64.917826 
4992.000000	64.912891 
4991.000000	64.896917 
4990.000000	64.877939 
4989.000000	64.864563 
4988.000000	64.864134 
4987.000000	64.881134 
4986.000000	64.915585 
4985.000000	64.963006 
4984.000000	65.016436 
4983.000000	65.068626 
4982.000000	65.114212 
4981.000000	65.151262 
4980.000000	65.181612 
4979.000000	65.210294 
4978.000000	65.243625 
4977.000000	65.287065 
4976.000000	65.344071 
4975.000000	65.414357 
4974.000000	65.494561 
4973.000000	65.578031 
4972.000000	65.656757 
4971.000000	65.721654 
4970.000000	65.766382 
4969.000000	65.785574 
4968.000000	65.776348 
4967.000000	65.737318 
4966.000000	65.669775 
4965.000000	65.576338 
4964.000000	65.461516 
4963.000000	65.330386 
4962.000000	65.189576 
4961.000000	65.044879 
4960.000000	64.901876 
4959.000000	64.764475 
4958.000000	64.635300 
4957.000000	64.516425 
4956.000000	64.409828 
4955.000000	64.317607 
4954.000000	64.242148 
4953.000000	64.185428 
4952.000000	64.149165 
4951.000000	64.132523 
4950.000000	64.133286 
4949.000000	64.147162 
4948.000000	64.170479 
4947.000000	64.199328 
4946.000000	64.232850 
4945.000000	64.272427 
4944.000000	64.322566 
4943.000000	64.388513 
4942.000000	64.474987 
4941.000000	64.583730 
4940.000000	64.712190 
4939.000000	64.852786 
4938.000000	64.993906 
4937.000000	65.122556 
4936.000000	65.226125 
4935.000000	65.296220 
4934.000000	65.328502 
4933.000000	65.323662 
4932.000000	65.286374 
4931.000000	65.224456 
4930.000000	65.145444 
4929.000000	65.055704 
4928.000000	64.960408 
4927.000000	64.864015 
4926.000000	64.770960 
4925.000000	64.686393 
4924.000000	64.616918 
4923.000000	64.569926 
4922.000000	64.552044 
4921.000000	64.567565 
4920.000000	64.615845 
4919.000000	64.691662 
4918.000000	64.785337 
4917.000000	64.884662 
4916.000000	64.975929 
4915.000000	65.047359 
4914.000000	65.091562 
4913.000000	65.106034 
4912.000000	65.092849 
4911.000000	65.057754 
4910.000000	65.008234 
4909.000000	64.952349 
4908.000000	64.896965 
4907.000000	64.847898 
4906.000000	64.810276 
4905.000000	64.787507 
4904.000000	64.781737 
4903.000000	64.792418 
4902.000000	64.816641 
4901.000000	64.848470 
4900.000000	64.880061 
4899.000000	64.902925 
4898.000000	64.909625 
4897.000000	64.896512 
4896.000000	64.863467 
4895.000000	64.813327 
4894.000000	64.749765 
4893.000000	64.676856 
4892.000000	64.596724 
4891.000000	64.508485 
4890.000000	64.409971 
4889.000000	64.299011 
4888.000000	64.176774 
4887.000000	64.049029 
4886.000000	63.926935 
4885.000000	63.825130 
4884.000000	63.758277 
4883.000000	63.736772 
4882.000000	63.763356 
4881.000000	63.830637 
4880.000000	63.923382 
4879.000000	64.020943 
4878.000000	64.103531 
4877.000000	64.156317 
4876.000000	64.173722 
4875.000000	64.160132 
4874.000000	64.128279 
4873.000000	64.095354 
4872.000000	64.078783 
4871.000000	64.091515 
4870.000000	64.139628 
4869.000000	64.220952 
4868.000000	64.327025 
4867.000000	64.444708 
4866.000000	64.560794 
4865.000000	64.663743 
4864.000000	64.746022 
4863.000000	64.804911 
4862.000000	64.841079 
4861.000000	64.858841 
4860.000000	64.863300 
4859.000000	64.860844 
4858.000000	64.857983 
4857.000000	64.860486 
4856.000000	64.873480 
4855.000000	64.899611 
4854.000000	64.940214 
4853.000000	64.992427 
4852.000000	65.049982 
4851.000000	65.103292 
4850.000000	65.141630 
4849.000000	65.154838 
4848.000000	65.136146 
4847.000000	65.084075 
4846.000000	65.003466 
4845.000000	64.905142 
4844.000000	64.803576 
4843.000000	64.714026 
4842.000000	64.648604 
4841.000000	64.613795 
4840.000000	64.608693 
4839.000000	64.626049 
4838.000000	64.653968 
4837.000000	64.679908 
4836.000000	64.693498 
4835.000000	64.688253 
4834.000000	64.663338 
4833.000000	64.622616 
4832.000000	64.573550 
4831.000000	64.523315 
4830.000000	64.478802 
4829.000000	64.444494 
4828.000000	64.422869 
4827.000000	64.414548 
4826.000000	64.419126 
4825.000000	64.435768 
4824.000000	64.463710 
4823.000000	64.502310 
4822.000000	64.550995 
4821.000000	64.609003 
4820.000000	64.675045 
4819.000000	64.747047 
4818.000000	64.822459 
4817.000000	64.898014 
4816.000000	64.970731 
4815.000000	65.037155 
4814.000000	65.093517 
4813.000000	65.135574 
4812.000000	65.159821 
4811.000000	65.163421 
4810.000000	65.144991 
4809.000000	65.104866 
4808.000000	65.046596 
4807.000000	64.975857 
4806.000000	64.900469 
4805.000000	64.828968 
4804.000000	64.769029 
4803.000000	64.726591 
4802.000000	64.704895 
4801.000000	64.704275 
4800.000000	64.722323 
4799.000000	64.754486 
4798.000000	64.794993 
4797.000000	64.838027 
4796.000000	64.878582 
4795.000000	64.913344 
4794.000000	64.941096 
4793.000000	64.962577 
4792.000000	64.979767 
4791.000000	64.996314 
4790.000000	65.016388 
4789.000000	65.043878 
4788.000000	65.081071 
4787.000000	65.128874 
4786.000000	65.185356 
4785.000000	65.246534 
4784.000000	65.305829 
4783.000000	65.355587 
4782.000000	65.388107 
4781.000000	65.397548 
4780.000000	65.381002 
4779.000000	65.339517 
4778.000000	65.278077 
4777.000000	65.205287 
4776.000000	65.131020 
4775.000000	65.064764 
4774.000000	65.013527 
4773.000000	64.981079 
4772.000000	64.966964 
4771.000000	64.967107 
4770.000000	64.975094 
4769.000000	64.984083 
4768.000000	64.987659 
4767.000000	64.981389 
4766.000000	64.962720 
4765.000000	64.931464 
4764.000000	64.889550 
4763.000000	64.840865 
4762.000000	64.789795 
4761.000000	64.741301 
4760.000000	64.700555 
4759.000000	64.672493 
4758.000000	64.661002 
4757.000000	64.668393 
4756.000000	64.694905 
4755.000000	64.738321 
4754.000000	64.793848 
4753.000000	64.855265 
4752.000000	64.915418 
4751.000000	64.967989 
4750.000000	65.008378 
4749.000000	65.034651 
4748.000000	65.047383 
4747.000000	65.049695 
4746.000000	65.046310 
4745.000000	65.042638 
4744.000000	65.043187 
4743.000000	65.050935 
4742.000000	65.067028 
4741.000000	65.089631 
4740.000000	65.114545 
4739.000000	65.135908 
4738.000000	65.147519 
4737.000000	65.144062 
4736.000000	65.122795 
4735.000000	65.083694 
4734.000000	65.030074 
4733.000000	64.967823 
4732.000000	64.904546 
4731.000000	64.848184 
4730.000000	64.805817 
4729.000000	64.782333 
4728.000000	64.780211 
4727.000000	64.798903 
4726.000000	64.835786 
4725.000000	64.887237 
4724.000000	64.948940 
4723.000000	65.016031 
4722.000000	65.083980 
4721.000000	65.148973 
4720.000000	65.207672 
4719.000000	65.256905 
4718.000000	65.294432 
4717.000000	65.319085 
4716.000000	65.330886 
4715.000000	65.331220 
4714.000000	65.322232 
4713.000000	65.306425 
4712.000000	65.286421 
4711.000000	65.264511 
4710.000000	65.242362 
4709.000000	65.221047 
4708.000000	65.201640 
4707.000000	65.185213 
4706.000000	65.173506 
4705.000000	65.167760 
4704.000000	65.169024 
4703.000000	65.176033 
4702.000000	65.184974 
4701.000000	65.189337 
4700.000000	65.180826 
4699.000000	65.151262 
4698.000000	65.094518 
4697.000000	65.009045 
4696.000000	64.898991 
4695.000000	64.774465 
4694.000000	64.649391 
4693.000000	64.539122 
4692.000000	64.457011 
4691.000000	64.412260 
4690.000000	64.408087 
4689.000000	64.441394 
4688.000000	64.503860 
4687.000000	64.584684 
4686.000000	64.673042 
4685.000000	64.759683 
4684.000000	64.837956 
4683.000000	64.903855 
4682.000000	64.955496 
4681.000000	64.991474 
4680.000000	65.010738 
4679.000000	65.012383 
4678.000000	64.995956 
4677.000000	64.963340 
4676.000000	64.918065 
4675.000000	64.865756 
4674.000000	64.813303 
4673.000000	64.768338 
4672.000000	64.737868 
4671.000000	64.726924 
4670.000000	64.738178 
4669.000000	64.771080 
4668.000000	64.822506 
4667.000000	64.887309 
4666.000000	64.959311 
4665.000000	65.032052 
4664.000000	65.099310 
4663.000000	65.155386 
4662.000000	65.195775 
4661.000000	65.217351 
4660.000000	65.218687 
4659.000000	65.199899 
4658.000000	65.162968 
4657.000000	65.111446 
4656.000000	65.049743 
4655.000000	64.983129 
4654.000000	64.916753 
4653.000000	64.856076 
4652.000000	64.807462 
4651.000000	64.777302 
4650.000000	64.771389 
4649.000000	64.793157 
4648.000000	64.842867 
4647.000000	64.916014 
4646.000000	65.003371 
4645.000000	65.092062 
4644.000000	65.167260 
4643.000000	65.215802 
4642.000000	65.229177 
4641.000000	65.205311 
4640.000000	65.148854 
4639.000000	65.070199 
4638.000000	64.983320 
4637.000000	64.901590 
4636.000000	64.835095 
4635.000000	64.788222 
4634.000000	64.759564 
4633.000000	64.743685 
4632.000000	64.733815 
4631.000000	64.724278 
4630.000000	64.712023 
4629.000000	64.697241 
4628.000000	64.682388 
4627.000000	64.669680 
4626.000000	64.660000 
4625.000000	64.651083 
4624.000000	64.638948 
4623.000000	64.618229 
4622.000000	64.585852 
4621.000000	64.541697 
4620.000000	64.491415 
4619.000000	64.444923 
4618.000000	64.415740 
4617.000000	64.416885 
4616.000000	64.458179 
4615.000000	64.542841 
4614.000000	64.666438 
4613.000000	64.817214 
4612.000000	64.978075 
4611.000000	65.130352 
4610.000000	65.256690 
4609.000000	65.344190 
4608.000000	65.386700 
4607.000000	65.385174 
4606.000000	65.346503 
4605.000000	65.281152 
4604.000000	65.201544 
4603.000000	65.119242 
4602.000000	65.043091 
4601.000000	64.978051 
4600.000000	64.925813 
4599.000000	64.885473 
4598.000000	64.855384 
4597.000000	64.834260 
4596.000000	64.821529 
4595.000000	64.817881 
4594.000000	64.824223 
4593.000000	64.841771 
4592.000000	64.869570 
4591.000000	64.906001 
4590.000000	64.947652 
4589.000000	64.991331 
4588.000000	65.033841 
4587.000000	65.074086 
4586.000000	65.113091 
4585.000000	65.153908 
4584.000000	65.200328 
4583.000000	65.255737 
4582.000000	65.321660 
4581.000000	65.396285 
4580.000000	65.474343 
4579.000000	65.547943 
4578.000000	65.608406 
4577.000000	65.648007 
4576.000000	65.661621 
4575.000000	65.647578 
4574.000000	65.607428 
4573.000000	65.545773 
4572.000000	65.468811 
4571.000000	65.383124 
4570.000000	65.294432 
4569.000000	65.207529 
4568.000000	65.125918 
4567.000000	65.052199 
4566.000000	64.988517 
4565.000000	64.937019 
4564.000000	64.899945 
4563.000000	64.879155 
4562.000000	64.875435 
4561.000000	64.887309 
4560.000000	64.911007 
4559.000000	64.939904 
4558.000000	64.966273 
4557.000000	64.982032 
4556.000000	64.982247 
4555.000000	64.966154 
4554.000000	64.938592 
4553.000000	64.908599 
4552.000000	64.887809 
4551.000000	64.886975 
4550.000000	64.912843 
4549.000000	64.965343 
4548.000000	65.036749 
4547.000000	65.113019 
4546.000000	65.176606 
4545.000000	65.211033 
4544.000000	65.205264 
4543.000000	65.157127 
4542.000000	65.073847 
4541.000000	64.970850 
4540.000000	64.867186 
4539.000000	64.781737 
4538.000000	64.728832 
4537.000000	64.715504 
4536.000000	64.740848 
4535.000000	64.796805 
4534.000000	64.871740 
4533.000000	64.952301 
4532.000000	65.026831 
4531.000000	65.087032 
4530.000000	65.128302 
4529.000000	65.150237 
4528.000000	65.154957 
4527.000000	65.146732 
4526.000000	65.130376 
4525.000000	65.110349 
4524.000000	65.089988 
4523.000000	65.071487 
4522.000000	65.055871 
4521.000000	65.042662 
4520.000000	65.030217 
4519.000000	65.016317 
4518.000000	64.999175 
4517.000000	64.978218 
4516.000000	64.954495 
4515.000000	64.930772 
4514.000000	64.910817 
4513.000000	64.898490 
4512.000000	64.896059 
4511.000000	64.903402 
4510.000000	64.917492 
4509.000000	64.932489 
4508.000000	64.941763 
4507.000000	64.939308 
4506.000000	64.922094 
4505.000000	64.890646 
4504.000000	64.850139 
4503.000000	64.808654 
4502.000000	64.776349 
4501.000000	64.763021 
4500.000000	64.775753 
4499.000000	64.817070 
4498.000000	64.884352 
4497.000000	64.970111 
4496.000000	65.063619 
4495.000000	65.153002 
4494.000000	65.227246 
4493.000000	65.278077 
4492.000000	65.301275 
4491.000000	65.297126 
4490.000000	65.269064 
4489.000000	65.223431 
4488.000000	65.168190 
4487.000000	65.111708 
4486.000000	65.062737 
4485.000000	65.027832 
4484.000000	65.012288 
4483.000000	65.017104 
4482.000000	65.039587 
4481.000000	65.072703 
4480.000000	65.106606 
4479.000000	65.131139 
4478.000000	65.137171 
4477.000000	65.120673 
4476.000000	65.083169 
4475.000000	65.032696 
4474.000000	64.981532 
4473.000000	64.943623 
4472.000000	64.930772 
4471.000000	64.949488 
4470.000000	64.999151 
4469.000000	65.072417 
4468.000000	65.157341 
4467.000000	65.240907 
4466.000000	65.312409 
4465.000000	65.365910 
4464.000000	65.400886 
4463.000000	65.421080 
4462.000000	65.432238 
4461.000000	65.438652 
4460.000000	65.442228 
4459.000000	65.441656 
4458.000000	65.434503 
4457.000000	65.418601 
4456.000000	65.394639 
4455.000000	65.367937 
4454.000000	65.347337 
4453.000000	65.343785 
4452.000000	65.366530 
4451.000000	65.419816 
4450.000000	65.501332 
4449.000000	65.601730 
4448.000000	65.707254 
4447.000000	65.802669 
4446.000000	65.875935 
4445.000000	65.921330 
4444.000000	65.939831 
4443.000000	65.938115 
4442.000000	65.926456 
4441.000000	65.915107 
4440.000000	65.911555 
4439.000000	65.918588 
4438.000000	65.932893 
4437.000000	65.946888 
4436.000000	65.954542 
4435.000000	65.951275 
4434.000000	65.937304 
4433.000000	65.914487 
4432.000000	65.884113 
4431.000000	65.846633 
4430.000000	65.795969 
4429.000000	65.727710 
4428.000000	65.645122 
4427.000000	65.556836 
4426.000000	65.475821 
4425.000000	65.416502 
4424.000000	65.389370 
4423.000000	65.400910 
4422.000000	65.449333 
4421.000000	65.530872 
4420.000000	65.640306 
4419.000000	65.775060 
4418.000000	65.935158 
4417.000000	66.119003 
4416.000000	66.319942 
4415.000000	66.518712 
4414.000000	66.684484 
4413.000000	66.772747 
4412.000000	66.739368 
4411.000000	66.555333 
4410.000000	66.219711 
4409.000000	65.775823 
4408.000000	65.293073 
4407.000000	64.868831 
4406.000000	64.577865 
4405.000000	64.445328 
4404.000000	64.431548 
4403.000000	64.429211 
4402.000000	64.308905 
4401.000000	63.955354 
4400.000000	63.318037 
4399.000000	62.439703 
4398.000000	61.447501 
4397.000000	60.521030 
4396.000000	59.842491 
4395.000000	59.537982 
4394.000000	59.650087 
4393.000000	60.121488 
4392.000000	60.817980 
4391.000000	61.566066 
4390.000000	62.201786 
4389.000000	62.614655 
4388.000000	62.769460 
4387.000000	62.710714 
4386.000000	62.542009 
4385.000000	62.393569 
4384.000000	62.379622 
4383.000000	62.569046 
4382.000000	62.972593 
4381.000000	63.542628 
4380.000000	64.200377 
4379.000000	64.852833 
4378.000000	65.426039 
4377.000000	65.874409 
4376.000000	66.190075 
4375.000000	66.394400 
4374.000000	66.518378 
4373.000000	66.596245 
4372.000000	66.650342 
4371.000000	66.690802 
4370.000000	66.720581 
4369.000000	66.735720 
4368.000000	66.741108 
4367.000000	66.737866 
4366.000000	66.728615 
4365.000000	66.710591 
4364.000000	66.676807 
4363.000000	66.617012 
4362.000000	66.521215 
4361.000000	66.387534 
4360.000000	66.223764 
4359.000000	66.046786 
4358.000000	65.878486 
4357.000000	65.734672 
4356.000000	65.622925 
4355.000000	65.543341 
4354.000000	65.488648 
4353.000000	65.448498 
4352.000000	65.411734 
4351.000000	65.370011 
4350.000000	65.319037 
4349.000000	65.256595 
4348.000000	65.184092 
4347.000000	65.106105 
4346.000000	65.027427 
4345.000000	64.949035 
4344.000000	64.870643 
4343.000000	64.790892 
4342.000000	64.709043 
4341.000000	64.625477 
4340.000000	64.544153 
4339.000000	64.472150 
4338.000000	64.418864 
4337.000000	64.393544 
4336.000000	64.403653 
4335.000000	64.452266 
4334.000000	64.537405 
4333.000000	64.651441 
4332.000000	64.781522 
4331.000000	64.911675 
4330.000000	65.025806 
4329.000000	65.110397 
4328.000000	65.155935 
4327.000000	65.158987 
4326.000000	65.123271 
4325.000000	65.058493 
4324.000000	64.977931 
4323.000000	64.896035 
4322.000000	64.827013 
4321.000000	64.780998 
4320.000000	64.763474 
4319.000000	64.773392 
4318.000000	64.805579 
4317.000000	64.850449 
4316.000000	64.896893 
4315.000000	64.934372 
4314.000000	64.955067 
4313.000000	64.955449 
4312.000000	64.936113 
4311.000000	64.901971 
4310.000000	64.860343 
4309.000000	64.819931 
4308.000000	64.788913 
4307.000000	64.773678 
4306.000000	64.777827 
4305.000000	64.802241 
4304.000000	64.845228 
4303.000000	64.903259 
4302.000000	64.971399 
4301.000000	65.044140 
4300.000000	65.116071 
4299.000000	65.181756 
4298.000000	65.236830 
4297.000000	65.277981 
4296.000000	65.303921 
4295.000000	65.315294 
4294.000000	65.314722 
4293.000000	65.306377 
4292.000000	65.294814 
4291.000000	65.285134 
4290.000000	65.280294 
4289.000000	65.281105 
4288.000000	65.284895 
4287.000000	65.287160 
4286.000000	65.281462 
4285.000000	65.261697 
4284.000000	65.223073 
4283.000000	65.163826 
4282.000000	65.085911 
4281.000000	64.995312 
4280.000000	64.900469 
4279.000000	64.811086 
4278.000000	64.736223 
4277.000000	64.682936 
4276.000000	64.655065 
4275.000000	64.653420 
4274.000000	64.676189 
4273.000000	64.720273 
4272.000000	64.781403 
4271.000000	64.855289 
4270.000000	64.937734 
4269.000000	65.024924 
4268.000000	65.112018 
4267.000000	65.194463 
4266.000000	65.267753 
4265.000000	65.328025 
4264.000000	65.372323 
4263.000000	65.398883 
4262.000000	65.407752 
4261.000000	65.399932 
4260.000000	65.378212 
4259.000000	65.345406 
4258.000000	65.304613 
4257.000000	65.258789 
4256.000000	65.211009 
4255.000000	65.163898 
4254.000000	65.119504 
4253.000000	65.079474 
4252.000000	65.045237 
4251.000000	65.017032 
4250.000000	64.994144 
4249.000000	64.975118 
4248.000000	64.958477 
4247.000000	64.942598 
4246.000000	64.926743 
4245.000000	64.911293 
4244.000000	64.897394 
4243.000000	64.886760 
4242.000000	64.880490 
4241.000000	64.878249 
4240.000000	64.878392 
4239.000000	64.878082 
4238.000000	64.874291 
4237.000000	64.863824 
4236.000000	64.845728 
4235.000000	64.821720 
4234.000000	64.796614 
4233.000000	64.776778 
4232.000000	64.769268 
4231.000000	64.779639 
4230.000000	64.810776 
4229.000000	64.861845 
4228.000000	64.928555 
4227.000000	65.003824 
4226.000000	65.079569 
4225.000000	65.148329 
4224.000000	65.204644 
4223.000000	65.245866 
4222.000000	65.271902 
4221.000000	65.284609 
4220.000000	65.287470 
4219.000000	65.284013 
4218.000000	65.277433 
4217.000000	65.269088 
4216.000000	65.259385 
4215.000000	65.246629 
4214.000000	65.229105 
4213.000000	65.204310 
4212.000000	65.169191 
4211.000000	65.122222 
4210.000000	65.063762 
4209.000000	64.997553 
4208.000000	64.929485 
4207.000000	64.868402 
4206.000000	64.824271 
4205.000000	64.806056 
4204.000000	64.819455 
4203.000000	64.864826 
4202.000000	64.936542 
4201.000000	65.022683 
4200.000000	65.107226 
4199.000000	65.172672 
4198.000000	65.203571 
4197.000000	65.189456 
4196.000000	65.126776 
4195.000000	65.018796 
4194.000000	64.874815 
4193.000000	64.708065 
4192.000000	64.534187 
4191.000000	64.367294 
4190.000000	64.220905 
4189.000000	64.106535 
4188.000000	64.034986 
4187.000000	64.014720 
4186.000000	64.052152 
4185.000000	64.149975 
4184.000000	64.306139 
4183.000000	64.511251 
4182.000000	64.749860 
4181.000000	65.000486 
4180.000000	65.239667 
4179.000000	65.444827 
4178.000000	65.599298 
4177.000000	65.694808 
4176.000000	65.733027 
4175.000000	65.724706 
4174.000000	65.685439 
4173.000000	65.631532 
4172.000000	65.576219 
4171.000000	65.526771 
4170.000000	65.484356 
4169.000000	65.444612 
4168.000000	65.401601 
4167.000000	65.349531 
4166.000000	65.285444 
4165.000000	65.209889 
4164.000000	65.126585 
4163.000000	65.041613 
4162.000000	64.960503 
4161.000000	64.888310 
4160.000000	64.827871 
4159.000000	64.780616 
4158.000000	64.745712 
4157.000000	64.721775 
4156.000000	64.707517 
4155.000000	64.702010 
4154.000000	64.704513 
4153.000000	64.714241 
4152.000000	64.728856 
4151.000000	64.746093 
4150.000000	64.763545 
4149.000000	64.778566 
4148.000000	64.788365 
4147.000000	64.791154 
4146.000000	64.786601 
4145.000000	64.775228 
4144.000000	64.758443 
4143.000000	64.739012 
4142.000000	64.720749 
4141.000000	64.708137 
4140.000000	64.705681 
4139.000000	64.716291 
4138.000000	64.740872 
4137.000000	64.778017 
4136.000000	64.824366 
4135.000000	64.874863 
4134.000000	64.924550 
4133.000000	64.969491 
4132.000000	65.007472 
4131.000000	65.038084 
4130.000000	65.062355 
4129.000000	65.082597 
4128.000000	65.100431 
4127.000000	65.116000 
4126.000000	65.127515 
4125.000000	65.132284 
4124.000000	65.126895 
4123.000000	65.108823 
4122.000000	65.077376 
4121.000000	65.034699 
4120.000000	64.984893 
4119.000000	64.933514 
4118.000000	64.886164 
4117.000000	64.847159 
4116.000000	64.818978 
4115.000000	64.802026 
4114.000000	64.794898 
4113.000000	64.794993 
4112.000000	64.799404 
4111.000000	64.805746 
4110.000000	64.812135 
4109.000000	64.817786 
4108.000000	64.822387 
4107.000000	64.826488 
4106.000000	64.830541 
4105.000000	64.835429 
4104.000000	64.841842 
4103.000000	64.850831 
4102.000000	64.862942 
4101.000000	64.879131 
4100.000000	64.900350 
4099.000000	64.927148 
4098.000000	64.959216 
4097.000000	64.995718 
4096.000000	65.035223 
4095.000000	65.075802 
4094.000000	65.115165 
4093.000000	65.151119 
4092.000000	65.181708 
4091.000000	65.205597 
4090.000000	65.222024 
4089.000000	65.230751 
4088.000000	65.232014 
4087.000000	65.226721 
4086.000000	65.216636 
4085.000000	65.204143 
4084.000000	65.192317 
4083.000000	65.184831 
4082.000000	65.185379 
4081.000000	65.196919 
4080.000000	65.220785 
4079.000000	65.256500 
4078.000000	65.300750 
4077.000000	65.348267 
4076.000000	65.391778 
4075.000000	65.423536 
4074.000000	65.436458 
4073.000000	65.425872 
4072.000000	65.390205 
4071.000000	65.331459 
4070.000000	65.255236 
4069.000000	65.169858 
4068.000000	65.085291 
4067.000000	65.011048 
4066.000000	64.955234 
4065.000000	64.923214 
4064.000000	64.916753 
4063.000000	64.934182 
4062.000000	64.970445 
4061.000000	65.018630 
4060.000000	65.070438 
4059.000000	65.118598 
4058.000000	65.157556 
4057.000000	65.185046 
4056.000000	65.201473 
4055.000000	65.209865 
4054.000000	65.214633 
4053.000000	65.219879 
4052.000000	65.228605 
4051.000000	65.241050 
4050.000000	65.255188 
4049.000000	65.266418 
4048.000000	65.269708 
4047.000000	65.260243 
4046.000000	65.235614 
4045.000000	65.196108 
4044.000000	65.145134 
4043.000000	65.088915 
4042.000000	65.035128 
4041.000000	64.991450 
4040.000000	64.963817 
4039.000000	64.955663 
4038.000000	64.967393 
4037.000000	64.996743 
4036.000000	65.039300 
4035.000000	65.089011 
4034.000000	65.139365 
4033.000000	65.184330 
4032.000000	65.219330 
4031.000000	65.241336 
4030.000000	65.249490 
4029.000000	65.244674 
4028.000000	65.229582 
4027.000000	65.208172 
4026.000000	65.184903 
4025.000000	65.164279 
4024.000000	65.149545 
4023.000000	65.143084 
4022.000000	65.144944 
4021.000000	65.153837 
4020.000000	65.166282 
4019.000000	65.178060 
4018.000000	65.184211 
4017.000000	65.180301 
4016.000000	65.163040 
4015.000000	65.130829 
4014.000000	65.084671 
4013.000000	65.027689 
4012.000000	64.965677 
4011.000000	64.905929 
4010.000000	64.856696 
4009.000000	64.825797 
4008.000000	64.818954 
4007.000000	64.838790 
4006.000000	64.883947 
4005.000000	64.949560 
4004.000000	65.027928 
4003.000000	65.110111 
4002.000000	65.187025 
4001.000000	65.251088 
4000.000000	65.297341 
3999.000000	65.323925 
3998.000000	65.331602 
3997.000000	65.323328 
3996.000000	65.303111 
3995.000000	65.275120 
3994.000000	65.243530 
3993.000000	65.211439 
3992.000000	65.181398 
3991.000000	65.155005 
3990.000000	65.133595 
3989.000000	65.117907 
3988.000000	65.108370 
3987.000000	65.105032 
3986.000000	65.107345 
3985.000000	65.114951 
3984.000000	65.127253 
3983.000000	65.143871 
3982.000000	65.164256 
3981.000000	65.187287 
3980.000000	65.211033 
3979.000000	65.232849 
3978.000000	65.249705 
3977.000000	65.258407 
3976.000000	65.256619 
3975.000000	65.243387 
3974.000000	65.219616 
3973.000000	65.188694 
3972.000000	65.155673 
3971.000000	65.125966 
3970.000000	65.104317 
3969.000000	65.094566 
3968.000000	65.097951 
3967.000000	65.113115 
3966.000000	65.136289 
3965.000000	65.162277 
3964.000000	65.185546 
3963.000000	65.201544 
3962.000000	65.207552 
3961.000000	65.202879 
3960.000000	65.189409 
3959.000000	65.170717 
3958.000000	65.151667 
3957.000000	65.137100 
3956.000000	65.131616 
3955.000000	65.138387 
3954.000000	65.158867 
3953.000000	65.192198 
3952.000000	65.235590 
3951.000000	65.283989 
3950.000000	65.330672 
3949.000000	65.368008 
3948.000000	65.388321 
3947.000000	65.385532 
3946.000000	65.355992 
3945.000000	65.299844 
3944.000000	65.221214 
3943.000000	65.128159 
3942.000000	65.031290 
3941.000000	64.942312 
3940.000000	64.872026 
3939.000000	64.828181 
3938.000000	64.814281 
3937.000000	64.828944 
3936.000000	64.866375 
3935.000000	64.918065 
3934.000000	64.974546 
3933.000000	65.027499 
3932.000000	65.070843 
3931.000000	65.102076 
3930.000000	65.121817 
3929.000000	65.133118 
3928.000000	65.139746 
3927.000000	65.145301 
3926.000000	65.152072 
3925.000000	65.160942 
3924.000000	65.171194 
3923.000000	65.180993 
3922.000000	65.188050 
3921.000000	65.190958 
3920.000000	65.189480 
3919.000000	65.184736 
3918.000000	65.178728 
3917.000000	65.173864 
3916.000000	65.172123 
3915.000000	65.174412 
3914.000000	65.180039 
3913.000000	65.187072 
3912.000000	65.192627 
3911.000000	65.193629 
3910.000000	65.187621 
3909.000000	65.173935 
3908.000000	65.153169 
3907.000000	65.127182 
3906.000000	65.098261 
3905.000000	65.068769 
3904.000000	65.040230 
3903.000000	65.013289 
3902.000000	64.987540 
3901.000000	64.962553 
3900.000000	64.938974 
3899.000000	64.918994 
3898.000000	64.906525 
3897.000000	64.906263 
3896.000000	64.922690 
3895.000000	64.958548 
3894.000000	65.013313 
3893.000000	65.082955 
3892.000000	65.159821 
3891.000000	65.234231 
3890.000000	65.296387 
3889.000000	65.338397 
3888.000000	65.355968 
3887.000000	65.349030 
3886.000000	65.321731 
3885.000000	65.281224 
3884.000000	65.236115 
3883.000000	65.194344 
3882.000000	65.161824 
3881.000000	65.141439 
3880.000000	65.133285 
3879.000000	65.135169 
3878.000000	65.144038 
3877.000000	65.156650 
3876.000000	65.170502 
3875.000000	65.184235 
3874.000000	65.197563 
3873.000000	65.210533 
3872.000000	65.223550 
3871.000000	65.236496 
3870.000000	65.249037 
3869.000000	65.261077 
3868.000000	65.272760 
3867.000000	65.284657 
3866.000000	65.297722 
3865.000000	65.313267 
3864.000000	65.332102 
3863.000000	65.354180 
3862.000000	65.377688 
3861.000000	65.399742 
3860.000000	65.416169 
3859.000000	65.422630 
3858.000000	65.415692 
3857.000000	65.394306 
3856.000000	65.359926 
3855.000000	65.316677 
3854.000000	65.270519 
3853.000000	65.228247 
3852.000000	65.195894 
3851.000000	65.177631 
3850.000000	65.175008 
3849.000000	65.186572 
3848.000000	65.208554 
3847.000000	65.235257 
3846.000000	65.259909 
3845.000000	65.275597 
3844.000000	65.276479 
3843.000000	65.258693 
3842.000000	65.220904 
3841.000000	65.164852 
3840.000000	65.094995 
3839.000000	65.017986 
3838.000000	64.941453 
3837.000000	64.872741 
3836.000000	64.817833 
3835.000000	64.780139 
3834.000000	64.760351 
3833.000000	64.756512 
3832.000000	64.764451 
3831.000000	64.779210 
3830.000000	64.796066 
3829.000000	64.811229 
3828.000000	64.822149 
3827.000000	64.827728 
3826.000000	64.827585 
3825.000000	64.822411 
3824.000000	64.813160 
3823.000000	64.801692 
3822.000000	64.790463 
3821.000000	64.782977 
3820.000000	64.783287 
3819.000000	64.794778 
3818.000000	64.819526 
3817.000000	64.857506 
3816.000000	64.906287 
3815.000000	64.961242 
3814.000000	65.016651 
3813.000000	65.066957 
3812.000000	65.107893 
3811.000000	65.137648 
3810.000000	65.156459 
3809.000000	65.167093 
3808.000000	65.172553 
3807.000000	65.175461 
3806.000000	65.176892 
3805.000000	65.176415 
3804.000000	65.172457 
3803.000000	65.163350 
3802.000000	65.148353 
3801.000000	65.128993 
3800.000000	65.108680 
3799.000000	65.092134 
3798.000000	65.084266 
3797.000000	65.088677 
3796.000000	65.107107 
3795.000000	65.138816 
3794.000000	65.181088 
3793.000000	65.229773 
3792.000000	65.280461 
3791.000000	65.329146 
3790.000000	65.373015 
3789.000000	65.410304 
3788.000000	65.440225 
3787.000000	65.462398 
3786.000000	65.476512 
3785.000000	65.481877 
3784.000000	65.478157 
3783.000000	65.465116 
3782.000000	65.443563 
3781.000000	65.414929 
3780.000000	65.381956 
3779.000000	65.347719 
3778.000000	65.315341 
3777.000000	65.287470 
3776.000000	65.266203 
3775.000000	65.252494 
3774.000000	65.246224 
3773.000000	65.246534 
3772.000000	65.252137 
3771.000000	65.261411 
3770.000000	65.272784 
3769.000000	65.284776 
3768.000000	65.296173 
3767.000000	65.305995 
3766.000000	65.313363 
3765.000000	65.317535 
3764.000000	65.317893 
3763.000000	65.314030 
3762.000000	65.305852 
3761.000000	65.293836 
3760.000000	65.279126 
3759.000000	65.263223 
3758.000000	65.247988 
3757.000000	65.235638 
3756.000000	65.228104 
3755.000000	65.226697 
3754.000000	65.231156 
3753.000000	65.240144 
3752.000000	65.250658 
3751.000000	65.258860 
3750.000000	65.260767 
3749.000000	65.253114 
3748.000000	65.234303 
3747.000000	65.205097 
3746.000000	65.168619 
3745.000000	65.129852 
3744.000000	65.094685 
3743.000000	65.068697 
3742.000000	65.055775 
3741.000000	65.057301 
3740.000000	65.072035 
3739.000000	65.096569 
3738.000000	65.126585 
3737.000000	65.157747 
3736.000000	65.186691 
3735.000000	65.211534 
3734.000000	65.231370 
3733.000000	65.246081 
3732.000000	65.255355 
3731.000000	65.258550 
3730.000000	65.254569 
3729.000000	65.242362 
3728.000000	65.221858 
3727.000000	65.194368 
3726.000000	65.162658 
3725.000000	65.130829 
3724.000000	65.103697 
3723.000000	65.085196 
3722.000000	65.077233 
3721.000000	65.079188 
3720.000000	65.087914 
3719.000000	65.098857 
3718.000000	65.107035 
3717.000000	65.108680 
3716.000000	65.102076 
3715.000000	65.088081 
3714.000000	65.069437 
3713.000000	65.049886 
3712.000000	65.032911 
3711.000000	65.020704 
3710.000000	65.013837 
3709.000000	65.011239 
3708.000000	65.011048 
3707.000000	65.011453 
3706.000000	65.011358 
3705.000000	65.010952 
3704.000000	65.011835 
3703.000000	65.016031 
3702.000000	65.025782 
3701.000000	65.042114 
3700.000000	65.065264 
3699.000000	65.094113 
3698.000000	65.126681 
3697.000000	65.160870 
3696.000000	65.194392 
3695.000000	65.225481 
3694.000000	65.252590 
3693.000000	65.274763 
3692.000000	65.291213 
3691.000000	65.301251 
3690.000000	65.304207 
3689.000000	65.299701 
3688.000000	65.287184 
3687.000000	65.266442 
3686.000000	65.237593 
3685.000000	65.201616 
3684.000000	65.160441 
3683.000000	65.117168 
3682.000000	65.075922 
3681.000000	65.041351 
3680.000000	65.017890 
3679.000000	65.009093 
3678.000000	65.016698 
3677.000000	65.040206 
3676.000000	65.076804 
3675.000000	65.121841 
3674.000000	65.169310 
3673.000000	65.213274 
3672.000000	65.248656 
3671.000000	65.272235 
3670.000000	65.282964 
3669.000000	65.281867 
3668.000000	65.271401 
3667.000000	65.254640 
3666.000000	65.234494 
3665.000000	65.213346 
3664.000000	65.192866 
3663.000000	65.174055 
3662.000000	65.157532 
3661.000000	65.143680 
3660.000000	65.133094 
3659.000000	65.126156 
3658.000000	65.123200 
3657.000000	65.124130 
3656.000000	65.128421 
3655.000000	65.134835 
3654.000000	65.141606 
3653.000000	65.146636 
3652.000000	65.148067 
3651.000000	65.144467 
3650.000000	65.135359 
3649.000000	65.121531 
3648.000000	65.104889 
3647.000000	65.088105 
3646.000000	65.074539 
3645.000000	65.067481 
3644.000000	65.069508 
3643.000000	65.082049 
3642.000000	65.104985 
3641.000000	65.136671 
3640.000000	65.174150 
3639.000000	65.213680 
3638.000000	65.251398 
3637.000000	65.283846 
3636.000000	65.308904 
3635.000000	65.325903 
3634.000000	65.335369 
3633.000000	65.338349 
3632.000000	65.336418 
3631.000000	65.330767 
3630.000000	65.321898 
3629.000000	65.309476 
3628.000000	65.292739 
3627.000000	65.270709 
3626.000000	65.242910 
3625.000000	65.209650 
3624.000000	65.172243 
3623.000000	65.132904 
3622.000000	65.094375 
3621.000000	65.059471 
3620.000000	65.030384 
3619.000000	65.008664 
3618.000000	64.995026 
3617.000000	64.989566 
3616.000000	64.991617 
3615.000000	65.000796 
3614.000000	65.016794 
3613.000000	65.040111 
3612.000000	65.071010 
3611.000000	65.109920 
3610.000000	65.156674 
3609.000000	65.210342 
3608.000000	65.268707 
3607.000000	65.328359 
3606.000000	65.384840 
3605.000000	65.433335 
3604.000000	65.469288 
3603.000000	65.489077 
3602.000000	65.490818 
3601.000000	65.474677 
3600.000000	65.443086 
3599.000000	65.400576 
3598.000000	65.352749 
3597.000000	65.305829 
3596.000000	65.265083 
3595.000000	65.234398 
3594.000000	65.215015 
3593.000000	65.206027 
3592.000000	65.204048 
3591.000000	65.204334 
3590.000000	65.201926 
3589.000000	65.192747 
3588.000000	65.175104 
3587.000000	65.149164 
3586.000000	65.117979 
3585.000000	65.086221 
3584.000000	65.059781 
3583.000000	65.043902 
3582.000000	65.042471 
3581.000000	65.056967 
3580.000000	65.086627 
3579.000000	65.128540 
3578.000000	65.178179 
3577.000000	65.229988 
3576.000000	65.278315 
3575.000000	65.318202 
3574.000000	65.345430 
3573.000000	65.357017 
3572.000000	65.351319 
3571.000000	65.327954 
3570.000000	65.288019 
3569.000000	65.234231 
3568.000000	65.170502 
3567.000000	65.102434 
3566.000000	65.036654 
3565.000000	64.980769 
3564.000000	64.941763 
3563.000000	64.925813 
3562.000000	64.937043 
3561.000000	64.976644 
3560.000000	65.042757 
3559.000000	65.129923 
3558.000000	65.229773 
3557.000000	65.331649 
3556.000000	65.423989 
3555.000000	65.496301 
3554.000000	65.540647 
3553.000000	65.553450 
3552.000000	65.535759 
3551.000000	65.493512 
3550.000000	65.436244 
3549.000000	65.374922 
3548.000000	65.319705 
3547.000000	65.277862 
3546.000000	65.252590 
3545.000000	65.243053 
3544.000000	65.245223 
3543.000000	65.253400 
3542.000000	65.262222 
3541.000000	65.268039 
3540.000000	65.269851 
3539.000000	65.268826 
3538.000000	65.267467 
3537.000000	65.267705 
3536.000000	65.270352 
3535.000000	65.274238 
3534.000000	65.277051 
3533.000000	65.275788 
3532.000000	65.268635 
3531.000000	65.255761 
3530.000000	65.239787 
3529.000000	65.225219 
3528.000000	65.217113 
3527.000000	65.219330 
3526.000000	65.233707 
3525.000000	65.259337 
3524.000000	65.292406 
3523.000000	65.326905 
3522.000000	65.356445 
3521.000000	65.375590 
3520.000000	65.381026 
3519.000000	65.372014 
3518.000000	65.350008 
3517.000000	65.318298 
3516.000000	65.281009 
3515.000000	65.242433 
3514.000000	65.206623 
3513.000000	65.176630 
3512.000000	65.155172 
3511.000000	65.143799 
3510.000000	65.143203 
3509.000000	65.152788 
3508.000000	65.170812 
3507.000000	65.194511 
3506.000000	65.220141 
3505.000000	65.243625 
3504.000000	65.261435 
3503.000000	65.270662 
3502.000000	65.269374 
3501.000000	65.256857 
3500.000000	65.233707 
3499.000000	65.201854 
3498.000000	65.164160 
3497.000000	65.124106 
3496.000000	65.085268 
3495.000000	65.051102 
3494.000000	65.024328 
3493.000000	65.006661 
3492.000000	64.998340 
3491.000000	64.998054 
3490.000000	65.003228 
3489.000000	65.010070 
3488.000000	65.015053 
3487.000000	65.015554 
3486.000000	65.011048 
3485.000000	65.002727 
3484.000000	64.994168 
3483.000000	64.989852 
3482.000000	64.994955 
3481.000000	65.013241 
3480.000000	65.046954 
3479.000000	65.095901 
3478.000000	65.157604 
3477.000000	65.227699 
3476.000000	65.300655 
3475.000000	65.370655 
3474.000000	65.432214 
3473.000000	65.481019 
3472.000000	65.514230 
3471.000000	65.530800 
3470.000000	65.531420 
3469.000000	65.518283 
3468.000000	65.495085 
3467.000000	65.466284 
3466.000000	65.437030 
3465.000000	65.411567 
3464.000000	65.392875 
3463.000000	65.381717 
3462.000000	65.376806 
3461.000000	65.374755 
3460.000000	65.371155 
3459.000000	65.361475 
3458.000000	65.342521 
3457.000000	65.313148 
3456.000000	65.274453 
3455.000000	65.229988 
3454.000000	65.184426 
3453.000000	65.143275 
3452.000000	65.111207 
3451.000000	65.091538 
3450.000000	65.085411 
3449.000000	65.091729 
3448.000000	65.107536 
3447.000000	65.128564 
3446.000000	65.149950 
3445.000000	65.167212 
3444.000000	65.177083 
3443.000000	65.177512 
3442.000000	65.167689 
3441.000000	65.148186 
3440.000000	65.120697 
3439.000000	65.087556 
3438.000000	65.051579 
3437.000000	65.015697 
3436.000000	64.982986 
3435.000000	64.956331 
3434.000000	64.938449 
3433.000000	64.931130 
3432.000000	64.935517 
3431.000000	64.951539 
3430.000000	64.978098 
3429.000000	65.013098 
3428.000000	65.053606 
3427.000000	65.096187 
3426.000000	65.137505 
3425.000000	65.174412 
3424.000000	65.204524 
3423.000000	65.226364 
3422.000000	65.239357 
3421.000000	65.243601 
3420.000000	65.240097 
3419.000000	65.230536 
3418.000000	65.217041 
3417.000000	65.201854 
3416.000000	65.187168 
3415.000000	65.175056 
3414.000000	65.167284 
3413.000000	65.164995 
3412.000000	65.168547 
3411.000000	65.177464 
3410.000000	65.190577 
3409.000000	65.206170 
3408.000000	65.222072 
3407.000000	65.236234 
3406.000000	65.246844 
3405.000000	65.252852 
3404.000000	65.253829 
3403.000000	65.250039 
3402.000000	65.242314 
3401.000000	65.231800 
3400.000000	65.219736 
3399.000000	65.207529 
3398.000000	65.196585 
3397.000000	65.188264 
3396.000000	65.183854 
3395.000000	65.184450 
3394.000000	65.190935 
3393.000000	65.203475 
3392.000000	65.221524 
3391.000000	65.243434 
3390.000000	65.266633 
3389.000000	65.287876 
3388.000000	65.303587 
3387.000000	65.310621 
3386.000000	65.306591 
3385.000000	65.290570 
3384.000000	65.263009 
3383.000000	65.225386 
3382.000000	65.180063 
3381.000000	65.129685 
3380.000000	65.076994 
3379.000000	65.024542 
3378.000000	64.974617 
3377.000000	64.929294 
3376.000000	64.890575 
3375.000000	64.860320 
3374.000000	64.840316 
3373.000000	64.831566 
3372.000000	64.834713 
3371.000000	64.849066 
3370.000000	64.873337 
3369.000000	64.904952 
3368.000000	64.940977 
3367.000000	64.978194 
3366.000000	65.013718 
3365.000000	65.045213 
3364.000000	65.070891 
3363.000000	65.089392 
3362.000000	65.099978 
3361.000000	65.102505 
3360.000000	65.097451 
3359.000000	65.086007 
3358.000000	65.070223 
3357.000000	65.052461 
3356.000000	65.035271 
3355.000000	65.020918 
3354.000000	65.010881 
3353.000000	65.005588 
3352.000000	65.004634 
3351.000000	65.006875 
3350.000000	65.011072 
3349.000000	65.016126 
3348.000000	65.021252 
3347.000000	65.026068 
3346.000000	65.030789 
3345.000000	65.035676 
3344.000000	65.040636 
3343.000000	65.045332 
3342.000000	65.049195 
3341.000000	65.051865 
3340.000000	65.053200 
3339.000000	65.053915 
3338.000000	65.055322 
3337.000000	65.059185 
3336.000000	65.067291 
3335.000000	65.080595 
3334.000000	65.098881 
3333.000000	65.120649 
3332.000000	65.143370 
3331.000000	65.163874 
3330.000000	65.179038 
3329.000000	65.186595 
3328.000000	65.185451 
3327.000000	65.175890 
3326.000000	65.159511 
3325.000000	65.138459 
3324.000000	65.115523 
3323.000000	65.093255 
3322.000000	65.073919 
3321.000000	65.059232 
3320.000000	65.050339 
3319.000000	65.048289 
3318.000000	65.053629 
3317.000000	65.066456 
3316.000000	65.086269 
3315.000000	65.111732 
3314.000000	65.140867 
3313.000000	65.171122 
3312.000000	65.199756 
3311.000000	65.224146 
3310.000000	65.242481 
3309.000000	65.254092 
3308.000000	65.259408 
3307.000000	65.259742 
3306.000000	65.256834 
3305.000000	65.252280 
3304.000000	65.246939 
3303.000000	65.240836 
3302.000000	65.233254 
3301.000000	65.223288 
3300.000000	65.210294 
3299.000000	65.194678 
3298.000000	65.178108 
3297.000000	65.163540 
3296.000000	65.154671 
3295.000000	65.155029 
3294.000000	65.166807 
3293.000000	65.190386 
3292.000000	65.223932 
3291.000000	65.263581 
3290.000000	65.303683 
3289.000000	65.338087 
3288.000000	65.361618 
3287.000000	65.370440 
3286.000000	65.362882 
3285.000000	65.339446 
3284.000000	65.302467 
3283.000000	65.255570 
3282.000000	65.202927 
3281.000000	65.148735 
3280.000000	65.096569 
3279.000000	65.049409 
3278.000000	65.009689 
3277.000000	64.979004 
3276.000000	64.958286 
3275.000000	64.947915 
3274.000000	64.947748 
3273.000000	64.956617 
3272.000000	64.972710 
3271.000000	64.993548 
3270.000000	65.017127 
3269.000000	65.041184 
3268.000000	65.064740 
3267.000000	65.087795 
3266.000000	65.111494 
3265.000000	65.137648 
3264.000000	65.167880 
3263.000000	65.203022 
3262.000000	65.242338 
3261.000000	65.283489 
3260.000000	65.323042 
3259.000000	65.357041 
3258.000000	65.382051 
3257.000000	65.396046 
3256.000000	65.398883 
3255.000000	65.392279 
3254.000000	65.379190 
3253.000000	65.363168 
3252.000000	65.346908 
3251.000000	65.331673 
3250.000000	65.317249 
3249.000000	65.302348 
3248.000000	65.284872 
3247.000000	65.263104 
3246.000000	65.236687 
3245.000000	65.206766 
3244.000000	65.175867 
3243.000000	65.147233 
3242.000000	65.123987 
3241.000000	65.108442 
3240.000000	65.101623 
3239.000000	65.103125 
3238.000000	65.111112 
3237.000000	65.122938 
3236.000000	65.135931 
3235.000000	65.147590 
3234.000000	65.156054 
3233.000000	65.160322 
3232.000000	65.160107 
3231.000000	65.155744 
3230.000000	65.147757 
3229.000000	65.137100 
3228.000000	65.125107 
3227.000000	65.113353 
3226.000000	65.103578 
3225.000000	65.097856 
3224.000000	65.098261 
3223.000000	65.106606 
3222.000000	65.123915 
3221.000000	65.150189 
3220.000000	65.183877 
3219.000000	65.222454 
3218.000000	65.262126 
3217.000000	65.298485 
3216.000000	65.326952 
3215.000000	65.343618 
3214.000000	65.346050 
3213.000000	65.333414 
3212.000000	65.307092 
3211.000000	65.270376 
3210.000000	65.227937 
3209.000000	65.185260 
3208.000000	65.147447 
3207.000000	65.118813 
3206.000000	65.101838 
3205.000000	65.097260 
3204.000000	65.103602 
3203.000000	65.117740 
3202.000000	65.135526 
3201.000000	65.152716 
3200.000000	65.165424 
3199.000000	65.170931 
3198.000000	65.168476 
3197.000000	65.159273 
3196.000000	65.145921 
3195.000000	65.131831 
3194.000000	65.120482 
3193.000000	65.114736 
3192.000000	65.116000 
3191.000000	65.124201 
3190.000000	65.137958 
3189.000000	65.154814 
3188.000000	65.172386 
3187.000000	65.188336 
3186.000000	65.201187 
3185.000000	65.210247 
3184.000000	65.215611 
3183.000000	65.217709 
3182.000000	65.216827 
3181.000000	65.213060 
3180.000000	65.206360 
3179.000000	65.196156 
3178.000000	65.181946 
3177.000000	65.163278 
3176.000000	65.140390 
3175.000000	65.113067 
3174.000000	65.081095 
3173.000000	65.044093 
3172.000000	65.001940 
3171.000000	64.955067 
3170.000000	64.904999 
3169.000000	64.854431 
3168.000000	64.807295 
3167.000000	64.768218 
3166.000000	64.742088 
3165.000000	64.732336 
3164.000000	64.740896 
3163.000000	64.767265 
3162.000000	64.808964 
3161.000000	64.861488 
3160.000000	64.919686 
3159.000000	64.977931 
3158.000000	65.031385 
3157.000000	65.076303 
3156.000000	65.110397 
3155.000000	65.132999 
3154.000000	65.144634 
3153.000000	65.146565 
3152.000000	65.140986 
3151.000000	65.130734 
3150.000000	65.119004 
3149.000000	65.109133 
3148.000000	65.103793 
3147.000000	65.104603 
3146.000000	65.111804 
3145.000000	65.124297 
3144.000000	65.139269 
3143.000000	65.152859 
3142.000000	65.161037 
3141.000000	65.160632 
3140.000000	65.149545 
3139.000000	65.127921 
3138.000000	65.097904 
3137.000000	65.064001 
3136.000000	65.031790 
3135.000000	65.007352 
3134.000000	64.996266 
3133.000000	65.002036 
3132.000000	65.025615 
3131.000000	65.064287 
3130.000000	65.112590 
3129.000000	65.162467 
3128.000000	65.204906 
3127.000000	65.231585 
3126.000000	65.236139 
3125.000000	65.216517 
3124.000000	65.175366 
3123.000000	65.120029 
3122.000000	65.061068 
3121.000000	65.010428 
3120.000000	64.978909 
3119.000000	64.973735 
3118.000000	64.997148 
3117.000000	65.045857 
3116.000000	65.111804 
3115.000000	65.184092 
3114.000000	65.251493 
3113.000000	65.304803 
3112.000000	65.338897 
3111.000000	65.353202 
3110.000000	65.351533 
3109.000000	65.340757 
3108.000000	65.328645 
3107.000000	65.322017 
3106.000000	65.324783 
3105.000000	65.337681 
3104.000000	65.357804 
3103.000000	65.380620 
3102.000000	65.400457 
3101.000000	65.412712 
3100.000000	65.414476 
3099.000000	65.405416 
3098.000000	65.387582 
3097.000000	65.364766 
3096.000000	65.341281 
3095.000000	65.320801 
3094.000000	65.305805 
3093.000000	65.297245 
3092.000000	65.294694 
3091.000000	65.296697 
3090.000000	65.301513 
3089.000000	65.307664 
3088.000000	65.314078 
3087.000000	65.320467 
3086.000000	65.326714 
3085.000000	65.332889 
3084.000000	65.338420 
3083.000000	65.342426 
3082.000000	65.344023 
3081.000000	65.342402 
3080.000000	65.337204 
3079.000000	65.328598 
3078.000000	65.317654 
3077.000000	65.305948 
3076.000000	65.295219 
3075.000000	65.286946 
3074.000000	65.281939 
3073.000000	65.280151 
3072.000000	65.280938 
3071.000000	65.283155 
3070.000000	65.285849 
3069.000000	65.288233 
3068.000000	65.290141 
3067.000000	65.291786 
3066.000000	65.293359 
3065.000000	65.294933 
3064.000000	65.296101 
3063.000000	65.295863 
3062.000000	65.292692 
3061.000000	65.285181 
3060.000000	65.272402 
3059.000000	65.254497 
3058.000000	65.232753 
3057.000000	65.209460 
3056.000000	65.187358 
3055.000000	65.169167 
3054.000000	65.156912 
3053.000000	65.151286 
3052.000000	65.151715 
3051.000000	65.156483 
3050.000000	65.163612 
3049.000000	65.171051 
3048.000000	65.177559 
3047.000000	65.182757 
3046.000000	65.187311 
3045.000000	65.192508 
3044.000000	65.199780 
3043.000000	65.209841 
3042.000000	65.222716 
3041.000000	65.237522 
3040.000000	65.252852 
3039.000000	65.267014 
3038.000000	65.278649 
3037.000000	65.286850 
3036.000000	65.291190 
3035.000000	65.291619 
3034.000000	65.288257 
3033.000000	65.281009 
3032.000000	65.269613 
3031.000000	65.253400 
3030.000000	65.231871 
3029.000000	65.205001 
3028.000000	65.173411 
3027.000000	65.138459 
3026.000000	65.102362 
3025.000000	65.068078 
3024.000000	65.038633 
3023.000000	65.016961 
3022.000000	65.005087 
3021.000000	65.004348 
3020.000000	65.014863 
3019.000000	65.035915 
3018.000000	65.065622 
3017.000000	65.101528 
3016.000000	65.140724 
3015.000000	65.180301 
3014.000000	65.217328 
3013.000000	65.249586 
3012.000000	65.275645 
3011.000000	65.294957 
3010.000000	65.307807 
3009.000000	65.315389 
3008.000000	65.319156 
3007.000000	65.320920 
3006.000000	65.322041 
3005.000000	65.323710 
3004.000000	65.326333 
3003.000000	65.330171 
3002.000000	65.334916 
3001.000000	65.339994 
3000.000000	65.344572 
2999.000000	65.347957 
2998.000000	65.349268 
2997.000000	65.347790 
2996.000000	65.342855 
2995.000000	65.334081 
2994.000000	65.321302 
2993.000000	65.305018 
2992.000000	65.286087 
2991.000000	65.265893 
2990.000000	65.245842 
2989.000000	65.227341 
2988.000000	65.211153 
2987.000000	65.197300 
2986.000000	65.185141 
2985.000000	65.173411 
2984.000000	65.160679 
2983.000000	65.145850 
2982.000000	65.128588 
2981.000000	65.109610 
2980.000000	65.090632 
2979.000000	65.074157 
2978.000000	65.062832 
2977.000000	65.058875 
2976.000000	65.063285 
2975.000000	65.075421 
2974.000000	65.093350 
2973.000000	65.113782 
2972.000000	65.132665 
2971.000000	65.146207 
2970.000000	65.151429 
2969.000000	65.146923 
2968.000000	65.132951 
2967.000000	65.111422 
2966.000000	65.085458 
2965.000000	65.058755 
2964.000000	65.035009 
2963.000000	65.017175 
2962.000000	65.006947 
2961.000000	65.004754 
2960.000000	65.010046 
2959.000000	65.021657 
2958.000000	65.038180 
2957.000000	65.058326 
2956.000000	65.081071 
2955.000000	65.105628 
2954.000000	65.130972 
2953.000000	65.155744 
2952.000000	65.177798 
2951.000000	65.194654 
2950.000000	65.203356 
2949.000000	65.201401 
2948.000000	65.186834 
2947.000000	65.159130 
2946.000000	65.119409 
2945.000000	65.070486 
2944.000000	65.016984 
2943.000000	64.964485 
2942.000000	64.918923 
2941.000000	64.885687 
2940.000000	64.868402 
2939.000000	64.868330 
2938.000000	64.884018 
2937.000000	64.911580 
2936.000000	64.945411 
2935.000000	64.979147 
2934.000000	65.006947 
2933.000000	65.024638 
2932.000000	65.029907 
2931.000000	65.022468 
2930.000000	65.003919 
2929.000000	64.976906 
2928.000000	64.944314 
2927.000000	64.908456 
2926.000000	64.870929 
2925.000000	64.832615 
2924.000000	64.793920 
2923.000000	64.755201 
2922.000000	64.717006 
2921.000000	64.680719 
2920.000000	64.648079 
2919.000000	64.621758 
2918.000000	64.603853 
2917.000000	64.596724 
2916.000000	64.601969 
2915.000000	64.620590 
2914.000000	64.652299 
2913.000000	64.695787 
2912.000000	64.748191 
2911.000000	64.805650 
2910.000000	64.863562 
2909.000000	64.917421 
2908.000000	64.963293 
2907.000000	64.998793 
2906.000000	65.023350 
2905.000000	65.038466 
2904.000000	65.047216 
2903.000000	65.053558 
2902.000000	65.061211 
2901.000000	65.072846 
2900.000000	65.089392 
2899.000000	65.109848 
2898.000000	65.131545 
2897.000000	65.151262 
2896.000000	65.165877 
2895.000000	65.173482 
2894.000000	65.173602 
2893.000000	65.167379 
2892.000000	65.157151 
2891.000000	65.145802 
2890.000000	65.135908 
2889.000000	65.129446 
2888.000000	65.127277 
2887.000000	65.129256 
2886.000000	65.134239 
2885.000000	65.140748 
2884.000000	65.147018 
2883.000000	65.151572 
2882.000000	65.153455 
2881.000000	65.152335 
2880.000000	65.148544 
2879.000000	65.142941 
2878.000000	65.136861 
2877.000000	65.131783 
2876.000000	65.129017 
2875.000000	65.129256 
2874.000000	65.132141 
2873.000000	65.135979 
2872.000000	65.138030 
2871.000000	65.135073 
2870.000000	65.124082 
2869.000000	65.102982 
2868.000000	65.071344 
2867.000000	65.030455 
2866.000000	64.983248 
2865.000000	64.933681 
2864.000000	64.885616 
2863.000000	64.842557 
2862.000000	64.806747 
2861.000000	64.779567 
2860.000000	64.761209 
2859.000000	64.751434 
2858.000000	64.749789 
2857.000000	64.756178 
2856.000000	64.770507 
2855.000000	64.793062 
2854.000000	64.823484 
2853.000000	64.861154 
2852.000000	64.904379 
2851.000000	64.951419 
2850.000000	65.000176 
2849.000000	65.048885 
2848.000000	65.095925 
2847.000000	65.140008 
2846.000000	65.179586 
2845.000000	65.212965 
2844.000000	65.238070 
2843.000000	65.252876 
2842.000000	65.255618 
2841.000000	65.245842 
2840.000000	65.224194 
2839.000000	65.193414 
2838.000000	65.157246 
2837.000000	65.120744 
2836.000000	65.088725 
2835.000000	65.064883 
2834.000000	65.051460 
2833.000000	65.049004 
2832.000000	65.056276 
2831.000000	65.070915 
2830.000000	65.090203 
2829.000000	65.111708 
2828.000000	65.133571 
2827.000000	65.154671 
2826.000000	65.174269 
2825.000000	65.191578 
2824.000000	65.205955 
2823.000000	65.216660 
2822.000000	65.223026 
2821.000000	65.224599 
2820.000000	65.221428 
2819.000000	65.214157 
2818.000000	65.203785 
2817.000000	65.191483 
2816.000000	65.178656 
2815.000000	65.166497 
2814.000000	65.155649 
2813.000000	65.146684 
2812.000000	65.139961 
2811.000000	65.135860 
2810.000000	65.134954 
2809.000000	65.137934 
2808.000000	65.145516 
2807.000000	65.158081 
2806.000000	65.175342 
2805.000000	65.196180 
2804.000000	65.218234 
2803.000000	65.238571 
2802.000000	65.254116 
2801.000000	65.262150 
2800.000000	65.260839 
2799.000000	65.249824 
2798.000000	65.230345 
2797.000000	65.204858 
2796.000000	65.176773 
2795.000000	65.149497 
2794.000000	65.125823 
2793.000000	65.107369 
2792.000000	65.094590 
2791.000000	65.086746 
2790.000000	65.082478 
2789.000000	65.080404 
2788.000000	65.079522 
2787.000000	65.079355 
2786.000000	65.080118 
2785.000000	65.082263 
2784.000000	65.086269 
2783.000000	65.091872 
2782.000000	65.098595 
2781.000000	65.105462 
2780.000000	65.111780 
2779.000000	65.117168 
2778.000000	65.122103 
2777.000000	65.127992 
2776.000000	65.136790 
2775.000000	65.150332 
2774.000000	65.169787 
2773.000000	65.195012 
2772.000000	65.224194 
2771.000000	65.254235 
2770.000000	65.281152 
2769.000000	65.301227 
2768.000000	65.311908 
2767.000000	65.312480 
2766.000000	65.304255 
2765.000000	65.290188 
2764.000000	65.274429 
2763.000000	65.261149 
2762.000000	65.253543 
2761.000000	65.252661 
2760.000000	65.257978 
2759.000000	65.266799 
2758.000000	65.275502 
2757.000000	65.279936 
2756.000000	65.276908 
2755.000000	65.264511 
2754.000000	65.242838 
2753.000000	65.213871 
2752.000000	65.180850 
2751.000000	65.147900 
2750.000000	65.118837 
2749.000000	65.096735 
2748.000000	65.083193 
2747.000000	65.078353 
2746.000000	65.081167 
2745.000000	65.089678 
2744.000000	65.101623 
2743.000000	65.114974 
2742.000000	65.128445 
2741.000000	65.141439 
2740.000000	65.154147 
2739.000000	65.167140 
2738.000000	65.180969 
2737.000000	65.195846 
2736.000000	65.211176 
2735.000000	65.225648 
2734.000000	65.237259 
2733.000000	65.244007 
2732.000000	65.244388 
2731.000000	65.237784 
2730.000000	65.225005 
2729.000000	65.208196 
2728.000000	65.190672 
2727.000000	65.176105 
2726.000000	65.167784 
2725.000000	65.167760 
2724.000000	65.176534 
2723.000000	65.192818 
2722.000000	65.213823 
2721.000000	65.235948 
2720.000000	65.255808 
2719.000000	65.270662 
2718.000000	65.279245 
2717.000000	65.281820 
2716.000000	65.279889 
2715.000000	65.275597 
2714.000000	65.271067 
2713.000000	65.267896 
2712.000000	65.266823 
2711.000000	65.267825 
2710.000000	65.270209 
2709.000000	65.273141 
2708.000000	65.275835 
2707.000000	65.278100 
2706.000000	65.279912 
2705.000000	65.281629 
2704.000000	65.283703 
2703.000000	65.286326 
2702.000000	65.289378 
2701.000000	65.292000 
2700.000000	65.293097 
2699.000000	65.291428 
2698.000000	65.285897 
2697.000000	65.276002 
2696.000000	65.262007 
2695.000000	65.245079 
2694.000000	65.227127 
2693.000000	65.210199 
2692.000000	65.196228 
2691.000000	65.186762 
2690.000000	65.182375 
2689.000000	65.182805 
2688.000000	65.187072 
2687.000000	65.193796 
2686.000000	65.201425 
2685.000000	65.208840 
2684.000000	65.215420 
2683.000000	65.220808 
2682.000000	65.224957 
2681.000000	65.227675 
2680.000000	65.228533 
2679.000000	65.226674 
2678.000000	65.221428 
2677.000000	65.212225 
2676.000000	65.199184 
2675.000000	65.183520 
2674.000000	65.167188 
2673.000000	65.152335 
2672.000000	65.140962 
2671.000000	65.134358 
2670.000000	65.132546 
2669.000000	65.134453 
2668.000000	65.138125 
2667.000000	65.141057 
2666.000000	65.141344 
2665.000000	65.137767 
2664.000000	65.130496 
2663.000000	65.120792 
2662.000000	65.110683 
2661.000000	65.102195 
2660.000000	65.096759 
2659.000000	65.094876 
2658.000000	65.096020 
2657.000000	65.098881 
2656.000000	65.101790 
2655.000000	65.103483 
2654.000000	65.103459 
2653.000000	65.102338 
2652.000000	65.101718 
2651.000000	65.103912 
2650.000000	65.111231 
2649.000000	65.125203 
2648.000000	65.146422 
2647.000000	65.173649 
2646.000000	65.204191 
2645.000000	65.233874 
2644.000000	65.258240 
2643.000000	65.273094 
2642.000000	65.275430 
2641.000000	65.264153 
2640.000000	65.240502 
2639.000000	65.207624 
2638.000000	65.170240 
2637.000000	65.133357 
2636.000000	65.101480 
2635.000000	65.077519 
2634.000000	65.062355 
2633.000000	65.054750 
2632.000000	65.052056 
2631.000000	65.050911 
2630.000000	65.048408 
2629.000000	65.042710 
2628.000000	65.033864 
2627.000000	65.023279 
2626.000000	65.013694 
2625.000000	65.007710 
2624.000000	65.007615 
2623.000000	65.014457 
2622.000000	65.028071 
2621.000000	65.046763 
2620.000000	65.068244 
2619.000000	65.090131 
2618.000000	65.110468 
2617.000000	65.128135 
2616.000000	65.142488 
2615.000000	65.153503 
2614.000000	65.161132 
2613.000000	65.165162 
2612.000000	65.165328 
2611.000000	65.161371 
2610.000000	65.153431 
2609.000000	65.142321 
2608.000000	65.129590 
2607.000000	65.117287 
2606.000000	65.107893 
2605.000000	65.103673 
2604.000000	65.106081 
2603.000000	65.115499 
2602.000000	65.131330 
2601.000000	65.151977 
2600.000000	65.175271 
2599.000000	65.198683 
2598.000000	65.219950 
2597.000000	65.237140 
2596.000000	65.248656 
2595.000000	65.253400 
2594.000000	65.250754 
2593.000000	65.240788 
2592.000000	65.224146 
2591.000000	65.202236 
2590.000000	65.177345 
2589.000000	65.151906 
2588.000000	65.128326 
2587.000000	65.108370 
2586.000000	65.093111 
2585.000000	65.082716 
2584.000000	65.076708 
2583.000000	65.074205 
2582.000000	65.074348 
2581.000000	65.076446 
2580.000000	65.080261 
2579.000000	65.085721 
2578.000000	65.092921 
2577.000000	65.101838 
2576.000000	65.112447 
2575.000000	65.124344 
2574.000000	65.136861 
2573.000000	65.149188 
2572.000000	65.160298 
2571.000000	65.169310 
2570.000000	65.175700 
2569.000000	65.179061 
2568.000000	65.179371 
2567.000000	65.176725 
2566.000000	65.171933 
2565.000000	65.165996 
2564.000000	65.160632 
2563.000000	65.157604 
2562.000000	65.158629 
2561.000000	65.165138 
2560.000000	65.177965 
2559.000000	65.197134 
2558.000000	65.221500 
2557.000000	65.249156 
2556.000000	65.277504 
2555.000000	65.303850 
2554.000000	65.325593 
2553.000000	65.340614 
2552.000000	65.347695 
2551.000000	65.346670 
2550.000000	65.338444 
2549.000000	65.325045 
2548.000000	65.309333 
2547.000000	65.294671 
2546.000000	65.284323 
2545.000000	65.280914 
2544.000000	65.285873 
2543.000000	65.299010 
2542.000000	65.318703 
2541.000000	65.341711 
2540.000000	65.363740 
2539.000000	65.380358 
2538.000000	65.387678 
2537.000000	65.383648 
2536.000000	65.367960 
2535.000000	65.342783 
2534.000000	65.312266 
2533.000000	65.281891 
2532.000000	65.257263 
2531.000000	65.242838 
2530.000000	65.241169 
2529.000000	65.252327 
2528.000000	65.273904 
2527.000000	65.302014 
2526.000000	65.332269 
2525.000000	65.360665 
2524.000000	65.384459 
2523.000000	65.402913 
2522.000000	65.416741 
2521.000000	65.427541 
2520.000000	65.436720 
2519.000000	65.444779 
2518.000000	65.450835 
2517.000000	65.452837 
2516.000000	65.448021 
2515.000000	65.434145 
2514.000000	65.410017 
2513.000000	65.376687 
2512.000000	65.337038 
2511.000000	65.295481 
2510.000000	65.257048 
2509.000000	65.226101 
2508.000000	65.205955 
2507.000000	65.198063 
2506.000000	65.201973 
2505.000000	65.215802 
2504.000000	65.236544 
2503.000000	65.260934 
2502.000000	65.285539 
2501.000000	65.307450 
2500.000000	65.324091 
2499.000000	65.333271 
2498.000000	65.333509 
2497.000000	65.323948 
2496.000000	65.304803 
2495.000000	65.277457 
2494.000000	65.244388 
2493.000000	65.209102 
2492.000000	65.175771 
2491.000000	65.148425 
2490.000000	65.130329 
2489.000000	65.123200 
2488.000000	65.127253 
2487.000000	65.141034 
2486.000000	65.161752 
2485.000000	65.185999 
2484.000000	65.210270 
2483.000000	65.231800 
2482.000000	65.248489 
2481.000000	65.259385 
2480.000000	65.264105 
2479.000000	65.263056 
2478.000000	65.257215 
2477.000000	65.247941 
2476.000000	65.236783 
2475.000000	65.225529 
2474.000000	65.216135 
2473.000000	65.210390 
2472.000000	65.209746 
2471.000000	65.214633 
2470.000000	65.224504 
2469.000000	65.237712 
2468.000000	65.251779 
2467.000000	65.263867 
2466.000000	65.271306 
2465.000000	65.271997 
2464.000000	65.264940 
2463.000000	65.250301 
2462.000000	65.229439 
2461.000000	65.204334 
2460.000000	65.177512 
2459.000000	65.151357 
2458.000000	65.128111 
2457.000000	65.109729 
2456.000000	65.097975 
2455.000000	65.094041 
2454.000000	65.098738 
2453.000000	65.112257 
2452.000000	65.133833 
2451.000000	65.161800 
2450.000000	65.193247 
2449.000000	65.224099 
2448.000000	65.249919 
2447.000000	65.266776 
2446.000000	65.271949 
2445.000000	65.264391 
2444.000000	65.245413 
2443.000000	65.218472 
2442.000000	65.188455 
2441.000000	65.160799 
2440.000000	65.140318 
2439.000000	65.130043 
2438.000000	65.131163 
2437.000000	65.142250 
2436.000000	65.160036 
2435.000000	65.179800 
2434.000000	65.196561 
2433.000000	65.205693 
2432.000000	65.203809 
2431.000000	65.189409 
2430.000000	65.162706 
2429.000000	65.126514 
2428.000000	65.085005 
2427.000000	65.044546 
2426.000000	65.012049 
2425.000000	64.994907 
2424.000000	64.999389 
2423.000000	65.029811 
2422.000000	65.087246 
2421.000000	65.169095 
2420.000000	65.268993 
2419.000000	65.377497 
2418.000000	65.483641 
2417.000000	65.576362 
2416.000000	65.646433 
2415.000000	65.688037 
2414.000000	65.699315 
2413.000000	65.682721 
2412.000000	65.643811 
2411.000000	65.590190 
2410.000000	65.529513 
2409.000000	65.468907 
2408.000000	65.413141 
2407.000000	65.365147 
2406.000000	65.325450 
2405.000000	65.293574 
2404.000000	65.268206 
2403.000000	65.248155 
2402.000000	65.232801 
2401.000000	65.221595 
2400.000000	65.215206 
2399.000000	65.214300 
2398.000000	65.220046 
2397.000000	65.233087 
2396.000000	65.253400 
2395.000000	65.279936 
2394.000000	65.310740 
2393.000000	65.342926 
2392.000000	65.373253 
2391.000000	65.398597 
2390.000000	65.416383 
2389.000000	65.424966 
2388.000000	65.423965 
2387.000000	65.414190 
2386.000000	65.397286 
2385.000000	65.375089 
2384.000000	65.349626 
2383.000000	65.322589 
2382.000000	65.295314 
2381.000000	65.268802 
2380.000000	65.243768 
2379.000000	65.220975 
2378.000000	65.201711 
2377.000000	65.187263 
2376.000000	65.178585 
2375.000000	65.176177 
2374.000000	65.179872 
2373.000000	65.188932 
2372.000000	65.201854 
2371.000000	65.216851 
2370.000000	65.232181 
2369.000000	65.246105 
2368.000000	65.257334 
2367.000000	65.264821 
2366.000000	65.267944 
2365.000000	65.266489 
2364.000000	65.260553 
2363.000000	65.250658 
2362.000000	65.237808 
2361.000000	65.223526 
2360.000000	65.209865 
2359.000000	65.198945 
2358.000000	65.192794 
2357.000000	65.192842 
2356.000000	65.199828 
2355.000000	65.213274 
2354.000000	65.231823 
2353.000000	65.253353 
2352.000000	65.275406 
2351.000000	65.295696 
2350.000000	65.312600 
2349.000000	65.325069 
2348.000000	65.333032 
2347.000000	65.336871 
2346.000000	65.337538 
2345.000000	65.336132 
2344.000000	65.333700 
2343.000000	65.331172 
2342.000000	65.329432 
2341.000000	65.329265 
2340.000000	65.331363 
2339.000000	65.336227 
2338.000000	65.344047 
2337.000000	65.354561 
2336.000000	65.366864 
2335.000000	65.379619 
2334.000000	65.391016 
2333.000000	65.399098 
2332.000000	65.402245 
2331.000000	65.399575 
2330.000000	65.391039 
2329.000000	65.377449 
2328.000000	65.360355 
2327.000000	65.341567 
2326.000000	65.323042 
2325.000000	65.306043 
2324.000000	65.291285 
2323.000000	65.278768 
2322.000000	65.268111 
2321.000000	65.258669 
2320.000000	65.249800 
2319.000000	65.241217 
2318.000000	65.233063 
2317.000000	65.225958 
2316.000000	65.220475 
2315.000000	65.217399 
2314.000000	65.217304 
2313.000000	65.220570 
2312.000000	65.227174 
2311.000000	65.236830 
2310.000000	65.249085 
2309.000000	65.263366 
2308.000000	65.278959 
2307.000000	65.295243 
2306.000000	65.311503 
2305.000000	65.327072 
2304.000000	65.341186 
2303.000000	65.352916 
2302.000000	65.361332 
2301.000000	65.365648 
2300.000000	65.365481 
2299.000000	65.360784 
2298.000000	65.352225 
2297.000000	65.341067 
2296.000000	65.329384 
2295.000000	65.319085 
2294.000000	65.311956 
2293.000000	65.309286 
2292.000000	65.311264 
2291.000000	65.317201 
2290.000000	65.325236 
2289.000000	65.333056 
2288.000000	65.338277 
2287.000000	65.339016 
2286.000000	65.334296 
2285.000000	65.324282 
2284.000000	65.310120 
2283.000000	65.293598 
2282.000000	65.276813 
2281.000000	65.261602 
2280.000000	65.249323 
2279.000000	65.240907 
2278.000000	65.236544 
2277.000000	65.236186 
2276.000000	65.239691 
2275.000000	65.247082 
2274.000000	65.258336 
2273.000000	65.273427 
2272.000000	65.292263 
2271.000000	65.314531 
2270.000000	65.339207 
2269.000000	65.364861 
2268.000000	65.389275 
2267.000000	65.410017 
2266.000000	65.424561 
2265.000000	65.430855 
2264.000000	65.427684 
2263.000000	65.414977 
2262.000000	65.394210 
2261.000000	65.368008 
2260.000000	65.339970 
2259.000000	65.314078 
2258.000000	65.294075 
2257.000000	65.282845 
2256.000000	65.281677 
2255.000000	65.290093 
2254.000000	65.305924 
2253.000000	65.325593 
2252.000000	65.344953 
2251.000000	65.359830 
2250.000000	65.367150 
2249.000000	65.365004 
2248.000000	65.353250 
2247.000000	65.333271 
2246.000000	65.307712 
2245.000000	65.279793 
2244.000000	65.252780 
2243.000000	65.229344 
2242.000000	65.211319 
2241.000000	65.199422 
2240.000000	65.193533 
2239.000000	65.192842 
2238.000000	65.196585 
2237.000000	65.203833 
2236.000000	65.214228 
2235.000000	65.227508 
2234.000000	65.243482 
2233.000000	65.261864 
2232.000000	65.281867 
2231.000000	65.302157 
2230.000000	65.320992 
2229.000000	65.336561 
2228.000000	65.347242 
2227.000000	65.352106 
2226.000000	65.350937 
2225.000000	65.344405 
2224.000000	65.333914 
2223.000000	65.321421 
2222.000000	65.308952 
2221.000000	65.298390 
2220.000000	65.291118 
2219.000000	65.287947 
2218.000000	65.288972 
2217.000000	65.293908 
2216.000000	65.301942 
2215.000000	65.312314 
2214.000000	65.324139 
2213.000000	65.336799 
2212.000000	65.349841 
2211.000000	65.363025 
2210.000000	65.375971 
2209.000000	65.388298 
2208.000000	65.399432 
2207.000000	65.408444 
2206.000000	65.414357 
2205.000000	65.416145 
2204.000000	65.413022 
2203.000000	65.404725 
2202.000000	65.391850 
2201.000000	65.375733 
2200.000000	65.358400 
2199.000000	65.341973 
2198.000000	65.328359 
2197.000000	65.318703 
2196.000000	65.313386 
2195.000000	65.311932 
2194.000000	65.313220 
2193.000000	65.315699 
2192.000000	65.317821 
2191.000000	65.318083 
2190.000000	65.315437 
2189.000000	65.309166 
2188.000000	65.298986 
2187.000000	65.285420 
2186.000000	65.269398 
2185.000000	65.252256 
2184.000000	65.235424 
2183.000000	65.220260 
2182.000000	65.207767 
2181.000000	65.198540 
2180.000000	65.192675 
2179.000000	65.189981 
2178.000000	65.190339 
2177.000000	65.193653 
2176.000000	65.200495 
2175.000000	65.211749 
2174.000000	65.228581 
2173.000000	65.251803 
2172.000000	65.281391 
2171.000000	65.316152 
2170.000000	65.353631 
2169.000000	65.390157 
2168.000000	65.421748 
2167.000000	65.444540 
2166.000000	65.456175 
2165.000000	65.455389 
2164.000000	65.442371 
2163.000000	65.418219 
2162.000000	65.385055 
2161.000000	65.345287 
2160.000000	65.301752 
2159.000000	65.257310 
2158.000000	65.215229 
2157.000000	65.178728 
2156.000000	65.150856 
2155.000000	65.134191 
2154.000000	65.130376 
2153.000000	65.139675 
2152.000000	65.160775 
2151.000000	65.190815 
2150.000000	65.225720 
2149.000000	65.260839 
2148.000000	65.291523 
2147.000000	65.313959 
2146.000000	65.325641 
2145.000000	65.325760 
2144.000000	65.315151 
2143.000000	65.295982 
2142.000000	65.271258 
2141.000000	65.244507 
2140.000000	65.219283 
2139.000000	65.198707 
2138.000000	65.184998 
2137.000000	65.179610 
2136.000000	65.182924 
2135.000000	65.194225 
2134.000000	65.211725 
2133.000000	65.232896 
2132.000000	65.254902 
2131.000000	65.274858 
2130.000000	65.290451 
2129.000000	65.300107 
2128.000000	65.303516 
2127.000000	65.301489 
2126.000000	65.295815 
2125.000000	65.288805 
2124.000000	65.282750 
2123.000000	65.279459 
2122.000000	65.279936 
2121.000000	65.284156 
2120.000000	65.291190 
2119.000000	65.299415 
2118.000000	65.307283 
2117.000000	65.313696 
2116.000000	65.317988 
2115.000000	65.319991 
2114.000000	65.319871 
2113.000000	65.318059 
2112.000000	65.314769 
2111.000000	65.310072 
2110.000000	65.304040 
2109.000000	65.296792 
2108.000000	65.289068 
2107.000000	65.281748 
2106.000000	65.275955 
2105.000000	65.272521 
2104.000000	65.272235 
2103.000000	65.275263 
2102.000000	65.280675 
2101.000000	65.287208 
2100.000000	65.293741 
2099.000000	65.299081 
2098.000000	65.301966 
2097.000000	65.301465 
2096.000000	65.297269 
2095.000000	65.288949 
2094.000000	65.275859 
2093.000000	65.257167 
2092.000000	65.232038 
2091.000000	65.200304 
2090.000000	65.162730 
2089.000000	65.120911 
2088.000000	65.077161 
2087.000000	65.034651 
2086.000000	64.996576 
2085.000000	64.964866 
2084.000000	64.940404 
2083.000000	64.922451 
2082.000000	64.910268 
2081.000000	64.902091 
2080.000000	64.898037 
2079.000000	64.899444 
2078.000000	64.910817 
2077.000000	64.937448 
2076.000000	64.986038 
2075.000000	65.061926 
2074.000000	65.168285 
2073.000000	65.304112 
2072.000000	65.463972 
2071.000000	65.638279 
2070.000000	65.814065 
2069.000000	65.977263 
2068.000000	66.113829 
2067.000000	66.211867 
2066.000000	66.263055 
2065.000000	66.263890 
2064.000000	66.215395 
2063.000000	66.122961 
2062.000000	65.996003 
2061.000000	65.846323 
2060.000000	65.687108 
2059.000000	65.530586 
2058.000000	65.388083 
2057.000000	65.267777 
2056.000000	65.174746 
2055.000000	65.110397 
2054.000000	65.072798 
2053.000000	65.057897 
2052.000000	65.060043 
2051.000000	65.073752 
2050.000000	65.093350 
2049.000000	65.115022 
2048.000000	65.135860 
2047.000000	65.154719 
2046.000000	65.170621 
2045.000000	65.183568 
2044.000000	65.193676 
2043.000000	65.201425 
2042.000000	65.206933 
2041.000000	65.210843 
2040.000000	65.214180 
2039.000000	65.217995 
2038.000000	65.223050 
2037.000000	65.229988 
2036.000000	65.239048 
2035.000000	65.249633 
2034.000000	65.260362 
2033.000000	65.269446 
2032.000000	65.275287 
2031.000000	65.276908 
2030.000000	65.274238 
2029.000000	65.267753 
2028.000000	65.258693 
2027.000000	65.249013 
2026.000000	65.240907 
2025.000000	65.235638 
2024.000000	65.234041 
2023.000000	65.236353 
2022.000000	65.242362 
2021.000000	65.251255 
2020.000000	65.261936 
2019.000000	65.273475 
2018.000000	65.285038 
2017.000000	65.295958 
2016.000000	65.305685 
2015.000000	65.313625 
2014.000000	65.319347 
2013.000000	65.322446 
2012.000000	65.322637 
2011.000000	65.319776 
2010.000000	65.313839 
2009.000000	65.304803 
2008.000000	65.292763 
2007.000000	65.277695 
2006.000000	65.259456 
2005.000000	65.237760 
2004.000000	65.212440 
2003.000000	65.183615 
2002.000000	65.151953 
2001.000000	65.118885 
2000.000000	65.086364 
1999.000000	65.057063 
1998.000000	65.033698 
1997.000000	65.018987 
1996.000000	65.014767 
1995.000000	65.021944 
1994.000000	65.040016 
1993.000000	65.067386 
1992.000000	65.101361 
1991.000000	65.138745 
1990.000000	65.176153 
1989.000000	65.210628 
1988.000000	65.239834 
1987.000000	65.262484 
1986.000000	65.278077 
1985.000000	65.287089 
1984.000000	65.290594 
1983.000000	65.290117 
1982.000000	65.287303 
1981.000000	65.283918 
1980.000000	65.281176 
1979.000000	65.279746 
1978.000000	65.279483 
1977.000000	65.279722 
1976.000000	65.279459 
1975.000000	65.277719 
1974.000000	65.273761 
1973.000000	65.267586 
1972.000000	65.259814 
1971.000000	65.251517 
1970.000000	65.244197 
1969.000000	65.239024 
1968.000000	65.236902 
1967.000000	65.238142 
1966.000000	65.242481 
1965.000000	65.249300 
1964.000000	65.257787 
1963.000000	65.267062 
1962.000000	65.276503 
1961.000000	65.285563 
1960.000000	65.293908 
1959.000000	65.301275 
1958.000000	65.307378 
1957.000000	65.311789 
1956.000000	65.314245 
1955.000000	65.314650 
1954.000000	65.313291 
1953.000000	65.310645 
1952.000000	65.307641 
1951.000000	65.304946 
1950.000000	65.303134 
1949.000000	65.302133 
1948.000000	65.301156 
1947.000000	65.298557 
1946.000000	65.292596 
1945.000000	65.281462 
1944.000000	65.264201 
1943.000000	65.240812 
1942.000000	65.212702 
1941.000000	65.182399 
1940.000000	65.153002 
1939.000000	65.127682 
1938.000000	65.108895 
1937.000000	65.097975 
1936.000000	65.094995 
1935.000000	65.098810 
1934.000000	65.107345 
1933.000000	65.118265 
1932.000000	65.129542 
1931.000000	65.139603 
1930.000000	65.147638 
1929.000000	65.153694 
1928.000000	65.158343 
1927.000000	65.162563 
1926.000000	65.167140 
1925.000000	65.172791 
1924.000000	65.179872 
1923.000000	65.188527 
1922.000000	65.198540 
1921.000000	65.209269 
1920.000000	65.219998 
1919.000000	65.230035 
1918.000000	65.238833 
1917.000000	65.246224 
1916.000000	65.252375 
1915.000000	65.258049 
1914.000000	65.264225 
1913.000000	65.271759 
1912.000000	65.281081 
1911.000000	65.292191 
1910.000000	65.303993 
1909.000000	65.314769 
1908.000000	65.322327 
1907.000000	65.324568 
1906.000000	65.319991 
1905.000000	65.307927 
1904.000000	65.288829 
1903.000000	65.264391 
1902.000000	65.237164 
1901.000000	65.210223 
1900.000000	65.186476 
1899.000000	65.168333 
1898.000000	65.157389 
1897.000000	65.154337 
1896.000000	65.158891 
1895.000000	65.169954 
1894.000000	65.185761 
1893.000000	65.204167 
1892.000000	65.222716 
1891.000000	65.239119 
1890.000000	65.251326 
1889.000000	65.258026 
1888.000000	65.258526 
1887.000000	65.253186 
1886.000000	65.243172 
1885.000000	65.230274 
1884.000000	65.216660 
1883.000000	65.204334 
1882.000000	65.194702 
1881.000000	65.188241 
1880.000000	65.184736 
1879.000000	65.183091 
1878.000000	65.182042 
1877.000000	65.180397 
1876.000000	65.177369 
1875.000000	65.172743 
1874.000000	65.166759 
1873.000000	65.160036 
1872.000000	65.153312 
1871.000000	65.147113 
1870.000000	65.141630 
1869.000000	65.136933 
1868.000000	65.132856 
1867.000000	65.129399 
1866.000000	65.126824 
1865.000000	65.125703 
1864.000000	65.126991 
1863.000000	65.131497 
1862.000000	65.139985 
1861.000000	65.152430 
1860.000000	65.168190 
1859.000000	65.185904 
1858.000000	65.203666 
1857.000000	65.219378 
1856.000000	65.231037 
1855.000000	65.237021 
1854.000000	65.236711 
1853.000000	65.230345 
1852.000000	65.219426 
1851.000000	65.206265 
1850.000000	65.193629 
1849.000000	65.184068 
1848.000000	65.179324 
1847.000000	65.179944 
1846.000000	65.184831 
1845.000000	65.191721 
1844.000000	65.197539 
1843.000000	65.199518 
1842.000000	65.195775 
1841.000000	65.185976 
1840.000000	65.171432 
1839.000000	65.154814 
1838.000000	65.139532 
1837.000000	65.128850 
1836.000000	65.124917 
1835.000000	65.128564 
1834.000000	65.138864 
1833.000000	65.153765 
1832.000000	65.170431 
1831.000000	65.186262 
1830.000000	65.199422 
1829.000000	65.209317 
1828.000000	65.216326 
1827.000000	65.221309 
1826.000000	65.225172 
1825.000000	65.228247 
1824.000000	65.230035 
1823.000000	65.229225 
1822.000000	65.223908 
1821.000000	65.212559 
1820.000000	65.194535 
1819.000000	65.170526 
1818.000000	65.142846 
1817.000000	65.114831 
1816.000000	65.090155 
1815.000000	65.072250 
1814.000000	65.063381 
1813.000000	65.063929 
1812.000000	65.072679 
1811.000000	65.086889 
1810.000000	65.103459 
1809.000000	65.119743 
1808.000000	65.134358 
1807.000000	65.147137 
1806.000000	65.159273 
1805.000000	65.172481 
1804.000000	65.188312 
1803.000000	65.207457 
1802.000000	65.229177 
1801.000000	65.251612 
1800.000000	65.271806 
1799.000000	65.286707 
1798.000000	65.293598 
1797.000000	65.290808 
1796.000000	65.278053 
1795.000000	65.256571 
1794.000000	65.228843 
1793.000000	65.198373 
1792.000000	65.169239 
1791.000000	65.145230 
1790.000000	65.129899 
1789.000000	65.125489 
1788.000000	65.133094 
1787.000000	65.151834 
1786.000000	65.178966 
1785.000000	65.210080 
1784.000000	65.239691 
1783.000000	65.262484 
1782.000000	65.274047 
1781.000000	65.272212 
1780.000000	65.257215 
1779.000000	65.232205 
1778.000000	65.202260 
1777.000000	65.173029 
1776.000000	65.149664 
1775.000000	65.135526 
1774.000000	65.131831 
1773.000000	65.137171 
1772.000000	65.148305 
1771.000000	65.161108 
1770.000000	65.171718 
1769.000000	65.177321 
1768.000000	65.176582 
1767.000000	65.169787 
1766.000000	65.158510 
1765.000000	65.144538 
1764.000000	65.129590 
1763.000000	65.114498 
1762.000000	65.099382 
1761.000000	65.084147 
1760.000000	65.068793 
1759.000000	65.053796 
1758.000000	65.040278 
1757.000000	65.030312 
1756.000000	65.025877 
1755.000000	65.028500 
1754.000000	65.038394 
1753.000000	65.054178 
1752.000000	65.072965 
1751.000000	65.091013 
1750.000000	65.104460 
1749.000000	65.110206 
1748.000000	65.106558 
1747.000000	65.093636 
1746.000000	65.073060 
1745.000000	65.047478 
1744.000000	65.019583 
1743.000000	64.991259 
1742.000000	64.963388 
1741.000000	64.935898 
1740.000000	64.908242 
1739.000000	64.880037 
1738.000000	64.851713 
1737.000000	64.824962 
1736.000000	64.802479 
1735.000000	64.787864 
1734.000000	64.784431 
1733.000000	64.794850 
1732.000000	64.820003 
1731.000000	64.858889 
1730.000000	64.908885 
1729.000000	64.965534 
1728.000000	65.023255 
1727.000000	65.075850 
1726.000000	65.117835 
1725.000000	65.144872 
1724.000000	65.154433 
1723.000000	65.146422 
1722.000000	65.123033 
1721.000000	65.088510 
1720.000000	65.048575 
1719.000000	65.009260 
1718.000000	64.976143 
1717.000000	64.953064 
1716.000000	64.941978 
1715.000000	64.942383 
1714.000000	64.951682 
1713.000000	64.965701 
1712.000000	64.979815 
1711.000000	64.989852 
1710.000000	64.993238 
1709.000000	64.989042 
1708.000000	64.978718 
1707.000000	64.965033 
1706.000000	64.952278 
1705.000000	64.944839 
1704.000000	64.946675 
1703.000000	64.960384 
1702.000000	64.986586 
1701.000000	65.024018 
1700.000000	65.069079 
1699.000000	65.116953 
1698.000000	65.161991 
1697.000000	65.199255 
1696.000000	65.224719 
1695.000000	65.236139 
1694.000000	65.233206 
1693.000000	65.217494 
1692.000000	65.191936 
1691.000000	65.160298 
1690.000000	65.126538 
1689.000000	65.094470 
1688.000000	65.067362 
1687.000000	65.047550 
1686.000000	65.036296 
1685.000000	65.033698 
1684.000000	65.038895 
1683.000000	65.050292 
1682.000000	65.065908 
1681.000000	65.084028 
1680.000000	65.103173 
1679.000000	65.122389 
1678.000000	65.141344 
1677.000000	65.160036 
1676.000000	65.178608 
1675.000000	65.196824 
1674.000000	65.213918 
1673.000000	65.228581 
1672.000000	65.239071 
1671.000000	65.243625 
1670.000000	65.241312 
1669.000000	65.231847 
1668.000000	65.216279 
1667.000000	65.196514 
1666.000000	65.175151 
1665.000000	65.154814 
1664.000000	65.137529 
1663.000000	65.124511 
1662.000000	65.115928 
1661.000000	65.111041 
1660.000000	65.108776 
1659.000000	65.107607 
1658.000000	65.106272 
1657.000000	65.104007 
1656.000000	65.100598 
1655.000000	65.096282 
1654.000000	65.091729 
1653.000000	65.087532 
1652.000000	65.084195 
1651.000000	65.081906 
1650.000000	65.080213 
1649.000000	65.078425 
1648.000000	65.075397 
1647.000000	65.070295 
1646.000000	65.062451 
1645.000000	65.051627 
1644.000000	65.038299 
1643.000000	65.023612 
1642.000000	65.009355 
1641.000000	64.997410 
1640.000000	64.989423 
1639.000000	64.986133 
1638.000000	64.987444 
1637.000000	64.992189 
1636.000000	64.998435 
1635.000000	65.003991 
1634.000000	65.006971 
1633.000000	65.006160 
1632.000000	65.001153 
1631.000000	64.992356 
1630.000000	64.980912 
1629.000000	64.968609 
1628.000000	64.957451 
1627.000000	64.949202 
1626.000000	64.945435 
1625.000000	64.946722 
1624.000000	64.952683 
1623.000000	64.961791 
1622.000000	64.971590 
1621.000000	64.979195 
1620.000000	64.982104 
1619.000000	64.978742 
1618.000000	64.968967 
1617.000000	64.954257 
1616.000000	64.937567 
1615.000000	64.922451 
1614.000000	64.912390 
1613.000000	64.909768 
1612.000000	64.915251 
1611.000000	64.927697 
1610.000000	64.944601 
1609.000000	64.962863 
1608.000000	64.979696 
1607.000000	64.993548 
1606.000000	65.004539 
1605.000000	65.014171 
1604.000000	65.024685 
1603.000000	65.038323 
1602.000000	65.056180 
1601.000000	65.077829 
1600.000000	65.101075 
1599.000000	65.122628 
1598.000000	65.138626 
1597.000000	65.145802 
1596.000000	65.142011 
1595.000000	65.127015 
1594.000000	65.102386 
1593.000000	65.071201 
1592.000000	65.037441 
1591.000000	65.004992 
1590.000000	64.977264 
1589.000000	64.956617 
1588.000000	64.944100 
1587.000000	64.939689 
1586.000000	64.942336 
1585.000000	64.950275 
1584.000000	64.961361 
1583.000000	64.973402 
1582.000000	64.984321 
1581.000000	64.992380 
1580.000000	64.996433 
1579.000000	64.996099 
1578.000000	64.991879 
1577.000000	64.984965 
1576.000000	64.977025 
1575.000000	64.969706 
1574.000000	64.964437 
1573.000000	64.961862 
1572.000000	64.961743 
1571.000000	64.962959 
1570.000000	64.963817 
1569.000000	64.962625 
1568.000000	64.958286 
1567.000000	64.950489 
1566.000000	64.939999 
1565.000000	64.928460 
1564.000000	64.918041 
1563.000000	64.910936 
1562.000000	64.908480 
1561.000000	64.911079 
1560.000000	64.918398 
1559.000000	64.929199 
1558.000000	64.941906 
1557.000000	64.955067 
1556.000000	64.967799 
1555.000000	64.979720 
1554.000000	64.990925 
1553.000000	65.001511 
1552.000000	65.011191 
1551.000000	65.019059 
1550.000000	65.023636 
1549.000000	65.023064 
1548.000000	65.015649 
1547.000000	65.000486 
1546.000000	64.978027 
1545.000000	64.950203 
1544.000000	64.920401 
1543.000000	64.892721 
1542.000000	64.871454 
1541.000000	64.860367 
1540.000000	64.862036 
1539.000000	64.877438 
1538.000000	64.905881 
1537.000000	64.945387 
1536.000000	64.992785 
1535.000000	65.044045 
1534.000000	65.094971 
1533.000000	65.141582 
1532.000000	65.180468 
1531.000000	65.209054 
1530.000000	65.226006 
1529.000000	65.231156 
1528.000000	65.225672 
1527.000000	65.211677 
1526.000000	65.191817 
1525.000000	65.168905 
1524.000000	65.145349 
1523.000000	65.122985 
1522.000000	65.102648 
1521.000000	65.084624 
1520.000000	65.068769 
1519.000000	65.054988 
1518.000000	65.043354 
1517.000000	65.034604 
1516.000000	65.029716 
1515.000000	65.030121 
1514.000000	65.036678 
1513.000000	65.049743 
1512.000000	65.068769 
1511.000000	65.092658 
1510.000000	65.119528 
1509.000000	65.147447 
1508.000000	65.174698 
1507.000000	65.199947 
1506.000000	65.222215 
1505.000000	65.240740 
1504.000000	65.254807 
1503.000000	65.263462 
1502.000000	65.265536 
1501.000000	65.259957 
1500.000000	65.246176 
1499.000000	65.224814 
1498.000000	65.197825 
1497.000000	65.168762 
1496.000000	65.142202 
1495.000000	65.122842 
1494.000000	65.114378 
1493.000000	65.118360 
1492.000000	65.133571 
1491.000000	65.156173 
1490.000000	65.180850 
1489.000000	65.201663 
1488.000000	65.213799 
1487.000000	65.214705 
1486.000000	65.204596 
1485.000000	65.185809 
1484.000000	65.162324 
1483.000000	65.138030 
1482.000000	65.116190 
1481.000000	65.098619 
1480.000000	65.085673 
1479.000000	65.076494 
1478.000000	65.069913 
1477.000000	65.065169 
1476.000000	65.062022 
1475.000000	65.060973 
1474.000000	65.062618 
1473.000000	65.067386 
1472.000000	65.074682 
1471.000000	65.082859 
1470.000000	65.089249 
1469.000000	65.090894 
1468.000000	65.085554 
1467.000000	65.072607 
1466.000000	65.053462 
1465.000000	65.031361 
1464.000000	65.011167 
1463.000000	64.997982 
1462.000000	64.995455 
1461.000000	65.004849 
1460.000000	65.024709 
1459.000000	65.051031 
1458.000000	65.078759 
1457.000000	65.102624 
1456.000000	65.118455 
1455.000000	65.123796 
1454.000000	65.118479 
1453.000000	65.104079 
1452.000000	65.082979 
1451.000000	65.057992 
1450.000000	65.031528 
1449.000000	65.005397 
1448.000000	64.981007 
1447.000000	64.959478 
1446.000000	64.941930 
1445.000000	64.929795 
1444.000000	64.924669 
1443.000000	64.928150 
1442.000000	64.941596 
1441.000000	64.965510 
1440.000000	64.999461 
1439.000000	65.042304 
1438.000000	65.091800 
1437.000000	65.145230 
1436.000000	65.198850 
1435.000000	65.248608 
1434.000000	65.289592 
1433.000000	65.317225 
1432.000000	65.327262 
1431.000000	65.317130 
1430.000000	65.285992 
1429.000000	65.235924 
1428.000000	65.170979 
1427.000000	65.097355 
1426.000000	65.021681 
1425.000000	64.950466 
1424.000000	64.888739 
1423.000000	64.839649 
1422.000000	64.804244 
1421.000000	64.781689 
1420.000000	64.770150 
1419.000000	64.767360 
1418.000000	64.771461 
1417.000000	64.781188 
1416.000000	64.795732 
1415.000000	64.814710 
1414.000000	64.837384 
1413.000000	64.862489 
1412.000000	64.888143 
1411.000000	64.912319 
1410.000000	64.932990 
1409.000000	64.948558 
1408.000000	64.958572 
1407.000000	64.963412 
1406.000000	64.964199 
1405.000000	64.962387 
1404.000000	64.959573 
1403.000000	64.956736 
1402.000000	64.954185 
1401.000000	64.951705 
1400.000000	64.948773 
1399.000000	64.944887 
1398.000000	64.940381 
1397.000000	64.935851 
1396.000000	64.932441 
1395.000000	64.931321 
1394.000000	64.933705 
1393.000000	64.939904 
1392.000000	64.949011 
1391.000000	64.959287 
1390.000000	64.968514 
1389.000000	64.974236 
1388.000000	64.974594 
1387.000000	64.968609 
1386.000000	64.956641 
1385.000000	64.940166 
1384.000000	64.921474 
1383.000000	64.903092 
1382.000000	64.887070 
1381.000000	64.874792 
1380.000000	64.866518 
1379.000000	64.861559 
1378.000000	64.858627 
1377.000000	64.856433 
1376.000000	64.854264 
1375.000000	64.851975 
1374.000000	64.850330 
1373.000000	64.850783 
1372.000000	64.855074 
1371.000000	64.864659 
1370.000000	64.880132 
1369.000000	64.901137 
1368.000000	64.926075 
1367.000000	64.952421 
1366.000000	64.977240 
1365.000000	64.997649 
1364.000000	65.011382 
1363.000000	65.017318 
1362.000000	65.015482 
1361.000000	65.007019 
1360.000000	64.994120 
1359.000000	64.979243 
1358.000000	64.964890 
1357.000000	64.952874 
1356.000000	64.944171 
1355.000000	64.938759 
1354.000000	64.935803 
1353.000000	64.933943 
1352.000000	64.931654 
1351.000000	64.927935 
1350.000000	64.922142 
1349.000000	64.914655 
1348.000000	64.906454 
1347.000000	64.899253 
1346.000000	64.894914 
1345.000000	64.895033 
1344.000000	64.900445 
1343.000000	64.911031 
1342.000000	64.925694 
1341.000000	64.942550 
1340.000000	64.959383 
1339.000000	64.974308 
1338.000000	64.986300 
1337.000000	64.995431 
1336.000000	65.002632 
1335.000000	65.009474 
1334.000000	65.017485 
1333.000000	65.027332 
1332.000000	65.038490 
1331.000000	65.049338 
1330.000000	65.057396 
1329.000000	65.060329 
1328.000000	65.056490 
1327.000000	65.045952 
1326.000000	65.030550 
1325.000000	65.013694 
1324.000000	64.999365 
1323.000000	64.991044 
1322.000000	64.990687 
1321.000000	64.998197 
1320.000000	65.011477 
1319.000000	65.027141 
1318.000000	65.041399 
1317.000000	65.051293 
1316.000000	65.055274 
1315.000000	65.053391 
1314.000000	65.046977 
1313.000000	65.038013 
1312.000000	65.028119 
1311.000000	65.018153 
1310.000000	65.007853 
1309.000000	64.996004 
1308.000000	64.981317 
1307.000000	64.963006 
1306.000000	64.941191 
1305.000000	64.917206 
1304.000000	64.893364 
1303.000000	64.872407 
1302.000000	64.856505 
1301.000000	64.846873 
1300.000000	64.843392 
1299.000000	64.844822 
1298.000000	64.849114 
1297.000000	64.854121 
1296.000000	64.858222 
1295.000000	64.860630 
1294.000000	64.861369 
1293.000000	64.861345 
1292.000000	64.861536 
1291.000000	64.863157 
1290.000000	64.866709 
1289.000000	64.872217 
1288.000000	64.879012 
1287.000000	64.886045 
1286.000000	64.892339 
1285.000000	64.897060 
1284.000000	64.899826 
1283.000000	64.900612 
1282.000000	64.899659 
1281.000000	64.897060 
1280.000000	64.892840 
1279.000000	64.886903 
1278.000000	64.879107 
1277.000000	64.869427 
1276.000000	64.858341 
1275.000000	64.846658 
1274.000000	64.835524 
1273.000000	64.825868 
1272.000000	64.818143 
1271.000000	64.812135 
1270.000000	64.807009 
1269.000000	64.801573 
1268.000000	64.794635 
1267.000000	64.785504 
1266.000000	64.774441 
1265.000000	64.762783 
1264.000000	64.752531 
1263.000000	64.745998 
1262.000000	64.745044 
1261.000000	64.750432 
1260.000000	64.761662 
1259.000000	64.777040 
1258.000000	64.794111 
1257.000000	64.810299 
1256.000000	64.823555 
1255.000000	64.832806 
1254.000000	64.837837 
1253.000000	64.839076 
1252.000000	64.837145 
1251.000000	64.832806 
1250.000000	64.826774 
1249.000000	64.819788 
1248.000000	64.812755 
1247.000000	64.806556 
1246.000000	64.802265 
1245.000000	64.800572 
1244.000000	64.801907 
1243.000000	64.805912 
1242.000000	64.811706 
1241.000000	64.817976 
1240.000000	64.823102 
1239.000000	64.825797 
1238.000000	64.825272 
1237.000000	64.821505 
1236.000000	64.815306 
1235.000000	64.808154 
1234.000000	64.801812 
1233.000000	64.798188 
1232.000000	64.798784 
1231.000000	64.804911 
1230.000000	64.817285 
1229.000000	64.836025 
1228.000000	64.860701 
1227.000000	64.889883 
1226.000000	64.921236 
1225.000000	64.951610 
1224.000000	64.977288 
1223.000000	64.994668 
1222.000000	65.000891 
1221.000000	64.994430 
1220.000000	64.975380 
1219.000000	64.945578 
1218.000000	64.908075 
1217.000000	64.866828 
1216.000000	64.825868 
1215.000000	64.788579 
1214.000000	64.757347 
1213.000000	64.733457 
1212.000000	64.717078 
1211.000000	64.707660 
1210.000000	64.704227 
1209.000000	64.705610 
1208.000000	64.710783 
1207.000000	64.718675 
1206.000000	64.728379 
1205.000000	64.738821 
1204.000000	64.749264 
1203.000000	64.759039 
1202.000000	64.767956 
1201.000000	64.776062 
1200.000000	64.783501 
1199.000000	64.790320 
1198.000000	64.796376 
1197.000000	64.801311 
1196.000000	64.804577 
1195.000000	64.805817 
1194.000000	64.804840 
1193.000000	64.801812 
1192.000000	64.797735 
1191.000000	64.793825 
1190.000000	64.791464 
1189.000000	64.791440 
1188.000000	64.794182 
1187.000000	64.799308 
1186.000000	64.805746 
1185.000000	64.811873 
1184.000000	64.816117 
1183.000000	64.817094 
1182.000000	64.814305 
1181.000000	64.807891 
1180.000000	64.798569 
1179.000000	64.787530 
1178.000000	64.775991 
1177.000000	64.765095 
1176.000000	64.755773 
1175.000000	64.748954 
1174.000000	64.745330 
1173.000000	64.745616 
1172.000000	64.750266 
1171.000000	64.759492 
1170.000000	64.772963 
1169.000000	64.789628 
1168.000000	64.807510 
1167.000000	64.824104 
1166.000000	64.836597 
1165.000000	64.842224 
1164.000000	64.839029 
1163.000000	64.826202 
1162.000000	64.804434 
1161.000000	64.775776 
1160.000000	64.743065 
1159.000000	64.709496 
1158.000000	64.677977 
1157.000000	64.650702 
1156.000000	64.628720 
1155.000000	64.612054 
1154.000000	64.599943 
1153.000000	64.591336 
1152.000000	64.585351 
1151.000000	64.581608 
1150.000000	64.580488 
1149.000000	64.582729 
1148.000000	64.589357 
1147.000000	64.601016 
1146.000000	64.617609 
1145.000000	64.637994 
1144.000000	64.660453 
1143.000000	64.682960 
1142.000000	64.703679 
1141.000000	64.721488 
1140.000000	64.736580 
1139.000000	64.749956 
1138.000000	64.762830 
1137.000000	64.775967 
1136.000000	64.789652 
1135.000000	64.802813 
1134.000000	64.813232 
1133.000000	64.817953 
1132.000000	64.814591 
1131.000000	64.801621 
1130.000000	64.779329 
1129.000000	64.749765 
1128.000000	64.716339 
1127.000000	64.683270 
1126.000000	64.654612 
1125.000000	64.633369 
1124.000000	64.620852 
1123.000000	64.616799 
1122.000000	64.619827 
1121.000000	64.628005 
1120.000000	64.639639 
1119.000000	64.653825 
1118.000000	64.671015 
1117.000000	64.692211 
1116.000000	64.719128 
1115.000000	64.753341 
1114.000000	64.796280 
1113.000000	64.848303 
1112.000000	64.908981 
1111.000000	64.977455 
1110.000000	65.052199 
1109.000000	65.131449 
1108.000000	65.212488 
1107.000000	65.291881 
1106.000000	65.364789 
1105.000000	65.426063 
1104.000000	65.469694 
1103.000000	65.490484 
1102.000000	65.484356 
1101.000000	65.450263 
1100.000000	65.389966 
1099.000000	65.308594 
1098.000000	65.213751 
1097.000000	65.114784 
1096.000000	65.020942 
1095.000000	64.939880 
1094.000000	64.876699 
1093.000000	64.833378 
1092.000000	64.809155 
1091.000000	64.800953 
1090.000000	64.804244 
1089.000000	64.813923 
1088.000000	64.825034 
1087.000000	64.833879 
1086.000000	64.837145 
1085.000000	64.833354 
1084.000000	64.822340 
1083.000000	64.805650 
1082.000000	64.786052 
1081.000000	64.767217 
1080.000000	64.752769 
1079.000000	64.745616 
1078.000000	64.747214 
1077.000000	64.757132 
1076.000000	64.773678 
1075.000000	64.793801 
1074.000000	64.813637 
1073.000000	64.829683 
1072.000000	64.839649 
1071.000000	64.842391 
1070.000000	64.837956 
1069.000000	64.826965 
1068.000000	64.810109 
1067.000000	64.787912 
1066.000000	64.760565 
1065.000000	64.728093 
1064.000000	64.690899 
1063.000000	64.650344 
1062.000000	64.609503 
1061.000000	64.572310 
1060.000000	64.543867 
1059.000000	64.528608 
1058.000000	64.530229 
1057.000000	64.551281 
1056.000000	64.592242 
1055.000000	64.651155 
1054.000000	64.723467 
1053.000000	64.802622 
1052.000000	64.880442 
1051.000000	64.948344 
1050.000000	64.998269 
1049.000000	65.023756 
1048.000000	65.021371 
1047.000000	64.991712 
1046.000000	64.938664 
1045.000000	64.868927 
1044.000000	64.791083 
1043.000000	64.714384 
1042.000000	64.647078 
1041.000000	64.595317 
1040.000000	64.562225 
1039.000000	64.548015 
1038.000000	64.549922 
1037.000000	64.562892 
1036.000000	64.580488 
1035.000000	64.595627 
1034.000000	64.601421 
1033.000000	64.592170 
1032.000000	64.563417 
1031.000000	64.513421 
1030.000000	64.442515 
1029.000000	64.354658 
1028.000000	64.255738 
1027.000000	64.154720 
1026.000000	64.061880 
1025.000000	63.988423 
1024.000000	63.943934 
1023.000000	63.935756 
1022.000000	63.966989 
1021.000000	64.036369 
1020.000000	64.137434 
1019.000000	64.260578 
1018.000000	64.394116 
1017.000000	64.526247 
1016.000000	64.646506 
1015.000000	64.746904 
1014.000000	64.822506 
1013.000000	64.871621 
1012.000000	64.895367 
1011.000000	64.897060 
1010.000000	64.881205 
1009.000000	64.853668 
1008.000000	64.819788 
1007.000000	64.784121 
1006.000000	64.749193 
1005.000000	64.716029 
1004.000000	64.683723 
1003.000000	64.650774 
1002.000000	64.615821 
1001.000000	64.578080 
1000.000000	64.538884 
999.000000	 64.501214 
998.000000	 64.469814 
997.000000	 64.449810 
996.000000	 64.445781 
995.000000	 64.459681 
994.000000	 64.490795 
993.000000	 64.535474 
992.000000	 64.587688 
991.000000	 64.640307 
990.000000	 64.686465 
989.000000	 64.720821 
988.000000	 64.740324 
987.000000	 64.744472 
986.000000	 64.734458 
985.000000	 64.712524 
984.000000	 64.681553 
983.000000	 64.644360 
982.000000	 64.603590 
981.000000	 64.560842 
980.000000	 64.517378 
979.000000	 64.473628 
978.000000	 64.429688 
977.000000	 64.385581 
976.000000	 64.340949 
975.000000	 64.296340 
974.000000	 64.252591 
973.000000	 64.212107 
972.000000	 64.178180 
971.000000	 64.155435 
970.000000	 64.148283 
969.000000	 64.160442 
968.000000	 64.193415 
967.000000	 64.245867 
966.000000	 64.313149 
965.000000	 64.388084 
964.000000	 64.461922 
963.000000	 64.526367 
962.000000	 64.574933 
961.000000	 64.604520 
960.000000	 64.615702 
959.000000	 64.612412 
958.000000	 64.600467 
957.000000	 64.586138 
956.000000	 64.574551 
955.000000	 64.568614 
954.000000	 64.568686 
953.000000	 64.572787 
952.000000	 64.577174 
951.000000	 64.578342 
950.000000	 64.573407 
949.000000	 64.560651 
948.000000	 64.539742 
947.000000	 64.511632 
946.000000	 64.478158 
945.000000	 64.441370 
944.000000	 64.403772 
943.000000	 64.367699 
942.000000	 64.335918 
941.000000	 64.311265 
940.000000	 64.296436 
939.000000	 64.293575 
938.000000	 64.303660 
937.000000	 64.325857 
936.000000	 64.357399 
935.000000	 64.393639 
934.000000	 64.429306 
933.000000	 64.459586 
932.000000	 64.480996 
931.000000	 64.491820 
930.000000	 64.493155 
929.000000	 64.488577 
928.000000	 64.482665 
927.000000	 64.479994 
926.000000	 64.484047 
925.000000	 64.496445 
924.000000	 64.516782 
923.000000	 64.542770 
922.000000	 64.571261 
921.000000	 64.598512 
920.000000	 64.621400 
919.000000	 64.637351 
918.000000	 64.644646 
917.000000	 64.642667 
916.000000	 64.631295 
915.000000	 64.611649 
914.000000	 64.586138 
913.000000	 64.558076 
912.000000	 64.532041 
911.000000	 64.511871 
910.000000	 64.500355 
909.000000	 64.497494 
908.000000	 64.500832 
907.000000	 64.504671 
906.000000	 64.501690 
905.000000	 64.484357 
904.000000	 64.447140 
903.000000	 64.388561 
902.000000	 64.311909 
901.000000	 64.225029 
900.000000	 64.138507 
899.000000	 64.063334 
898.000000	 64.008307 
897.000000	 63.977813 
896.000000	 63.971209 
895.000000	 63.983273 
894.000000	 64.005899 
893.000000	 64.030146 
892.000000	 64.048433 
891.000000	 64.055848 
890.000000	 64.051389 
889.000000	 64.036130 
888.000000	 64.013981 
887.000000	 63.989448 
886.000000	 63.967633 
885.000000	 63.952636 
884.000000	 63.947463 
883.000000	 63.953757 
882.000000	 63.971781 
881.000000	 64.000725 
880.000000	 64.038133 
879.000000	 64.080309 
878.000000	 64.122533 
877.000000	 64.160013 
876.000000	 64.188957 
875.000000	 64.207506 
874.000000	 64.216518 
873.000000	 64.219141 
872.000000	 64.219784 
871.000000	 64.222526 
870.000000	 64.230322 
869.000000	 64.243149 
868.000000	 64.257931 
867.000000	 64.268636 
866.000000	 64.268898 
865.000000	 64.252948 
864.000000	 64.217615 
863.000000	 64.163422 
862.000000	 64.094448 
861.000000	 64.018726 
860.000000	 63.946509 
859.000000	 63.888454 
858.000000	 63.852596 
857.000000	 63.843870 
856.000000	 63.863253 
855.000000	 63.907289 
854.000000	 63.968896 
853.000000	 64.038705 
852.000000	 64.106702 
851.000000	 64.163994 
850.000000	 64.204430 
849.000000	 64.224743 
848.000000	 64.224910 
847.000000	 64.208388 
846.000000	 64.181208 
845.000000	 64.150977 
844.000000	 64.125275 
843.000000	 64.111304 
842.000000	 64.113354 
841.000000	 64.132833 
840.000000	 64.166641 
839.000000	 64.209437 
838.000000	 64.252376 
837.000000	 64.286112 
836.000000	 64.300441 
835.000000	 64.287352 
834.000000	 64.240646 
833.000000	 64.157843 
832.000000	 64.039969 
831.000000	 63.891124 
830.000000	 63.720226 
829.000000	 63.539600 
828.000000	 63.365769 
827.000000	 63.217020 
826.000000	 63.112115 
825.000000	 63.066911 
824.000000	 63.091850 
823.000000	 63.189339 
822.000000	 63.352704 
821.000000	 63.566732 
820.000000	 63.808703 
819.000000	 64.052796 
818.000000	 64.274597 
817.000000	 64.456152 
816.000000	 64.587903 
815.000000	 64.670205 
814.000000	 64.712548 
813.000000	 64.728426 
812.000000	 64.733672 
811.000000	 64.738154 
810.000000	 64.745259 
809.000000	 64.748501 
808.000000	 64.736485 
807.000000	 64.694428 
806.000000	 64.611387 
805.000000	 64.483833 
804.000000	 64.319252 
803.000000	 64.135551 
802.000000	 63.957786 
801.000000	 63.812971 
800.000000	 63.723587 
799.000000	 63.701844 
798.000000	 63.746595 
797.000000	 63.843774 
796.000000	 63.969659 
795.000000	 64.096188 
794.000000	 64.197468 
793.000000	 64.254498 
792.000000	 64.259314 
791.000000	 64.214897 
790.000000	 64.134144 
789.000000	 64.034366 
788.000000	 63.933920 
787.000000	 63.848972 
786.000000	 63.789868 
785.000000	 63.761329 
784.000000	 63.760972 
783.000000	 63.782215 
782.000000	 63.815307 
781.000000	 63.850283 
780.000000	 63.878941 
779.000000	 63.895177 
778.000000	 63.897109 
777.000000	 63.885736 
776.000000	 63.865423 
775.000000	 63.841509 
774.000000	 63.819742 
773.000000	 63.804626 
772.000000	 63.798165 
771.000000	 63.799738 
770.000000	 63.806080 
769.000000	 63.812541 
768.000000	 63.813304 
767.000000	 63.803386 
766.000000	 63.779401 
765.000000	 63.741230 
764.000000	 63.692212 
763.000000	 63.639783 
762.000000	 63.592433 
761.000000	 63.559842 
760.000000	 63.551282 
759.000000	 63.574290 
758.000000	 63.632512 
757.000000	 63.725399 
756.000000	 63.847732 
755.000000	 63.990092 
754.000000	 64.140772 
753.000000	 64.286470 
752.000000	 64.414429 
751.000000	 64.513587 
750.000000	 64.576315 
749.000000	 64.598703 
748.000000	 64.581155 
747.000000	 64.527797 
746.000000	 64.445900 
745.000000	 64.344930 
744.000000	 64.235448 
743.000000	 64.127826 
742.000000	 64.031028 
741.000000	 63.950991 
740.000000	 63.889837 
739.000000	 63.845467 
738.000000	 63.812017 
737.000000	 63.780856 
736.000000	 63.742852 
735.000000	 63.689613 
734.000000	 63.616776 
733.000000	 63.524699 
732.000000	 63.420248 
731.000000	 63.314104 
730.000000	 63.220047 
729.000000	 63.151168 
728.000000	 63.117241 
727.000000	 63.122177 
726.000000	 63.162970 
725.000000	 63.230609 
724.000000	 63.311362 
723.000000	 63.389420 
722.000000	 63.450479 
721.000000	 63.484477 
720.000000	 63.487005 
719.000000	 63.459229 
718.000000	 63.407611 
717.000000	 63.341784 
716.000000	 63.272714 
715.000000	 63.210129 
714.000000	 63.160991 
713.000000	 63.128113 
712.000000	 63.111257 
711.000000	 63.107347 
710.000000	 63.110923 
709.000000	 63.115859 
708.000000	 63.116669 
707.000000	 63.110160 
706.000000	 63.095283 
705.000000	 63.073873 
704.000000	 63.049769 
703.000000	 63.027834 
702.000000	 63.012337 
701.000000	 63.005709 
700.000000	 63.008093 
699.000000	 63.016963 
698.000000	 63.027811 
697.000000	 63.035225 
696.000000	 63.034772 
695.000000	 63.024091 
694.000000	 63.003873 
693.000000	 62.977600 
692.000000	 62.950158 
691.000000	 62.927103 
690.000000	 62.913131 
689.000000	 62.910866 
688.000000	 62.919926 
687.000000	 62.937903 
686.000000	 62.960886 
685.000000	 62.984919 
684.000000	 63.006806 
683.000000	 63.024377 
682.000000	 63.036608 
681.000000	 63.043355 
680.000000	 63.045072 
679.000000	 63.041710 
678.000000	 63.032817 
677.000000	 63.018178 
676.000000	 62.997579 
675.000000	 62.972235 
674.000000	 62.943410 
673.000000	 62.913560 
672.000000	 62.883949 
671.000000	 62.855052 
670.000000	 62.825059 
669.000000	 62.791013 
668.000000	 62.748885 
667.000000	 62.695074 
666.000000	 62.628078 
665.000000	 62.549662 
664.000000	 62.464404 
663.000000	 62.379240 
662.000000	 62.301898 
661.000000	 62.239480 
660.000000	 62.196636 
659.000000	 62.175178 
658.000000	 62.174201 
657.000000	 62.190985 
656.000000	 62.222695 
655.000000	 62.267279 
654.000000	 62.323689 
653.000000	 62.390971 
652.000000	 62.467312 
651.000000	 62.548732 
650.000000	 62.628006 
649.000000	 62.695765 
648.000000	 62.741994 
647.000000	 62.758779 
646.000000	 62.742280 
645.000000	 62.694740 
644.000000	 62.624597 
643.000000	 62.545323 
642.000000	 62.472724 
641.000000	 62.422013 
640.000000	 62.404274 
639.000000	 62.424755 
638.000000	 62.482047 
637.000000	 62.568593 
636.000000	 62.672972 
635.000000	 62.781929 
634.000000	 62.883162 
633.000000	 62.966609 
632.000000	 63.025498 
631.000000	 63.056516 
630.000000	 63.059663 
629.000000	 63.038015 
628.000000	 62.996292 
627.000000	 62.941026 
626.000000	 62.878370 
625.000000	 62.814044 
624.000000	 62.751364 
623.000000	 62.691855 
622.000000	 62.634873 
621.000000	 62.579393 
620.000000	 62.524318 
619.000000	 62.469100 
618.000000	 62.414717 
617.000000	 62.363982 
616.000000	 62.320446 
615.000000	 62.286734 
614.000000	 62.264370 
613.000000	 62.253022 
612.000000	 62.250137 
611.000000	 62.251329 
610.000000	 62.251615 
609.000000	 62.246346 
608.000000	 62.232804 
607.000000	 62.210702 
606.000000	 62.180972 
605.000000	 62.145590 
604.000000	 62.106800 
603.000000	 62.066555 
602.000000	 62.027072 
601.000000	 61.990213 
600.000000	 61.958527 
599.000000	 61.933946 
598.000000	 61.918306 
597.000000	 61.911630 
596.000000	 61.912250 
595.000000	 61.916089 
594.000000	 61.917567 
593.000000	 61.909842 
592.000000	 61.886906 
591.000000	 61.843848 
590.000000	 61.777567 
589.000000	 61.688137 
588.000000	 61.578607 
587.000000	 61.455774 
586.000000	 61.328554 
585.000000	 61.208534 
584.000000	 61.107897 
583.000000	 61.038684 
582.000000	 61.010646 
581.000000	 61.030387 
580.000000	 61.099815 
579.000000	 61.215615 
578.000000	 61.369085 
577.000000	 61.546802 
576.000000	 61.732029 
575.000000	 61.906743 
574.000000	 62.053823 
573.000000	 62.159633 
572.000000	 62.215614 
571.000000	 62.219142 
570.000000	 62.173533 
569.000000	 62.087845 
568.000000	 61.974906 
567.000000	 61.850333 
566.000000	 61.729097 
565.000000	 61.625123 
564.000000	 61.547565 
563.000000	 61.501073 
562.000000	 61.484813 
561.000000	 61.493539 
560.000000	 61.519789 
559.000000	 61.555862 
558.000000	 61.595606 
557.000000	 61.634898 
556.000000	 61.671829 
555.000000	 61.705565 
554.000000	 61.735677 
553.000000	 61.761116 
552.000000	 61.780428 
551.000000	 61.791920 
550.000000	 61.795163 
549.000000	 61.790871 
548.000000	 61.781239 
547.000000	 61.768722 
546.000000	 61.755967 
545.000000	 61.744236 
544.000000	 61.733770 
543.000000	 61.722636 
542.000000	 61.706709 
541.000000	 61.680817 
540.000000	 61.641907 
539.000000	 61.588478 
538.000000	 61.521530 
537.000000	 61.443853 
536.000000	 61.359786 
535.000000	 61.273550 
534.000000	 61.188769 
533.000000	 61.107754 
532.000000	 61.031436 
531.000000	 60.959792 
530.000000	 60.892438 
529.000000	 60.828804 
528.000000	 60.768747 
527.000000	 60.713243 
526.000000	 60.664606 
525.000000	 60.628318 
524.000000	 60.611939 
523.000000	 60.624837 
522.000000	 60.674595 
521.000000	 60.765099 
520.000000	 60.892200 
519.000000	 61.043190 
518.000000	 61.195993 
517.000000	 61.323094 
516.000000	 61.395764 
515.000000	 61.390757 
514.000000	 61.295366 
513.000000	 61.111283 
512.000000	 60.854935 
511.000000	 60.555267 
510.000000	 60.247898 
509.000000	 59.968757 
508.000000	 59.746503 
507.000000	 59.597873 
506.000000	 59.525299 
505.000000	 59.518265 
504.000000	 59.558105 
503.000000	 59.623599 
502.000000	 59.696555 
501.000000	 59.765028 
500.000000	 59.825158 
499.000000	 59.879326 
498.000000	 59.933185 
497.000000	 59.991168 
496.000000	 60.053944 
495.000000	 60.116600 
494.000000	 60.169506 
493.000000	 60.200834 
492.000000	 60.201811 
491.000000	 60.168480 
490.000000	 60.105228 
489.000000	 60.021948 
488.000000	 59.932780 
487.000000	 59.850239 
486.000000	 59.783101 
485.000000	 59.732818 
484.000000	 59.692287 
483.000000	 59.650731 
482.000000	 59.597635 
481.000000	 59.528160 
480.000000	 59.445524 
479.000000	 59.361815 
478.000000	 59.294700 
477.000000	 59.262847 
476.000000	 59.279847 
475.000000	 59.349203 
474.000000	 59.461784 
473.000000	 59.598684 
472.000000	 59.735822 
471.000000	 59.850168 
470.000000	 59.925723 
469.000000	 59.958100 
468.000000	 59.954619 
467.000000	 59.932398 
466.000000	 59.911108 
465.000000	 59.907770 
464.000000	 59.928727 
463.000000	 59.967446 
462.000000	 60.004138 
461.000000	 60.013008 
460.000000	 59.967923 
459.000000	 59.852886 
458.000000	 59.664750 
457.000000	 59.418034 
456.000000	 59.137678 
455.000000	 58.851623 
454.000000	 58.585548 
453.000000	 58.354067 
452.000000	 58.164906 
451.000000	 58.019590 
450.000000	 57.917857 
449.000000	 57.859897 
448.000000	 57.849693 
447.000000	 57.894444 
446.000000	 57.998824 
445.000000	 58.161067 
444.000000	 58.371829 
443.000000	 58.613443 
442.000000	 58.864116 
441.000000	 59.100723 
440.000000	 59.299898 
439.000000	 59.443330 
438.000000	 59.522366 
437.000000	 59.538984 
436.000000	 59.503841 
435.000000	 59.435129 
434.000000	 59.353780 
433.000000	 59.280586 
432.000000	 59.237265 
431.000000	 59.237337 
430.000000	 59.286761 
429.000000	 59.376811 
428.000000	 59.495449 
427.000000	 59.614300 
426.000000	 59.692144 
425.000000	 59.685134 
424.000000	 59.564113 
423.000000	 59.308314 
422.000000	 58.908510 
421.000000	 58.379673 
420.000000	 57.763814 
419.000000	 57.116794 
418.000000	 56.500387 
417.000000	 55.996870 
416.000000	 55.694818 
415.000000	 55.672526 
414.000000	 55.979490 
413.000000	 56.615018 
412.000000	 57.521343 
411.000000	 58.604359 
410.000000	 59.737110 
409.000000	 60.761475 
408.000000	 61.523056 
407.000000	 61.933398 
406.000000	 61.948728 
405.000000	 61.568689 
404.000000	 60.817766 
403.000000	 59.768152 
402.000000	 58.472776 
401.000000	 56.974577 
400.000000	 55.273175 
399.000000	 53.345084 
398.000000	 51.162171 
397.000000	 48.750138 
396.000000	 46.153545 
395.000000	 43.458986 
394.000000	 40.734910 
393.000000	 38.029909 
392.000000	 35.338902 
391.000000	 32.626891 
390.000000	 29.907178 
389.000000	 27.289772 
388.000000	 24.999213 
387.000000	 23.380970 
386.000000	 22.782778 
385.000000	 23.545885 
384.000000	 25.866532 
383.000000	 29.823541 
382.000000	 35.345506 
381.000000	 42.222738 
380.000000	 50.155854 
379.000000	 58.703231 
378.000000	 67.352056 
377.000000	 75.463843 
376.000000	 82.330965 
375.000000	 87.251734 
374.000000	 89.695358 
373.000000	 89.354634 
372.000000	 86.256480 
371.000000	 80.766010 
370.000000	 73.613166 

