PE IR       SPECTRUM    SPECTRUM    ASCII       PEDS        1.60        
  -1
C-1CE4~1.ASC
17/03/27
18:41:36.00
17/03/27
18:41:36.00
tln
$C-4040-8_t0051$<tbV0>[-2.6,-2.6,8.0,0.0,27,1,0]
370.000000
64









2002,4.07    
MIRTGS : RIGHTBACK : INTERNAL 2
MIR : ON : INTERNAL 2
OPTKBR

0.200000
8
8.000000
FILLER
RATIO
SPECTRUM
UNLOCKED 256

DOUBLE
64
COMBINED
1
0
0


1.000000
RATIO


1
0
TRUE
51149
0
LEFT NOT FITTED RIGHT NOT FITTED 0
NONE
NONE
15600
12.000000
4.427000
51148
TRUE
1 0 8 72 0 0 0 0 

15798.010000






#HDR
-1
-1
#GR
CM-1
%T
0.00002384185791015625
0.0
5000.000000
-1.000000
4631
8
117.871809
32.882094
#DATA
5000.000000	64.769434  
4999.000000	64.800238  
4998.000000	64.832878  
4997.000000	64.864635  
4996.000000	64.893603  
4995.000000	64.918732  
4994.000000	64.939832  
4993.000000	64.957427  
4992.000000	64.972257  
4991.000000	64.984965  
4990.000000	64.995694  
4989.000000	65.004324  
4988.000000	65.009713  
4987.000000	65.010476  
4986.000000	65.004253  
4985.000000	64.988470  
4984.000000	64.960789  
4983.000000	64.919996  
4982.000000	64.866423  
4981.000000	64.802527  
4980.000000	64.733314  
4979.000000	64.665913  
4978.000000	64.608812  
4977.000000	64.570260  
4976.000000	64.556074  
4975.000000	64.568614  
4974.000000	64.605689  
4973.000000	64.661550  
4972.000000	64.727330  
4971.000000	64.793944  
4970.000000	64.853191  
4969.000000	64.900302  
4968.000000	64.934110  
4967.000000	64.957141  
4966.000000	64.973855  
4965.000000	64.989256  
4964.000000	65.007209  
4963.000000	65.028977  
4962.000000	65.053176  
4961.000000	65.076112  
4960.000000	65.093302  
4959.000000	65.100717  
4958.000000	65.096306  
4957.000000	65.080380  
4956.000000	65.055990  
4955.000000	65.027594  
4954.000000	65.000462  
4953.000000	64.979577  
4952.000000	64.968776  
4951.000000	64.970374  
4950.000000	64.984846  
4949.000000	65.011119  
4948.000000	65.046787  
4947.000000	65.088629  
4946.000000	65.132951  
4945.000000	65.175604  
4944.000000	65.212655  
4943.000000	65.240597  
4942.000000	65.257000  
4941.000000	65.260982  
4940.000000	65.253090  
4939.000000	65.235495  
4938.000000	65.210938  
4937.000000	65.182828  
4936.000000	65.153598  
4935.000000	65.124869  
4934.000000	65.096664  
4933.000000	65.068149  
4932.000000	65.037631  
4931.000000	65.003395  
4930.000000	64.964795  
4929.000000	64.922714  
4928.000000	64.879417  
4927.000000	64.837980  
4926.000000	64.801645  
4925.000000	64.773344  
4924.000000	64.755082  
4923.000000	64.747643  
4922.000000	64.750289  
4921.000000	64.761114  
4920.000000	64.777517  
4919.000000	64.796495  
4918.000000	64.815020  
4917.000000	64.830780  
4916.000000	64.841389  
4915.000000	64.846014  
4914.000000	64.845323  
4913.000000	64.841818  
4912.000000	64.839625  
4911.000000	64.842939  
4910.000000	64.855718  
4909.000000	64.878892  
4908.000000	64.910745  
4907.000000	64.944982  
4906.000000	64.972019  
4905.000000	64.980602  
4904.000000	64.960837  
4903.000000	64.907336  
4902.000000	64.821743  
4901.000000	64.713740  
4900.000000	64.599752  
4899.000000	64.500474  
4898.000000	64.436006  
4897.000000	64.421582  
4896.000000	64.462757  
4895.000000	64.553475  
4894.000000	64.676761  
4893.000000	64.808225  
4892.000000	64.922070  
4891.000000	64.996576  
4890.000000	65.020227  
4889.000000	64.992523  
4888.000000	64.925360  
4887.000000	64.838242  
4886.000000	64.754319  
4885.000000	64.694023  
4884.000000	64.670634  
4883.000000	64.688324  
4882.000000	64.741253  
4881.000000	64.817619  
4880.000000	64.900755  
4879.000000	64.974331  
4878.000000	65.024447  
4877.000000	65.042638  
4876.000000	65.026140  
4875.000000	64.977741  
4874.000000	64.904427  
4873.000000	64.815640  
4872.000000	64.722990  
4871.000000	64.638018  
4870.000000	64.571642  
4869.000000	64.531445  
4868.000000	64.520764  
4867.000000	64.537572  
4866.000000	64.574742  
4865.000000	64.621615  
4864.000000	64.665532  
4863.000000	64.695787  
4862.000000	64.704298  
4861.000000	64.689636  
4860.000000	64.656090  
4859.000000	64.613986  
4858.000000	64.575839  
4857.000000	64.554667  
4856.000000	64.560627  
4855.000000	64.598751  
4854.000000	64.668512  
4853.000000	64.762449  
4852.000000	64.868068  
4851.000000	64.969348  
4850.000000	65.050363  
4849.000000	65.096735  
4848.000000	65.098547  
4847.000000	65.051436  
4846.000000	64.957904  
4845.000000	64.827680  
4844.000000	64.676237  
4843.000000	64.523172  
4842.000000	64.388346  
4841.000000	64.288926  
4840.000000	64.235281  
4839.000000	64.230108  
4838.000000	64.267110  
4837.000000	64.332699  
4836.000000	64.409375  
4835.000000	64.478993  
4834.000000	64.528059  
4833.000000	64.548683  
4832.000000	64.541721  
4831.000000	64.514040  
4830.000000	64.477610  
4829.000000	64.444994  
4828.000000	64.426779  
4827.000000	64.428615  
4826.000000	64.450383  
4825.000000	64.486789  
4824.000000	64.529490  
4823.000000	64.570069  
4822.000000	64.601540  
4821.000000	64.620208  
4820.000000	64.625358  
4819.000000	64.618968  
4818.000000	64.604258  
4817.000000	64.584374  
4816.000000	64.561295  
4815.000000	64.535760  
4814.000000	64.507579  
4813.000000	64.476752  
4812.000000	64.444732  
4811.000000	64.414882  
4810.000000	64.391732  
4809.000000	64.380431  
4808.000000	64.385342  
4807.000000	64.408898  
4806.000000	64.450240  
4805.000000	64.505648  
4804.000000	64.568138  
4803.000000	64.630055  
4802.000000	64.684534  
4801.000000	64.727210  
4800.000000	64.756774  
4799.000000	64.775300  
4798.000000	64.787316  
4797.000000	64.798331  
4796.000000	64.813160  
4795.000000	64.834594  
4794.000000	64.862561  
4793.000000	64.894223  
4792.000000	64.924788  
4791.000000	64.949035  
4790.000000	64.962673  
4789.000000	64.963364  
4788.000000	64.951324  
4787.000000	64.929223  
4786.000000	64.901185  
4785.000000	64.872145  
4784.000000	64.846086  
4783.000000	64.825081  
4782.000000	64.808821  
4781.000000	64.794969  
4780.000000	64.779973  
4779.000000	64.760279  
4778.000000	64.733457  
4777.000000	64.699006  
4776.000000	64.658808  
4775.000000	64.616584  
4774.000000	64.577388  
4773.000000	64.545679  
4772.000000	64.525032  
4771.000000	64.517045  
4770.000000	64.520668  
4769.000000	64.532351  
4768.000000	64.547061  
4767.000000	64.559555  
4766.000000	64.565038  
4765.000000	64.560365  
4764.000000	64.544987  
4763.000000	64.521098  
4762.000000	64.492893  
4761.000000	64.465785  
4760.000000	64.445447  
4759.000000	64.436244  
4758.000000	64.440512  
4757.000000	64.457559  
4756.000000	64.483928  
4755.000000	64.513945  
4754.000000	64.541268  
4753.000000	64.560341  
4752.000000	64.567065  
4751.000000	64.560294  
4750.000000	64.542222  
4749.000000	64.517235  
4748.000000	64.490628  
4747.000000	64.467358  
4746.000000	64.450836  
4745.000000	64.441752  
4744.000000	64.438247  
4743.000000	64.436054  
4742.000000	64.430189  
4741.000000	64.415431  
4740.000000	64.387965  
4739.000000	64.346003  
4738.000000	64.290428  
4737.000000	64.224505  
4736.000000	64.153552  
4735.000000	64.083647  
4734.000000	64.021229  
4733.000000	63.971853  
4732.000000	63.940000  
4731.000000	63.927984  
4730.000000	63.936686  
4729.000000	63.965010  
4728.000000	64.010977  
4727.000000	64.071464  
4726.000000	64.143157  
4725.000000	64.222216  
4724.000000	64.304924  
4723.000000	64.387273  
4722.000000	64.465093  
4721.000000	64.534211  
4720.000000	64.590239  
4719.000000	64.629650  
4718.000000	64.649629  
4717.000000	64.648747  
4716.000000	64.627766  
4715.000000	64.590239  
4714.000000	64.541530  
4713.000000	64.488077  
4712.000000	64.436697  
4711.000000	64.393281  
4710.000000	64.361500  
4709.000000	64.342308  
4708.000000	64.333701  
4707.000000	64.331674  
4706.000000	64.330887  
4705.000000	64.326810  
4704.000000	64.316153  
4703.000000	64.298772  
4702.000000	64.277315  
4701.000000	64.256978  
4700.000000	64.243149  
4699.000000	64.240646  
4698.000000	64.251637  
4697.000000	64.275431  
4696.000000	64.307904  
4695.000000	64.343643  
4694.000000	64.377427  
4693.000000	64.406299  
4692.000000	64.430284  
4691.000000	64.452528  
4690.000000	64.478278  
4689.000000	64.512658  
4688.000000	64.558529  
4687.000000	64.614939  
4686.000000	64.676856  
4685.000000	64.736080  
4684.000000	64.783167  
4683.000000	64.810156  
4682.000000	64.812111  
4681.000000	64.789366  
4680.000000	64.746332  
4679.000000	64.689421  
4678.000000	64.624905  
4677.000000	64.557695  
4676.000000	64.489674  
4675.000000	64.420151  
4674.000000	64.346981  
4673.000000	64.269089  
4672.000000	64.187765  
4671.000000	64.107918  
4670.000000	64.037466  
4669.000000	63.985109  
4668.000000	63.958740  
4667.000000	63.962507  
4666.000000	63.995718  
4665.000000	64.051818  
4664.000000	64.120578  
4663.000000	64.190220  
4662.000000	64.249920  
4661.000000	64.292025  
4660.000000	64.313268  
4659.000000	64.315271  
4658.000000	64.303016  
4657.000000	64.283657  
4656.000000	64.265227  
4655.000000	64.255332  
4654.000000	64.260339  
4653.000000	64.284229  
4652.000000	64.328718  
4651.000000	64.392256  
4650.000000	64.471125  
4649.000000	64.558696  
4648.000000	64.646220  
4647.000000	64.723753  
4646.000000	64.782094  
4645.000000	64.813828  
4644.000000	64.814972  
4643.000000	64.785313  
4642.000000	64.729547  
4641.000000	64.655423  
4640.000000	64.572477  
4639.000000	64.490103  
4638.000000	64.416193  
4637.000000	64.355945  
4636.000000	64.311981  
4635.000000	64.284110  
4634.000000	64.270567  
4633.000000	64.268040  
4632.000000	64.272999  
4631.000000	64.281773  
4630.000000	64.291405  
4629.000000	64.300584  
4628.000000	64.310121  
4627.000000	64.322185  
4626.000000	64.339852  
4625.000000	64.366436  
4624.000000	64.404201  
4623.000000	64.453363  
4622.000000	64.511489  
4621.000000	64.573907  
4620.000000	64.634227  
4619.000000	64.685797  
4618.000000	64.722490  
4617.000000	64.740729  
4616.000000	64.739108  
4615.000000	64.719104  
4614.000000	64.683866  
4613.000000	64.637422  
4612.000000	64.583945  
4611.000000	64.527082  
4610.000000	64.470553  
4609.000000	64.418125  
4608.000000	64.374136  
4607.000000	64.343619  
4606.000000	64.330649  
4605.000000	64.337301  
4604.000000	64.362645  
4603.000000	64.402103  
4602.000000	64.447689  
4601.000000	64.489245  
4600.000000	64.516139  
4599.000000	64.519977  
4598.000000	64.496231  
4597.000000	64.445710  
4596.000000	64.374208  
4595.000000	64.291691  
4594.000000	64.209747  
4593.000000	64.139795  
4592.000000	64.090657  
4591.000000	64.067506  
4590.000000	64.071559  
4589.000000	64.099836  
4588.000000	64.146614  
4587.000000	64.204049  
4586.000000	64.263677  
4585.000000	64.317607  
4584.000000	64.358735  
4583.000000	64.383053  
4582.000000	64.389419  
4581.000000	64.380335  
4580.000000	64.361000  
4579.000000	64.337968  
4578.000000	64.317512  
4577.000000	64.304280  
4576.000000	64.300227  
4575.000000	64.304089  
4574.000000	64.312267  
4573.000000	64.320015  
4572.000000	64.323425  
4571.000000	64.320683  
4570.000000	64.313483  
4569.000000	64.306354  
4568.000000	64.305734  
4567.000000	64.317536  
4566.000000	64.345335  
4565.000000	64.389467  
4564.000000	64.445590  
4563.000000	64.505696  
4562.000000	64.559292  
4561.000000	64.597153  
4560.000000	64.611816  
4559.000000	64.599370  
4558.000000	64.560437  
4557.000000	64.500045  
4556.000000	64.426398  
4555.000000	64.349293  
4554.000000	64.278173  
4553.000000	64.220499  
4552.000000	64.180898  
4551.000000	64.160680  
4550.000000	64.157652  
4549.000000	64.167118  
4548.000000	64.182806  
4547.000000	64.199042  
4546.000000	64.211034  
4545.000000	64.217281  
4544.000000	64.219188  
4543.000000	64.221763  
4542.000000	64.231729  
4541.000000	64.256453  
4540.000000	64.301133  
4539.000000	64.368057  
4538.000000	64.454793  
4537.000000	64.555668  
4536.000000	64.662671  
4535.000000	64.767432  
4534.000000	64.863276  
4533.000000	64.946246  
4532.000000	65.016007  
4531.000000	65.074348  
4530.000000	65.124273  
4529.000000	65.167450  
4528.000000	65.203547  
4527.000000	65.229344  
4526.000000	65.240120  
4525.000000	65.230488  
4524.000000	65.196919  
4523.000000	65.139579  
4522.000000	65.063309  
4521.000000	64.977002  
4520.000000	64.892339  
4519.000000	64.821052  
4518.000000	64.773130  
4517.000000	64.755129  
4516.000000	64.768791  
4515.000000	64.811301  
4514.000000	64.875555  
4513.000000	64.952206  
4512.000000	65.030884  
4511.000000	65.101599  
4510.000000	65.156483  
4509.000000	65.189790  
4508.000000	65.199327  
4507.000000	65.185499  
4506.000000	65.151977  
4505.000000	65.104937  
4504.000000	65.052056  
4503.000000	65.001511  
4502.000000	64.960408  
4501.000000	64.934158  
4500.000000	64.925003  
4499.000000	64.932179  
4498.000000	64.951705  
4497.000000	64.977765  
4496.000000	65.003514  
4495.000000	65.022635  
4494.000000	65.029978  
4493.000000	65.022873  
4492.000000	65.000796  
4491.000000	64.965844  
4490.000000	64.921498  
4489.000000	64.872980  
4488.000000	64.826011  
4487.000000	64.786744  
4486.000000	64.760804  
4485.000000	64.752626  
4484.000000	64.765000  
4483.000000	64.798140  
4482.000000	64.849328  
4481.000000	64.913201  
4480.000000	64.981865  
4479.000000	65.047621  
4478.000000	65.103936  
4477.000000	65.147519  
4476.000000	65.178346  
4475.000000	65.199422  
4474.000000	65.215444  
4473.000000	65.231108  
4472.000000	65.249514  
4471.000000	65.271520  
4470.000000	65.295457  
4469.000000	65.318322  
4468.000000	65.336775  
4467.000000	65.348339  
4466.000000	65.352296  
4465.000000	65.349912  
4464.000000	65.344166  
4463.000000	65.338563  
4462.000000	65.336179  
4461.000000	65.338873  
4460.000000	65.346860  
4459.000000	65.358710  
4458.000000	65.372228  
4457.000000	65.385651  
4456.000000	65.397644  
4455.000000	65.407729  
4454.000000	65.416049  
4453.000000	65.423083  
4452.000000	65.429353  
4451.000000	65.435242  
4450.000000	65.440225  
4449.000000	65.442967  
4448.000000	65.441083  
4447.000000	65.432143  
4446.000000	65.413618  
4445.000000	65.383768  
4444.000000	65.342640  
4443.000000	65.292620  
4442.000000	65.238761  
4441.000000	65.188074  
4440.000000	65.147757  
4439.000000	65.123939  
4438.000000	65.120601  
4437.000000	65.139055  
4436.000000	65.177583  
4435.000000	65.232610  
4434.000000	65.299320  
4433.000000	65.372824  
4432.000000	65.448760  
4431.000000	65.523505  
4430.000000	65.593838  
4429.000000	65.656661  
4428.000000	65.709519  
4427.000000	65.749406  
4426.000000	65.773200  
4425.000000	65.777468  
4424.000000	65.760016  
4423.000000	65.720176  
4422.000000	65.659642  
4421.000000	65.583872  
4420.000000	65.502023  
4419.000000	65.426301  
4418.000000	65.370225  
4417.000000	65.346074  
4416.000000	65.362477  
4415.000000	65.422391  
4414.000000	65.522646  
4413.000000	65.655016  
4412.000000	65.807580  
4411.000000	65.967607  
4410.000000	66.122555  
4409.000000	66.261649  
4408.000000	66.376161  
4407.000000	66.459703  
4406.000000	66.507697  
4405.000000	66.519236  
4404.000000	66.494321  
4403.000000	66.436481  
4402.000000	66.348934  
4401.000000	66.235184  
4400.000000	66.098475  
4399.000000	65.944480  
4398.000000	65.779924  
4397.000000	65.613937  
4396.000000	65.456843  
4395.000000	65.318179  
4394.000000	65.208029  
4393.000000	65.137481  
4392.000000	65.110301  
4391.000000	65.119600  
4390.000000	65.155768  
4389.000000	65.209507  
4388.000000	65.266013  
4387.000000	65.308380  
4386.000000	65.332460  
4385.000000	65.344810  
4384.000000	65.352463  
4383.000000	65.360069  
4382.000000	65.370917  
4381.000000	65.383458  
4380.000000	65.380978  
4379.000000	65.346384  
4378.000000	65.269970  
4377.000000	65.158748  
4376.000000	65.039110  
4375.000000	64.952325  
4374.000000	64.945149  
4373.000000	65.052795  
4372.000000	65.302371  
4371.000000	65.675759  
4370.000000	66.108393  
4369.000000	66.494441  
4368.000000	66.721701  
4367.000000	66.671442  
4366.000000	66.249608  
4365.000000	65.402722  
4364.000000	64.138388  
4363.000000	62.499904  
4362.000000	60.559368  
4361.000000	58.403968  
4360.000000	56.123995  
4359.000000	53.803992  
4358.000000	51.517200  
4357.000000	49.330496  
4356.000000	47.302508  
4355.000000	45.472812  
4354.000000	43.876695  
4353.000000	42.517805  
4352.000000	41.413640  
4351.000000	40.566754  
4350.000000	40.022897  
4349.000000	39.819622  
4348.000000	40.041637  
4347.000000	40.766382  
4346.000000	42.079567  
4345.000000	44.011187  
4344.000000	46.541500  
4343.000000	49.563670  
4342.000000	52.904677  
4341.000000	56.329345  
4340.000000	59.591603  
4339.000000	62.468767  
4338.000000	64.804196  
4337.000000	66.530442  
4336.000000	67.660450  
4335.000000	68.271327  
4334.000000	68.481159  
4333.000000	68.417334  
4332.000000	68.193984  
4331.000000	67.889404  
4330.000000	67.571759  
4329.000000	67.281174  
4328.000000	67.037415  
4327.000000	66.836857  
4326.000000	66.676807  
4325.000000	66.548776  
4324.000000	66.439032  
4323.000000	66.335582  
4322.000000	66.232109  
4321.000000	66.128849  
4320.000000	66.027212  
4319.000000	65.932941  
4318.000000	65.850019  
4317.000000	65.783309  
4316.000000	65.738081  
4315.000000	65.716028  
4314.000000	65.709853  
4313.000000	65.712952  
4312.000000	65.724110  
4311.000000	65.739488  
4310.000000	65.749979  
4309.000000	65.754032  
4308.000000	65.758943  
4307.000000	65.766191  
4306.000000	65.770673  
4305.000000	65.769958  
4304.000000	65.763449  
4303.000000	65.749096  
4302.000000	65.725159  
4301.000000	65.692210  
4300.000000	65.652823  
4299.000000	65.612053  
4298.000000	65.575695  
4297.000000	65.547418  
4296.000000	65.529227  
4295.000000	65.521216  
4294.000000	65.522766  
4293.000000	65.532112  
4292.000000	65.548777  
4291.000000	65.573859  
4290.000000	65.609478  
4289.000000	65.657520  
4288.000000	65.718507  
4287.000000	65.790438  
4286.000000	65.868353  
4285.000000	65.944552  
4284.000000	66.010403  
4283.000000	66.058254  
4282.000000	66.083264  
4281.000000	66.084504  
4280.000000	66.064858  
4279.000000	66.029858  
4278.000000	65.985894  
4277.000000	65.938496  
4276.000000	65.891146  
4275.000000	65.844893  
4274.000000	65.799522  
4273.000000	65.754294  
4272.000000	65.709853  
4271.000000	65.667843  
4270.000000	65.630602  
4269.000000	65.600442  
4268.000000	65.577936  
4267.000000	65.562820  
4266.000000	65.553188  
4265.000000	65.546965  
4264.000000	65.542507  
4263.000000	65.539169  
4262.000000	65.537786  
4261.000000	65.539622  
4260.000000	65.545511  
4259.000000	65.555238  
4258.000000	65.567231  
4257.000000	65.577793  
4256.000000	65.581965  
4255.000000	65.574479  
4254.000000	65.551304  
4253.000000	65.510749  
4252.000000	65.454173  
4251.000000	65.386366  
4250.000000	65.315032  
4249.000000	65.249180  
4248.000000	65.197253  
4247.000000	65.165448  
4246.000000	65.156126  
4245.000000	65.168166  
4244.000000	65.196800  
4243.000000	65.235114  
4242.000000	65.275430  
4241.000000	65.310692  
4240.000000	65.335655  
4239.000000	65.347075  
4238.000000	65.343880  
4237.000000	65.326833  
4236.000000	65.297722  
4235.000000	65.258646  
4234.000000	65.211725  
4233.000000	65.159106  
4232.000000	65.102767  
4231.000000	65.045046  
4230.000000	64.988350  
4229.000000	64.935326  
4228.000000	64.888501  
4227.000000	64.850211  
4226.000000	64.822173  
4225.000000	64.805626  
4224.000000	64.801597  
4223.000000	64.810562  
4222.000000	64.832472  
4221.000000	64.866113  
4220.000000	64.907979  
4219.000000	64.952659  
4218.000000	64.992880  
4217.000000	65.021467  
4216.000000	65.032386  
4215.000000	65.022850  
4214.000000	64.994096  
4213.000000	64.951348  
4212.000000	64.903283  
4211.000000	64.859151  
4210.000000	64.826631  
4209.000000	64.809799  
4208.000000	64.808726  
4207.000000	64.819264  
4206.000000	64.834809  
4205.000000	64.848017  
4204.000000	64.853024  
4203.000000	64.847135  
4202.000000	64.831733  
4201.000000	64.810991  
4200.000000	64.790725  
4199.000000	64.776682  
4198.000000	64.773249  
4197.000000	64.782309  
4196.000000	64.803242  
4195.000000	64.834237  
4194.000000	64.872288  
4193.000000	64.914321  
4192.000000	64.956521  
4191.000000	64.995527  
4190.000000	65.026736  
4189.000000	65.044927  
4188.000000	65.043926  
4187.000000	65.017795  
4186.000000	64.962363  
4185.000000	64.876651  
4184.000000	64.764547  
4183.000000	64.634895  
4182.000000	64.500999  
4181.000000	64.378619  
4180.000000	64.283108  
4179.000000	64.226269  
4178.000000	64.214277  
4177.000000	64.246463  
4176.000000	64.315390  
4175.000000	64.408469  
4174.000000	64.510846  
4173.000000	64.608359  
4172.000000	64.690017  
4171.000000	64.749908  
4170.000000	64.787983  
4169.000000	64.809346  
4168.000000	64.821982  
4167.000000	64.834308  
4166.000000	64.852786  
4165.000000	64.880180  
4164.000000	64.915347  
4163.000000	64.953541  
4162.000000	64.989137  
4161.000000	65.016651  
4160.000000	65.033149  
4159.000000	65.037918  
4158.000000	65.032887  
4157.000000	65.020728  
4156.000000	65.004277  
4155.000000	64.984750  
4154.000000	64.961552  
4153.000000	64.932799  
4152.000000	64.896535  
4151.000000	64.851951  
4150.000000	64.800548  
4149.000000	64.746618  
4148.000000	64.696764  
4147.000000	64.658117  
4146.000000	64.636301  
4145.000000	64.633727  
4144.000000	64.648604  
4143.000000	64.675545  
4142.000000	64.706659  
4141.000000	64.732861  
4140.000000	64.746022  
4139.000000	64.740800  
4138.000000	64.715790  
4137.000000	64.672613  
4136.000000	64.616489  
4135.000000	64.555048  
4134.000000	64.497041  
4133.000000	64.450716  
4132.000000	64.422130  
4131.000000	64.414501  
4130.000000	64.427089  
4129.000000	64.455914  
4128.000000	64.494132  
4127.000000	64.533638  
4126.000000	64.566802  
4125.000000	64.587759  
4124.000000	64.593577  
4123.000000	64.584183  
4122.000000	64.562559  
4121.000000	64.533424  
4120.000000	64.502000  
4119.000000	64.472508  
4118.000000	64.447760  
4117.000000	64.428400  
4116.000000	64.413166  
4115.000000	64.399170  
4114.000000	64.383482  
4113.000000	64.363503  
4112.000000	64.337325  
4111.000000	64.304113  
4110.000000	64.263963  
4109.000000	64.218235  
4108.000000	64.169073  
4107.000000	64.119768  
4106.000000	64.073944  
4105.000000	64.035606  
4104.000000	64.008283  
4103.000000	63.994717  
4102.000000	63.996219  
4101.000000	64.012598  
4100.000000	64.041543  
4099.000000	64.079403  
4098.000000	64.121174  
4097.000000	64.161849  
4096.000000	64.197325  
4095.000000	64.224839  
4094.000000	64.243292  
4093.000000	64.253544  
4092.000000	64.257955  
4091.000000	64.259958  
4090.000000	64.263105  
4089.000000	64.270496  
4088.000000	64.284014  
4087.000000	64.304614  
4086.000000	64.331746  
4085.000000	64.363527  
4084.000000	64.396810  
4083.000000	64.428281  
4082.000000	64.454841  
4081.000000	64.473986  
4080.000000	64.484453  
4079.000000	64.486598  
4078.000000	64.481806  
4077.000000	64.472293  
4076.000000	64.459967  
4075.000000	64.446377  
4074.000000	64.431738  
4073.000000	64.415001  
4072.000000	64.394044  
4071.000000	64.366602  
4070.000000	64.331197  
4069.000000	64.287972  
4068.000000	64.239144  
4067.000000	64.188718  
4066.000000	64.142155  
4065.000000	64.105248  
4064.000000	64.082622  
4063.000000	64.076781  
4062.000000	64.088034  
4061.000000	64.114618  
4060.000000	64.152789  
4059.000000	64.198088  
4058.000000	64.246320  
4057.000000	64.294385  
4056.000000	64.340281  
4055.000000	64.383053  
4054.000000	64.422535  
4053.000000	64.458608  
4052.000000	64.490890  
4051.000000	64.518189  
4050.000000	64.539051  
4049.000000	64.551568  
4048.000000	64.554667  
4047.000000	64.547801  
4046.000000	64.531469  
4045.000000	64.507198  
4044.000000	64.477705  
4043.000000	64.445996  
4042.000000	64.414954  
4041.000000	64.386868  
4040.000000	64.363241  
4039.000000	64.344334  
4038.000000	64.329242  
4037.000000	64.316153  
4036.000000	64.302802  
4035.000000	64.286851  
4034.000000	64.266681  
4033.000000	64.241385  
4032.000000	64.211535  
4031.000000	64.178586  
4030.000000	64.144992  
4029.000000	64.113569  
4028.000000	64.087343  
4027.000000	64.068722  
4026.000000	64.059758  
4025.000000	64.061212  
4024.000000	64.073133  
4023.000000	64.095020  
4022.000000	64.126038  
4021.000000	64.164400  
4020.000000	64.208245  
4019.000000	64.255404  
4018.000000	64.303064  
4017.000000	64.348101  
4016.000000	64.386868  
4015.000000	64.415669  
4014.000000	64.431166  
4013.000000	64.431095  
4012.000000	64.414668  
4011.000000	64.382719  
4010.000000	64.338231  
4009.000000	64.286017  
4008.000000	64.232134  
4007.000000	64.183163  
4006.000000	64.145398  
4005.000000	64.123797  
4004.000000	64.121460  
4003.000000	64.139103  
4002.000000	64.175152  
4001.000000	64.225721  
4000.000000	64.285421  
3999.000000	64.347743  
3998.000000	64.406061  
3997.000000	64.454364  
3996.000000	64.487624  
3995.000000	64.502620  
3994.000000	64.498281  
3993.000000	64.475846  
3992.000000	64.438772  
3991.000000	64.392471  
3990.000000	64.343380  
3989.000000	64.297986  
3988.000000	64.262294  
3987.000000	64.240336  
3986.000000	64.233779  
3985.000000	64.241719  
3984.000000	64.261078  
3983.000000	64.287161  
3982.000000	64.314818  
3981.000000	64.339375  
3980.000000	64.357542  
3979.000000	64.367938  
3978.000000	64.370918  
3977.000000	64.367914  
3976.000000	64.361047  
3975.000000	64.352369  
3974.000000	64.343428  
3973.000000	64.335250  
3972.000000	64.328074  
3971.000000	64.322090  
3970.000000	64.317107  
3969.000000	64.313459  
3968.000000	64.311289  
3967.000000	64.310598  
3966.000000	64.311122  
3965.000000	64.312267  
3964.000000	64.313197  
3963.000000	64.312767  
3962.000000	64.310050  
3961.000000	64.304661  
3960.000000	64.296960  
3959.000000	64.288091  
3958.000000	64.279937  
3957.000000	64.274740  
3956.000000	64.274597  
3955.000000	64.281177  
3954.000000	64.295554  
3953.000000	64.317965  
3952.000000	64.347672  
3951.000000	64.382767  
3950.000000	64.420962  
3949.000000	64.459204  
3948.000000	64.494156  
3947.000000	64.522576  
3946.000000	64.541602  
3945.000000	64.549517  
3944.000000	64.546012  
3943.000000	64.532637  
3942.000000	64.512395  
3941.000000	64.489531  
3940.000000	64.468955  
3939.000000	64.454793  
3938.000000	64.449954  
3937.000000	64.455008  
3936.000000	64.468383  
3935.000000	64.486479  
3934.000000	64.504718  
3933.000000	64.518404  
3932.000000	64.523983  
3931.000000	64.519309  
3930.000000	64.504027  
3929.000000	64.479422  
3928.000000	64.447736  
3927.000000	64.411330  
3926.000000	64.372324  
3925.000000	64.332318  
3924.000000	64.292669  
3923.000000	64.254879  
3922.000000	64.220762  
3921.000000	64.192724  
3920.000000	64.173340  
3919.000000	64.165210  
3918.000000	64.169955  
3917.000000	64.187288  
3916.000000	64.215159  
3915.000000	64.249634  
3914.000000	64.285755  
3913.000000	64.318108  
3912.000000	64.342212  
3911.000000	64.355111  
3910.000000	64.356350  
3909.000000	64.347696  
3908.000000	64.332866  
3907.000000	64.316582  
3906.000000	64.303851  
3905.000000	64.299035  
3904.000000	64.305138  
3903.000000	64.323282  
3902.000000	64.352798  
3901.000000	64.391279  
3900.000000	64.434981  
3899.000000	64.479327  
3898.000000	64.519667  
3897.000000	64.551854  
3896.000000	64.572548  
3895.000000	64.579916  
3894.000000	64.573979  
3893.000000	64.556455  
3892.000000	64.530134  
3891.000000	64.498329  
3890.000000	64.465069  
3889.000000	64.433622  
3888.000000	64.406585  
3887.000000	64.385437  
3886.000000	64.370751  
3885.000000	64.362382  
3884.000000	64.359641  
3883.000000	64.361810  
3882.000000	64.367938  
3881.000000	64.377593  
3880.000000	64.390611  
3879.000000	64.406967  
3878.000000	64.426374  
3877.000000	64.448142  
3876.000000	64.471006  
3875.000000	64.493274  
3874.000000	64.513158  
3873.000000	64.529085  
3872.000000	64.540171  
3871.000000	64.546370  
3870.000000	64.548635  
3869.000000	64.548778  
3868.000000	64.549160  
3867.000000	64.551854  
3866.000000	64.558720  
3865.000000	64.571237  
3864.000000	64.590167  
3863.000000	64.615488  
3862.000000	64.646005  
3861.000000	64.680004  
3860.000000	64.714574  
3859.000000	64.746451  
3858.000000	64.771842  
3857.000000	64.787006  
3856.000000	64.789104  
3855.000000	64.777016  
3854.000000	64.751863  
3853.000000	64.716863  
3852.000000	64.677357  
3851.000000	64.639544  
3850.000000	64.609265  
3849.000000	64.590859  
3848.000000	64.585757  
3847.000000	64.592456  
3846.000000	64.606833  
3845.000000	64.623355  
3844.000000	64.636516  
3843.000000	64.641809  
3842.000000	64.636492  
3841.000000	64.619708  
3840.000000	64.592194  
3839.000000	64.555811  
3838.000000	64.512300  
3837.000000	64.463877  
3836.000000	64.412236  
3835.000000	64.359664  
3834.000000	64.308977  
3833.000000	64.264297  
3832.000000	64.230513  
3831.000000	64.212894  
3830.000000	64.216256  
3829.000000	64.243054  
3828.000000	64.292192  
3827.000000	64.358377  
3826.000000	64.432621  
3825.000000	64.503359  
3824.000000	64.558672  
3823.000000	64.589071  
3822.000000	64.589571  
3821.000000	64.561343  
3820.000000	64.511704  
3819.000000	64.452409  
3818.000000	64.397025  
3817.000000	64.358329  
3816.000000	64.345335  
3815.000000	64.361834  
3814.000000	64.405417  
3813.000000	64.469194  
3812.000000	64.543056  
3811.000000	64.616489  
3810.000000	64.680099  
3809.000000	64.727735  
3808.000000	64.756488  
3807.000000	64.766240  
3806.000000	64.758968  
3805.000000	64.737391  
3804.000000	64.704370  
3803.000000	64.662480  
3802.000000	64.614129  
3801.000000	64.562344  
3800.000000	64.510726  
3799.000000	64.463734  
3798.000000	64.426159  
3797.000000	64.402532  
3796.000000	64.396166  
3795.000000	64.408349  
3794.000000	64.437627  
3793.000000	64.479804  
3792.000000	64.528918  
3791.000000	64.578318  
3790.000000	64.621782  
3789.000000	64.654922  
3788.000000	64.676260  
3787.000000	64.687228  
3786.000000	64.691638  
3785.000000	64.693975  
3784.000000	64.698219  
3783.000000	64.706087  
3782.000000	64.716958  
3781.000000	64.727425  
3780.000000	64.733242  
3779.000000	64.729642  
3778.000000	64.713525  
3777.000000	64.684128  
3776.000000	64.643669  
3775.000000	64.596986  
3774.000000	64.550280  
3773.000000	64.509892  
3772.000000	64.480853  
3771.000000	64.466071  
3770.000000	64.465832  
3769.000000	64.478230  
3768.000000	64.499568  
3767.000000	64.525294  
3766.000000	64.550781  
3765.000000	64.571523  
3764.000000	64.583778  
3763.000000	64.584493  
3762.000000	64.571952  
3761.000000	64.545726  
3760.000000	64.507079  
3759.000000	64.458942  
3758.000000	64.405512  
3757.000000	64.351963  
3756.000000	64.303398  
3755.000000	64.264178  
3754.000000	64.237189  
3753.000000	64.223217  
3752.000000	64.221405  
3751.000000	64.229464  
3750.000000	64.244389  
3749.000000	64.263272  
3748.000000	64.283609  
3747.000000	64.303493  
3746.000000	64.321398  
3745.000000	64.335870  
3744.000000	64.345622  
3743.000000	64.349222  
3742.000000	64.346075  
3741.000000	64.336538  
3740.000000	64.322972  
3739.000000	64.309215  
3738.000000	64.300107  
3737.000000	64.300298  
3736.000000	64.312887  
3735.000000	64.338326  
3734.000000	64.374208  
3733.000000	64.415526  
3732.000000	64.455819  
3731.000000	64.488577  
3730.000000	64.509034  
3729.000000	64.515233  
3728.000000	64.508581  
3727.000000	64.493131  
3726.000000	64.474463  
3725.000000	64.457917  
3724.000000	64.447402  
3723.000000	64.444112  
3722.000000	64.446401  
3721.000000	64.450263  
3720.000000	64.451146  
3719.000000	64.445185  
3718.000000	64.430642  
3717.000000	64.408493  
3716.000000	64.382028  
3715.000000	64.355969  
3714.000000	64.334988  
3713.000000	64.322352  
3712.000000	64.318823  
3711.000000	64.322638  
3710.000000	64.329934  
3709.000000	64.335918  
3708.000000	64.336347  
3707.000000	64.328575  
3706.000000	64.312386  
3705.000000	64.289760  
3704.000000	64.264750  
3703.000000	64.242076  
3702.000000	64.226508  
3701.000000	64.221191  
3700.000000	64.227461  
3699.000000	64.244675  
3698.000000	64.270377  
3697.000000	64.301013  
3696.000000	64.332222  
3695.000000	64.359974  
3694.000000	64.380955  
3693.000000	64.393067  
3692.000000	64.395904  
3691.000000	64.390397  
3690.000000	64.378929  
3689.000000	64.364790  
3688.000000	64.351606  
3687.000000	64.342498  
3686.000000	64.339756  
3685.000000	64.344286  
3684.000000	64.355659  
3683.000000	64.372158  
3682.000000	64.391350  
3681.000000	64.410471  
3680.000000	64.426922  
3679.000000	64.438533  
3678.000000	64.443707  
3677.000000	64.441514  
3676.000000	64.431715  
3675.000000	64.414572  
3674.000000	64.390897  
3673.000000	64.362001  
3672.000000	64.329767  
3671.000000	64.296603  
3670.000000	64.265418  
3669.000000	64.239335  
3668.000000	64.220952  
3667.000000	64.212179  
3666.000000	64.213705  
3665.000000	64.225196  
3664.000000	64.245152  
3663.000000	64.271378  
3662.000000	64.301085  
3661.000000	64.331388  
3660.000000	64.359712  
3659.000000	64.383864  
3658.000000	64.402055  
3657.000000	64.412879  
3656.000000	64.415383  
3655.000000	64.409112  
3654.000000	64.394164  
3653.000000	64.371275  
3652.000000	64.341616  
3651.000000	64.307236  
3650.000000	64.270615  
3649.000000	64.234662  
3648.000000	64.202284  
3647.000000	64.175915  
3646.000000	64.157605  
3645.000000	64.148783  
3644.000000	64.150261  
3643.000000	64.161944  
3642.000000	64.183020  
3641.000000	64.211630  
3640.000000	64.245152  
3639.000000	64.280295  
3638.000000	64.313507  
3637.000000	64.341163  
3636.000000	64.360165  
3635.000000	64.368391  
3634.000000	64.365005  
3633.000000	64.350628  
3632.000000	64.327239  
3631.000000	64.298176  
3630.000000	64.267706  
3629.000000	64.240384  
3628.000000	64.220547  
3627.000000	64.211320  
3626.000000	64.214324  
3625.000000	64.228868  
3624.000000	64.252161  
3623.000000	64.279341  
3622.000000	64.304327  
3621.000000	64.320945  
3620.000000	64.323949  
3619.000000	64.310550  
3618.000000	64.281129  
3617.000000	64.239597  
3616.000000	64.192438  
3615.000000	64.147543  
3614.000000	64.112377  
3613.000000	64.092087  
3612.000000	64.088726  
3611.000000	64.100527  
3610.000000	64.122676  
3609.000000	64.148592  
3608.000000	64.171457  
3607.000000	64.186072  
3606.000000	64.190006  
3605.000000	64.183759  
3604.000000	64.170384  
3603.000000	64.154434  
3602.000000	64.140820  
3601.000000	64.133238  
3600.000000	64.133334  
3599.000000	64.140582  
3598.000000	64.152312  
3597.000000	64.164900  
3596.000000	64.174246  
3595.000000	64.176893  
3594.000000	64.170527  
3593.000000	64.154195  
3592.000000	64.128947  
3591.000000	64.096975  
3590.000000	64.061880  
3589.000000	64.027595  
3588.000000	63.998174  
3587.000000	63.977026  
3586.000000	63.966584  
3585.000000	63.967871  
3584.000000	63.980388  
3583.000000	64.002013  
3582.000000	64.029669  
3581.000000	64.059710  
3580.000000	64.088630  
3579.000000	64.113354  
3578.000000	64.131689  
3577.000000	64.142394  
3576.000000	64.145088  
3575.000000	64.140009  
3574.000000	64.127707  
3573.000000	64.108991  
3572.000000	64.084911  
3571.000000	64.056873  
3570.000000	64.026927  
3569.000000	63.997578  
3568.000000	63.971614  
3567.000000	63.951539  
3566.000000	63.939285  
3565.000000	63.935589  
3564.000000	63.939952  
3563.000000	63.950657  
3562.000000	63.964962  
3561.000000	63.980126  
3560.000000	63.994050  
3559.000000	64.005851  
3558.000000	64.015984  
3557.000000	64.025688  
3556.000000	64.036512  
3555.000000	64.049577  
3554.000000	64.065098  
3553.000000	64.082384  
3552.000000	64.099979  
3551.000000	64.116191  
3550.000000	64.129447  
3549.000000	64.138841  
3548.000000	64.144301  
3547.000000	64.146471  
3546.000000	64.146208  
3545.000000	64.144468  
3544.000000	64.141821  
3543.000000	64.138603  
3542.000000	64.134740  
3541.000000	64.129829  
3540.000000	64.123368  
3539.000000	64.115262  
3538.000000	64.105486  
3537.000000	64.094114  
3536.000000	64.081549  
3535.000000	64.068222  
3534.000000	64.054918  
3533.000000	64.042568  
3532.000000	64.032173  
3531.000000	64.024853  
3530.000000	64.020991  
3529.000000	64.020347  
3528.000000	64.021372  
3527.000000	64.021611  
3526.000000	64.018011  
3525.000000	64.007997  
3524.000000	63.990092  
3523.000000	63.964509  
3522.000000	63.933730  
3521.000000	63.902044  
3520.000000	63.874936  
3519.000000	63.857769  
3518.000000	63.854432  
3517.000000	63.866448  
3516.000000	63.892412  
3515.000000	63.928556  
3514.000000	63.969254  
3513.000000	64.008522  
3512.000000	64.041233  
3511.000000	64.064288  
3510.000000	64.076852  
3509.000000	64.080405  
3508.000000	64.078021  
3507.000000	64.073562  
3506.000000	64.070701  
3505.000000	64.071822  
3504.000000	64.077949  
3503.000000	64.087986  
3502.000000	64.099550  
3501.000000	64.109086  
3500.000000	64.113116  
3499.000000	64.108943  
3498.000000	64.095592  
3497.000000	64.074134  
3496.000000	64.047598  
3495.000000	64.020705  
3494.000000	63.998818  
3493.000000	63.986968  
3492.000000	63.988494  
3491.000000	64.004325  
3490.000000	64.032459  
3489.000000	64.068603  
3488.000000	64.106869  
3487.000000	64.141154  
3486.000000	64.166688  
3485.000000	64.180731  
3484.000000	64.183378  
3483.000000	64.177107  
3482.000000	64.166021  
3481.000000	64.154648  
3480.000000	64.146637  
3479.000000	64.144229  
3478.000000	64.147639  
3477.000000	64.155411  
3476.000000	64.164590  
3475.000000	64.172005  
3474.000000	64.174747  
3473.000000	64.171004  
3472.000000	64.160108  
3471.000000	64.142489  
3470.000000	64.119577  
3469.000000	64.093351  
3468.000000	64.066004  
3467.000000	64.039754  
3466.000000	64.016819  
3465.000000	63.999056  
3464.000000	63.987374  
3463.000000	63.981866  
3462.000000	63.981699  
3461.000000	63.985395  
3460.000000	63.990855  
3459.000000	63.996267  
3458.000000	63.999962  
3457.000000	64.001226  
3456.000000	64.000082  
3455.000000	63.997268  
3454.000000	63.993668  
3453.000000	63.990378  
3452.000000	63.988208  
3451.000000	63.987612  
3450.000000	63.988399  
3449.000000	63.990068  
3448.000000	63.992190  
3447.000000	63.994431  
3446.000000	63.996744  
3445.000000	63.999533  
3444.000000	64.003872  
3443.000000	64.010906  
3442.000000	64.021539  
3441.000000	64.036488  
3440.000000	64.055895  
3439.000000	64.079451  
3438.000000	64.106202  
3437.000000	64.134573  
3436.000000	64.162588  
3435.000000	64.188337  
3434.000000	64.210295  
3433.000000	64.227461  
3432.000000	64.239335  
3431.000000	64.246463  
3430.000000	64.249515  
3429.000000	64.249372  
3428.000000	64.246320  
3427.000000	64.240455  
3426.000000	64.231085  
3425.000000	64.217567  
3424.000000	64.198899  
3423.000000	64.174699  
3422.000000	64.144611  
3421.000000	64.108777  
3420.000000	64.067697  
3419.000000	64.022326  
3418.000000	63.974213  
3417.000000	63.925552  
3416.000000	63.879179  
3415.000000	63.838362  
3414.000000	63.806676  
3413.000000	63.787341  
3412.000000	63.782572  
3411.000000	63.793134  
3410.000000	63.817858  
3409.000000	63.853883  
3408.000000	63.896536  
3407.000000	63.940668  
3406.000000	63.981485  
3405.000000	64.015436  
3404.000000	64.040589  
3403.000000	64.056754  
3402.000000	64.065432  
3401.000000	64.068961  
3400.000000	64.069747  
3399.000000	64.069867  
3398.000000	64.070892  
3397.000000	64.073586  
3396.000000	64.078378  
3395.000000	64.085054  
3394.000000	64.092946  
3393.000000	64.100813  
3392.000000	64.107370  
3391.000000	64.111113  
3390.000000	64.110755  
3389.000000	64.105463  
3388.000000	64.095139  
3387.000000	64.080834  
3386.000000	64.064264  
3385.000000	64.048004  
3384.000000	64.034724  
3383.000000	64.026546  
3382.000000	64.024472  
3381.000000	64.028072  
3380.000000	64.035511  
3379.000000	64.044022  
3378.000000	64.050436  
3377.000000	64.052104  
3376.000000	64.047431  
3375.000000	64.036273  
3374.000000	64.020156  
3373.000000	64.001488  
3372.000000	63.983154  
3371.000000	63.967943  
3370.000000	63.957619  
3369.000000	63.952875  
3368.000000	63.952875  
3367.000000	63.955450  
3366.000000	63.957715  
3365.000000	63.956832  
3364.000000	63.950634  
3363.000000	63.938212  
3362.000000	63.920140  
3361.000000	63.898301  
3360.000000	63.875484  
3359.000000	63.854718  
3358.000000	63.838648  
3357.000000	63.828849  
3356.000000	63.825559  
3355.000000	63.827657  
3354.000000	63.832998  
3353.000000	63.839125  
3352.000000	63.843679  
3351.000000	63.845396  
3350.000000	63.844060  
3349.000000	63.840937  
3348.000000	63.838529  
3347.000000	63.840079  
3346.000000	63.848471  
3345.000000	63.865804  
3344.000000	63.892817  
3343.000000	63.928270  
3342.000000	63.969230  
3341.000000	64.011502  
3340.000000	64.050316  
3339.000000	64.081525  
3338.000000	64.102125  
3337.000000	64.110946  
3336.000000	64.108657  
3335.000000	64.097690  
3334.000000	64.081597  
3333.000000	64.064288  
3332.000000	64.049291  
3331.000000	64.039015  
3330.000000	64.034390  
3329.000000	64.035034  
3328.000000	64.039373  
3327.000000	64.045310  
3326.000000	64.050650  
3325.000000	64.053821  
3324.000000	64.053797  
3323.000000	64.050602  
3322.000000	64.044547  
3321.000000	64.036417  
3320.000000	64.026594  
3319.000000	64.015054  
3318.000000	64.001154  
3317.000000	63.983774  
3316.000000	63.961887  
3315.000000	63.935065  
3314.000000	63.903927  
3313.000000	63.870406  
3312.000000	63.837718  
3311.000000	63.809514  
3310.000000	63.789105  
3309.000000	63.778448  
3308.000000	63.777327  
3307.000000	63.783288  
3306.000000	63.792133  
3305.000000	63.799071  
3304.000000	63.799691  
3303.000000	63.791561  
3302.000000	63.774514  
3301.000000	63.751149  
3300.000000	63.725996  
3299.000000	63.704276  
3298.000000	63.690280  
3297.000000	63.686299  
3296.000000	63.691926  
3295.000000	63.704204  
3294.000000	63.718438  
3293.000000	63.729548  
3292.000000	63.733434  
3291.000000	63.728260  
3290.000000	63.714432  
3289.000000	63.694834  
3288.000000	63.673806  
3287.000000	63.656330  
3286.000000	63.646459  
3285.000000	63.646817  
3284.000000	63.657903  
3283.000000	63.678073  
3282.000000	63.704180  
3281.000000	63.732123  
3280.000000	63.758015  
3279.000000	63.778901  
3278.000000	63.793444  
3277.000000	63.801789  
3276.000000	63.805365  
3275.000000	63.806319  
3274.000000	63.806891  
3273.000000	63.808822  
3272.000000	63.813018  
3271.000000	63.819599  
3270.000000	63.828158  
3269.000000	63.838195  
3268.000000	63.849496  
3267.000000	63.862442  
3266.000000	63.878083  
3265.000000	63.897800  
3264.000000	63.922572  
3263.000000	63.952541  
3262.000000	63.986396  
3261.000000	64.021420  
3260.000000	64.053940  
3259.000000	64.080071  
3258.000000	64.096164  
3257.000000	64.099836  
3256.000000	64.089679  
3255.000000	64.065885  
3254.000000	64.029693  
3253.000000	63.983201  
3252.000000	63.929271  
3251.000000	63.871335  
3250.000000	63.813066  
3249.000000	63.758206  
3248.000000	63.710546  
3247.000000	63.673233  
3246.000000	63.648271  
3245.000000	63.636302  
3244.000000	63.635921  
3243.000000	63.644576  
3242.000000	63.658404  
3241.000000	63.673830  
3240.000000	63.687634  
3239.000000	63.698410  
3238.000000	63.706302  
3237.000000	63.712787  
3236.000000	63.719677  
3235.000000	63.728070  
3234.000000	63.737726  
3233.000000	63.746619  
3232.000000	63.751602  
3231.000000	63.749074  
3230.000000	63.736319  
3229.000000	63.712239  
3228.000000	63.677835  
3227.000000	63.636255  
3226.000000	63.592147  
3225.000000	63.550376  
3224.000000	63.514924  
3223.000000	63.488078  
3222.000000	63.470244  
3221.000000	63.459682  
3220.000000	63.453984  
3219.000000	63.450670  
3218.000000	63.448810  
3217.000000	63.448762  
3216.000000	63.452720  
3215.000000	63.463664  
3214.000000	63.484549  
3213.000000	63.516688  
3212.000000	63.559269  
3211.000000	63.608741  
3210.000000	63.659477  
3209.000000	63.704872  
3208.000000	63.738822  
3207.000000	63.757133  
3206.000000	63.758611  
3205.000000	63.745331  
3204.000000	63.722157  
3203.000000	63.695740  
3202.000000	63.672566  
3201.000000	63.657546  
3200.000000	63.653087  
3199.000000	63.658881  
3198.000000	63.672375  
3197.000000	63.689899  
3196.000000	63.707900  
3195.000000	63.723945  
3194.000000	63.737273  
3193.000000	63.748741  
3192.000000	63.759970  
3191.000000	63.772869  
3190.000000	63.788390  
3189.000000	63.806056  
3188.000000	63.823962  
3187.000000	63.838958  
3186.000000	63.847923  
3185.000000	63.848209  
3184.000000	63.838577  
3183.000000	63.819789  
3182.000000	63.794469  
3181.000000	63.766813  
3180.000000	63.741374  
3179.000000	63.722586  
3178.000000	63.714027  
3177.000000	63.717460  
3176.000000	63.732528  
3175.000000	63.756942  
3174.000000	63.787007  
3173.000000	63.817930  
3172.000000	63.844728  
3171.000000	63.863134  
3170.000000	63.870406  
3169.000000	63.865566  
3168.000000	63.849663  
3167.000000	63.825273  
3166.000000	63.795995  
3165.000000	63.765907  
3164.000000	63.738608  
3163.000000	63.716936  
3162.000000	63.702225  
3161.000000	63.694620  
3160.000000	63.692545  
3159.000000	63.693428  
3158.000000	63.694024  
3157.000000	63.691091  
3156.000000	63.682031  
3155.000000	63.665461  
3154.000000	63.641333  
3153.000000	63.611149  
3152.000000	63.577198  
3151.000000	63.542127  
3150.000000	63.508176  
3149.000000	63.476777  
3148.000000	63.448262  
3147.000000	63.422179  
3146.000000	63.397479  
3145.000000	63.373422  
3144.000000	63.350200  
3143.000000	63.329339  
3142.000000	63.313174  
3141.000000	63.304591  
3140.000000	63.306140  
3139.000000	63.319301  
3138.000000	63.343715  
3137.000000	63.377141  
3136.000000	63.415384  
3135.000000	63.453650  
3134.000000	63.487315  
3133.000000	63.513183  
3132.000000	63.529801  
3131.000000	63.537788  
3130.000000	63.539624  
3129.000000	63.538622  
3128.000000	63.537907  
3127.000000	63.539814  
3126.000000	63.545322  
3125.000000	63.553833  
3124.000000	63.563990  
3123.000000	63.573837  
3122.000000	63.581585  
3121.000000	63.585495  
3120.000000	63.584089  
3119.000000	63.576102  
3118.000000	63.560795  
3117.000000	63.537955  
3116.000000	63.508415  
3115.000000	63.474273  
3114.000000	63.439011  
3113.000000	63.407492  
3112.000000	63.385128  
3111.000000	63.376855  
3110.000000	63.385987  
3109.000000	63.413143  
3108.000000	63.455796  
3107.000000	63.508248  
3106.000000	63.563013  
3105.000000	63.612174  
3104.000000	63.648915  
3103.000000	63.668894  
3102.000000	63.670849  
3101.000000	63.656663  
3100.000000	63.630652  
3099.000000	63.598299  
3098.000000	63.565492  
3097.000000	63.537168  
3096.000000	63.516712  
3095.000000	63.505935  
3094.000000	63.504528  
3093.000000	63.510560  
3092.000000	63.520598  
3091.000000	63.530778  
3090.000000	63.537144  
3089.000000	63.536524  
3088.000000	63.526940  
3087.000000	63.508152  
3086.000000	63.481593  
3085.000000	63.450121  
3084.000000	63.417696  
3083.000000	63.388562  
3082.000000	63.366079  
3081.000000	63.352608  
3080.000000	63.348793  
3079.000000	63.353991  
3078.000000	63.366580  
3077.000000	63.384509  
3076.000000	63.405680  
3075.000000	63.428592  
3074.000000	63.452315  
3073.000000	63.476395  
3072.000000	63.500094  
3071.000000	63.522887  
3070.000000	63.544011  
3069.000000	63.562822  
3068.000000	63.578653  
3067.000000	63.591051  
3066.000000	63.599801  
3065.000000	63.604927  
3064.000000	63.606739  
3063.000000	63.605666  
3062.000000	63.602447  
3061.000000	63.597679  
3060.000000	63.592243  
3059.000000	63.587284  
3058.000000	63.584327  
3057.000000	63.585066  
3056.000000	63.591217  
3055.000000	63.604021  
3054.000000	63.623809  
3053.000000	63.649702  
3052.000000	63.679361  
3051.000000	63.709068  
3050.000000	63.734197  
3049.000000	63.750290  
3048.000000	63.753676  
3047.000000	63.742685  
3046.000000	63.717794  
3045.000000	63.681864  
3044.000000	63.639497  
3043.000000	63.596415  
3042.000000	63.557815  
3041.000000	63.527607  
3040.000000	63.507318  
3039.000000	63.496136  
3038.000000	63.491058  
3037.000000	63.487839  
3036.000000	63.482213  
3035.000000	63.471221  
3034.000000	63.453698  
3033.000000	63.430809  
3032.000000	63.405561  
3031.000000	63.382172  
3030.000000	63.364648  
3029.000000	63.356113  
3028.000000	63.357734  
3027.000000	63.368844  
3026.000000	63.386917  
3025.000000	63.408136  
3024.000000	63.428616  
3023.000000	63.444995  
3022.000000	63.455057  
3021.000000	63.458299  
3020.000000	63.455438  
3019.000000	63.448476  
3018.000000	63.439774  
3017.000000	63.431596  
3016.000000	63.425588  
3015.000000	63.422536  
3014.000000	63.422346  
3013.000000	63.424181  
3012.000000	63.426780  
3011.000000	63.428807  
3010.000000	63.429379  
3009.000000	63.428115  
3008.000000	63.425207  
3007.000000	63.421273  
3006.000000	63.417100  
3005.000000	63.413524  
3004.000000	63.411116  
3003.000000	63.410019  
3002.000000	63.409996  
3001.000000	63.410639  
3000.000000	63.411450  
2999.000000	63.412237  
2998.000000	63.413166  
2997.000000	63.414478  
2996.000000	63.416695  
2995.000000	63.420462  
2994.000000	63.426256  
2993.000000	63.434362  
2992.000000	63.444471  
2991.000000	63.455963  
2990.000000	63.467597  
2989.000000	63.477873  
2988.000000	63.485026  
2987.000000	63.487410  
2986.000000	63.483572  
2985.000000	63.472700  
2984.000000	63.454532  
2983.000000	63.429713  
2982.000000	63.399267  
2981.000000	63.364481  
2980.000000	63.326954  
2979.000000	63.288283  
2978.000000	63.249921  
2977.000000	63.213372  
2976.000000	63.179993  
2975.000000	63.151550  
2974.000000	63.129782  
2973.000000	63.116908  
2972.000000	63.114643  
2971.000000	63.124585  
2970.000000	63.147163  
2969.000000	63.181686  
2968.000000	63.225722  
2967.000000	63.275337  
2966.000000	63.325643  
2965.000000	63.371276  
2964.000000	63.407015  
2963.000000	63.428831  
2962.000000	63.434743  
2961.000000	63.424968  
2960.000000	63.401818  
2959.000000	63.369750  
2958.000000	63.334369  
2957.000000	63.301515  
2956.000000	63.276314  
2955.000000	63.262128  
2954.000000	63.259959  
2953.000000	63.268637  
2952.000000	63.285088  
2951.000000	63.305139  
2950.000000	63.324666  
2949.000000	63.340330  
2948.000000	63.350558  
2947.000000	63.355398  
2946.000000	63.356518  
2945.000000	63.356471  
2944.000000	63.357567  
2943.000000	63.361191  
2942.000000	63.366770  
2941.000000	63.372540  
2940.000000	63.374996  
2939.000000	63.370299  
2938.000000	63.354992  
2937.000000	63.327121  
2936.000000	63.286900  
2935.000000	63.237023  
2934.000000	63.182115  
2933.000000	63.127851  
2932.000000	63.079977  
2931.000000	63.043308  
2930.000000	63.020849  
2929.000000	63.013219  
2928.000000	63.018822  
2927.000000	63.034296  
2926.000000	63.055253  
2925.000000	63.077163  
2924.000000	63.095808  
2923.000000	63.108205  
2922.000000	63.112449  
2921.000000	63.108468  
2920.000000	63.097405  
2919.000000	63.081979  
2918.000000	63.065528  
2917.000000	63.051629  
2916.000000	63.043737  
2915.000000	63.043975  
2914.000000	63.053321  
2913.000000	63.070750  
2912.000000	63.093733  
2911.000000	63.118267  
2910.000000	63.140130  
2909.000000	63.155674  
2908.000000	63.162565  
2907.000000	63.160371  
2906.000000	63.150572  
2905.000000	63.136076  
2904.000000	63.120436  
2903.000000	63.107037  
2902.000000	63.098192  
2901.000000	63.094663  
2900.000000	63.095688  
2899.000000	63.099646  
2898.000000	63.104653  
2897.000000	63.109016  
2896.000000	63.111829  
2895.000000	63.113117  
2894.000000	63.113713  
2893.000000	63.114809  
2892.000000	63.117671  
2891.000000	63.122677  
2890.000000	63.129734  
2889.000000	63.138484  
2888.000000	63.148283  
2887.000000	63.158583  
2886.000000	63.168692  
2885.000000	63.178133  
2884.000000	63.186025  
2883.000000	63.191485  
2882.000000	63.193178  
2881.000000	63.189816  
2880.000000	63.180208  
2879.000000	63.163900  
2878.000000	63.141131  
2877.000000	63.113045  
2876.000000	63.081645  
2875.000000	63.049745  
2874.000000	63.020396  
2873.000000	62.996554  
2872.000000	62.980818  
2871.000000	62.974882  
2870.000000	62.979364  
2869.000000	62.993454  
2868.000000	63.014984  
2867.000000	63.040494  
2866.000000	63.065743  
2865.000000	63.086009  
2864.000000	63.096976  
2863.000000	63.095378  
2862.000000	63.080000  
2861.000000	63.052058  
2860.000000	63.014793  
2859.000000	62.973117  
2858.000000	62.932586  
2857.000000	62.898278  
2856.000000	62.873959  
2855.000000	62.861752  
2854.000000	62.862062  
2853.000000	62.873983  
2852.000000	62.895703  
2851.000000	62.925076  
2850.000000	62.959933  
2849.000000	62.998127  
2848.000000	63.037657  
2847.000000	63.076615  
2846.000000	63.113093  
2845.000000	63.145184  
2844.000000	63.171172  
2843.000000	63.189554  
2842.000000	63.199114  
2841.000000	63.199496  
2840.000000	63.190793  
2839.000000	63.173747  
2838.000000	63.149452  
2837.000000	63.119530  
2836.000000	63.085889  
2835.000000	63.050889  
2834.000000	63.017082  
2833.000000	62.987160  
2832.000000	62.963700  
2831.000000	62.948822  
2830.000000	62.943911  
2829.000000	62.949228  
2828.000000	62.963819  
2827.000000	62.985563  
2826.000000	63.011693  
2825.000000	63.039016  
2824.000000	63.064384  
2823.000000	63.085079  
2822.000000	63.099145  
2821.000000	63.105583  
2820.000000	63.104534  
2819.000000	63.097047  
2818.000000	63.084936  
2817.000000	63.070368  
2816.000000	63.055777  
2815.000000	63.043403  
2814.000000	63.035178  
2813.000000	63.032221  
2812.000000	63.035202  
2811.000000	63.043856  
2810.000000	63.057255  
2809.000000	63.073706  
2808.000000	63.090944  
2807.000000	63.106393  
2806.000000	63.117671  
2805.000000	63.122820  
2804.000000	63.120722  
2803.000000	63.111448  
2802.000000	63.096332  
2801.000000	63.077664  
2800.000000	63.058328  
2799.000000	63.041186  
2798.000000	63.028669  
2797.000000	63.021922  
2796.000000	63.020658  
2795.000000	63.023376  
2794.000000	63.027572  
2793.000000	63.030481  
2792.000000	63.029813  
2791.000000	63.024044  
2790.000000	63.012886  
2789.000000	62.997198  
2788.000000	62.978959  
2787.000000	62.960243  
2786.000000	62.943100  
2785.000000	62.929058  
2784.000000	62.919068  
2783.000000	62.913322  
2782.000000	62.911415  
2781.000000	62.912464  
2780.000000	62.915396  
2779.000000	62.918877  
2778.000000	62.921881  
2777.000000	62.923359  
2776.000000	62.922739  
2775.000000	62.919592  
2774.000000	62.914299  
2773.000000	62.907814  
2772.000000	62.901854  
2771.000000	62.898421  
2770.000000	62.899398  
2769.000000	62.906050  
2768.000000	62.918663  
2767.000000	62.936258  
2766.000000	62.956452  
2765.000000	62.975883  
2764.000000	62.990713  
2763.000000	62.997627  
2762.000000	62.994432  
2761.000000	62.980628  
2760.000000	62.957429  
2759.000000	62.927937  
2758.000000	62.896299  
2757.000000	62.867188  
2756.000000	62.844777  
2755.000000	62.831950  
2754.000000	62.829780  
2753.000000	62.837386  
2752.000000	62.852144  
2751.000000	62.870168  
2750.000000	62.887215  
2749.000000	62.899374  
2748.000000	62.903738  
2747.000000	62.899255  
2746.000000	62.886619  
2745.000000	62.868237  
2744.000000	62.847566  
2743.000000	62.828540  
2742.000000	62.814593  
2741.000000	62.808203  
2740.000000	62.810397  
2739.000000	62.820792  
2738.000000	62.837624  
2737.000000	62.858271  
2736.000000	62.879824  
2735.000000	62.899279  
2734.000000	62.914109  
2733.000000	62.922358  
2732.000000	62.923073  
2731.000000	62.916207  
2730.000000	62.902569  
2729.000000	62.883830  
2728.000000	62.861990  
2727.000000	62.839078  
2726.000000	62.816619  
2725.000000	62.795805  
2724.000000	62.777161  
2723.000000	62.760472  
2722.000000	62.745165  
2721.000000	62.730550  
2720.000000	62.716364  
2719.000000	62.703013  
2718.000000	62.691473  
2717.000000	62.683010  
2716.000000	62.678885  
2715.000000	62.679862  
2714.000000	62.685871  
2713.000000	62.695884  
2712.000000	62.708258  
2711.000000	62.720990  
2710.000000	62.732267  
2709.000000	62.740683  
2708.000000	62.745451  
2707.000000	62.746500  
2706.000000	62.744116  
2705.000000	62.739276  
2704.000000	62.733197  
2703.000000	62.727212  
2702.000000	62.722897  
2701.000000	62.721514  
2700.000000	62.723994  
2699.000000	62.730431  
2698.000000	62.740135  
2697.000000	62.751412  
2696.000000	62.761759  
2695.000000	62.768363  
2694.000000	62.768816  
2693.000000	62.761783  
2692.000000	62.747406  
2691.000000	62.727499  
2690.000000	62.705349  
2689.000000	62.684631  
2688.000000	62.668681  
2687.000000	62.659525  
2686.000000	62.657499  
2685.000000	62.661361  
2684.000000	62.668871  
2683.000000	62.677431  
2682.000000	62.685132  
2681.000000	62.691259  
2680.000000	62.696385  
2679.000000	62.701964  
2678.000000	62.709784  
2677.000000	62.721228  
2676.000000	62.736368  
2675.000000	62.754130  
2674.000000	62.772083  
2673.000000	62.787294  
2672.000000	62.796974  
2671.000000	62.799382  
2670.000000	62.794208  
2669.000000	62.782669  
2668.000000	62.767338  
2667.000000	62.751412  
2666.000000	62.737917  
2665.000000	62.729215  
2664.000000	62.726354  
2663.000000	62.729144  
2662.000000	62.736272  
2661.000000	62.745690  
2660.000000	62.755203  
2659.000000	62.762928  
2658.000000	62.767696  
2657.000000	62.769031  
2656.000000	62.767267  
2655.000000	62.763237  
2654.000000	62.757778  
2653.000000	62.751555  
2652.000000	62.744903  
2651.000000	62.737631  
2650.000000	62.729525  
2649.000000	62.719988  
2648.000000	62.708759  
2647.000000	62.695813  
2646.000000	62.681484  
2645.000000	62.666487  
2644.000000	62.651658  
2643.000000	62.637853  
2642.000000	62.625789  
2641.000000	62.615871  
2640.000000	62.608146  
2639.000000	62.602519  
2638.000000	62.598848  
2637.000000	62.597131  
2636.000000	62.597274  
2635.000000	62.599372  
2634.000000	62.603449  
2633.000000	62.609338  
2632.000000	62.616848  
2631.000000	62.625527  
2630.000000	62.634968  
2629.000000	62.644648  
2628.000000	62.654089  
2627.000000	62.663149  
2626.000000	62.671589  
2625.000000	62.679386  
2624.000000	62.686347  
2623.000000	62.692284  
2622.000000	62.697052  
2621.000000	62.700533  
2620.000000	62.702703  
2619.000000	62.703728  
2618.000000	62.703776  
2617.000000	62.703323  
2616.000000	62.702488  
2615.000000	62.701153  
2614.000000	62.698864  
2613.000000	62.694859  
2612.000000	62.688136  
2611.000000	62.677979  
2610.000000	62.663960  
2609.000000	62.646484  
2608.000000	62.626600  
2607.000000	62.605929  
2606.000000	62.586379  
2605.000000	62.569665  
2604.000000	62.556982  
2603.000000	62.548661  
2602.000000	62.544178  
2601.000000	62.542343  
2600.000000	62.541699  
2599.000000	62.540793  
2598.000000	62.538671  
2597.000000	62.535190  
2596.000000	62.530851  
2595.000000	62.526774  
2594.000000	62.524127  
2593.000000	62.523913  
2592.000000	62.526559  
2591.000000	62.531638  
2590.000000	62.538218  
2589.000000	62.544798  
2588.000000	62.549805  
2587.000000	62.551760  
2586.000000	62.549829  
2585.000000	62.543630  
2584.000000	62.533426  
2583.000000	62.520051  
2582.000000	62.504720  
2581.000000	62.489128  
2580.000000	62.475037  
2579.000000	62.464261  
2578.000000	62.458348  
2577.000000	62.458348  
2576.000000	62.464714  
2575.000000	62.476897  
2574.000000	62.493562  
2573.000000	62.512731  
2572.000000	62.532281  
2571.000000	62.550091  
2570.000000	62.564706  
2569.000000	62.575626  
2568.000000	62.583231  
2567.000000	62.588596  
2566.000000	62.593221  
2565.000000	62.598419  
2564.000000	62.605118  
2563.000000	62.613511  
2562.000000	62.623000  
2561.000000	62.632703  
2560.000000	62.641644  
2559.000000	62.649059  
2558.000000	62.654757  
2557.000000	62.659120  
2556.000000	62.662744  
2555.000000	62.666344  
2554.000000	62.670159  
2553.000000	62.673878  
2552.000000	62.676739  
2551.000000	62.677502  
2550.000000	62.675023  
2549.000000	62.668347  
2548.000000	62.657356  
2547.000000	62.642526  
2546.000000	62.624859  
2545.000000	62.605524  
2544.000000	62.585639  
2543.000000	62.566018  
2542.000000	62.546849  
2541.000000	62.527871  
2540.000000	62.508821  
2539.000000	62.489271  
2538.000000	62.469339  
2537.000000	62.449383  
2536.000000	62.429952  
2535.000000	62.411713  
2534.000000	62.394905  
2533.000000	62.379384  
2532.000000	62.364363  
2531.000000	62.349104  
2530.000000	62.333154  
2529.000000	62.316727  
2528.000000	62.300610  
2527.000000	62.286210  
2526.000000	62.275147  
2525.000000	62.268805  
2524.000000	62.267899  
2523.000000	62.272453  
2522.000000	62.281918  
2521.000000	62.295198  
2520.000000	62.311339  
2519.000000	62.329554  
2518.000000	62.349510  
2517.000000	62.371158  
2516.000000	62.394475  
2515.000000	62.418961  
2514.000000	62.443494  
2513.000000	62.466502  
2512.000000	62.485742  
2511.000000	62.499022  
2510.000000	62.504172  
2509.000000	62.500214  
2508.000000	62.486624  
2507.000000	62.463879  
2506.000000	62.433171  
2505.000000	62.396264  
2504.000000	62.355875  
2503.000000	62.315297  
2502.000000	62.278294  
2501.000000	62.248706  
2500.000000	62.229776  
2499.000000	62.223482  
2498.000000	62.229919  
2497.000000	62.247014  
2496.000000	62.270641  
2495.000000	62.295603  
2494.000000	62.316489  
2493.000000	62.329173  
2492.000000	62.331604  
2491.000000	62.324547  
2490.000000	62.311220  
2489.000000	62.296676  
2488.000000	62.286162  
2487.000000	62.283873  
2486.000000	62.291979  
2485.000000	62.309861  
2484.000000	62.334895  
2483.000000	62.362551  
2482.000000	62.388348  
2481.000000	62.408065  
2480.000000	62.418794  
2479.000000	62.419009  
2478.000000	62.408685  
2477.000000	62.389111  
2476.000000	62.362384  
2475.000000	62.331271  
2474.000000	62.298727  
2473.000000	62.267613  
2472.000000	62.240672  
2471.000000	62.220191  
2470.000000	62.208008  
2469.000000	62.205362  
2468.000000	62.212729  
2467.000000	62.229704  
2466.000000	62.254977  
2465.000000	62.286281  
2464.000000	62.320828  
2463.000000	62.355160  
2462.000000	62.386250  
2461.000000	62.411260  
2460.000000	62.428569  
2459.000000	62.437558  
2458.000000	62.439036  
2457.000000	62.435030  
2456.000000	62.428212  
2455.000000	62.421846  
2454.000000	62.418365  
2453.000000	62.419104  
2452.000000	62.423586  
2451.000000	62.429976  
2450.000000	62.435317  
2449.000000	62.436795  
2448.000000	62.431788  
2447.000000	62.418937  
2446.000000	62.398171  
2445.000000	62.370824  
2444.000000	62.339186  
2443.000000	62.306022  
2442.000000	62.274026  
2441.000000	62.245464  
2440.000000	62.222003  
2439.000000	62.204766  
2438.000000	62.194275  
2437.000000	62.190651  
2436.000000	62.193417  
2435.000000	62.201809  
2434.000000	62.214612  
2433.000000	62.230992  
2432.000000	62.249732  
2431.000000	62.270402  
2430.000000	62.293481  
2429.000000	62.319874  
2428.000000	62.350988  
2427.000000	62.386894  
2426.000000	62.426090  
2425.000000	62.464809  
2424.000000	62.497472  
2423.000000	62.517595  
2422.000000	62.519598  
2421.000000	62.500286  
2420.000000	62.460446  
2419.000000	62.404823  
2418.000000	62.341427  
2417.000000	62.279963  
2416.000000	62.229466  
2415.000000	62.196421  
2414.000000	62.183237  
2413.000000	62.188029  
2412.000000	62.205410  
2411.000000	62.228202  
2410.000000	62.249588  
2409.000000	62.264585  
2408.000000	62.271428  
2407.000000	62.270855  
2406.000000	62.266087  
2405.000000	62.260532  
2404.000000	62.257599  
2403.000000	62.259411  
2402.000000	62.266612  
2401.000000	62.278485  
2400.000000	62.292957  
2399.000000	62.307596  
2398.000000	62.319493  
2397.000000	62.326264  
2396.000000	62.326097  
2395.000000	62.318181  
2394.000000	62.302827  
2393.000000	62.281298  
2392.000000	62.255644  
2391.000000	62.228417  
2390.000000	62.202167  
2389.000000	62.179136  
2388.000000	62.160778  
2387.000000	62.147593  
2386.000000	62.139272  
2385.000000	62.134742  
2384.000000	62.132334  
2383.000000	62.129902  
2382.000000	62.125706  
2381.000000	62.118244  
2380.000000	62.106466  
2379.000000	62.090039  
2378.000000	62.069034  
2377.000000	62.044501  
2376.000000	62.017989  
2375.000000	61.992025  
2374.000000	61.969423  
2373.000000	61.953091  
2372.000000	61.945295  
2371.000000	61.947202  
2370.000000	61.958456  
2369.000000	61.977505  
2368.000000	62.001657  
2367.000000	62.027764  
2366.000000	62.052631  
2365.000000	62.073659  
2364.000000	62.089037  
2363.000000	62.098145  
2362.000000	62.101197  
2361.000000	62.099170  
2360.000000	62.093424  
2359.000000	62.085366  
2358.000000	62.076187  
2357.000000	62.066650  
2356.000000	62.057042  
2355.000000	62.047600  
2354.000000	62.038397  
2353.000000	62.029910  
2352.000000	62.022948  
2351.000000	62.018585  
2350.000000	62.017846  
2349.000000	62.021589  
2348.000000	62.029814  
2347.000000	62.041711  
2346.000000	62.055373  
2345.000000	62.068152  
2344.000000	62.077045  
2343.000000	62.079453  
2342.000000	62.073683  
2341.000000	62.059426  
2340.000000	62.038064  
2339.000000	62.012314  
2338.000000	61.985683  
2337.000000	61.961698  
2336.000000	61.943173  
2335.000000	61.931610  
2334.000000	61.927270  
2333.000000	61.929225  
2332.000000	61.935639  
2331.000000	61.944460  
2330.000000	61.953759  
2329.000000	61.962199  
2328.000000	61.968731  
2327.000000	61.973071  
2326.000000	61.975216  
2325.000000	61.975193  
2324.000000	61.973071  
2323.000000	61.968755  
2322.000000	61.962056  
2321.000000	61.952662  
2320.000000	61.940789  
2319.000000	61.926722  
2318.000000	61.911344  
2317.000000	61.895871  
2316.000000	61.881709  
2315.000000	61.870312  
2314.000000	61.862659  
2313.000000	61.859250  
2312.000000	61.859965  
2311.000000	61.864018  
2310.000000	61.870145  
2309.000000	61.876940  
2308.000000	61.883068  
2307.000000	61.887431  
2306.000000	61.889338  
2305.000000	61.888647  
2304.000000	61.885523  
2303.000000	61.880302  
2302.000000	61.873316  
2301.000000	61.864900  
2300.000000	61.855220  
2299.000000	61.844444  
2298.000000	61.832642  
2297.000000	61.820030  
2296.000000	61.807084  
2295.000000	61.794471  
2294.000000	61.783266  
2293.000000	61.774396  
2292.000000	61.768794  
2291.000000	61.767101  
2290.000000	61.769461  
2289.000000	61.775612  
2288.000000	61.784648  
2287.000000	61.795306  
2286.000000	61.806273  
2285.000000	61.816167  
2284.000000	61.824035  
2283.000000	61.829304  
2282.000000	61.832141  
2281.000000	61.833071  
2280.000000	61.832952  
2279.000000	61.832737  
2278.000000	61.833357  
2277.000000	61.835408  
2276.000000	61.839294  
2275.000000	61.844968  
2274.000000	61.852288  
2273.000000	61.860513  
2272.000000	61.868977  
2271.000000	61.876487  
2270.000000	61.881804  
2269.000000	61.883521  
2268.000000	61.880373  
2267.000000	61.871528  
2266.000000	61.856842  
2265.000000	61.837220  
2264.000000	61.814475  
2263.000000	61.791181  
2262.000000	61.770319  
2261.000000	61.754608  
2260.000000	61.745858  
2259.000000	61.744594  
2258.000000	61.749815  
2257.000000	61.759328  
2256.000000	61.770296  
2255.000000	61.779856  
2254.000000	61.785626  
2253.000000	61.786627  
2252.000000	61.782932  
2251.000000	61.775684  
2250.000000	61.766386  
2249.000000	61.756253  
2248.000000	61.746168  
2247.000000	61.736035  
2246.000000	61.725473  
2245.000000	61.714172  
2244.000000	61.702418  
2243.000000	61.691403  
2242.000000	61.682987  
2241.000000	61.679267  
2240.000000	61.682105  
2239.000000	61.692094  
2238.000000	61.708712  
2237.000000	61.730003  
2236.000000	61.753082  
2235.000000	61.774873  
2234.000000	61.792635  
2233.000000	61.804533  
2232.000000	61.809778  
2231.000000	61.808681  
2230.000000	61.802029  
2229.000000	61.790823  
2228.000000	61.776065  
2227.000000	61.758685  
2226.000000	61.739540  
2225.000000	61.719727  
2224.000000	61.700773  
2223.000000	61.684489  
2222.000000	61.672616  
2221.000000	61.666345  
2220.000000	61.665940  
2219.000000	61.670637  
2218.000000	61.678767  
2217.000000	61.687922  
2216.000000	61.695814  
2215.000000	61.700749  
2214.000000	61.701750  
2213.000000	61.698794  
2212.000000	61.692667  
2211.000000	61.684584  
2210.000000	61.675667  
2209.000000	61.666846  
2208.000000	61.658430  
2207.000000	61.650276  
2206.000000	61.641955  
2205.000000	61.633038  
2204.000000	61.623358  
2203.000000	61.613225  
2202.000000	61.603331  
2201.000000	61.594605  
2200.000000	61.587929  
2199.000000	61.583948  
2198.000000	61.582899  
2197.000000	61.584758  
2196.000000	61.589074  
2195.000000	61.595082  
2194.000000	61.602020  
2193.000000	61.609244  
2192.000000	61.616277  
2191.000000	61.622810  
2190.000000	61.628484  
2189.000000	61.633038  
2188.000000	61.635994  
2187.000000	61.636734  
2186.000000	61.634445  
2185.000000	61.628317  
2184.000000	61.618065  
2183.000000	61.603879  
2182.000000	61.586809  
2181.000000	61.568641  
2180.000000	61.551713  
2179.000000	61.538481  
2178.000000	61.530923  
2177.000000	61.530089  
2176.000000	61.535906  
2175.000000	61.547183  
2174.000000	61.561536  
2173.000000	61.576128  
2172.000000	61.588239  
2171.000000	61.595988  
2170.000000	61.598682  
2169.000000	61.597204  
2168.000000	61.593747  
2167.000000	61.591339  
2166.000000	61.593079  
2165.000000	61.601233  
2164.000000	61.616659  
2163.000000	61.638164  
2162.000000	61.662983  
2161.000000	61.687040  
2160.000000	61.706233  
2159.000000	61.716985  
2158.000000	61.717605  
2157.000000	61.707925  
2156.000000	61.689877  
2155.000000	61.666250  
2154.000000	61.640453  
2153.000000	61.615037  
2152.000000	61.591434  
2151.000000	61.569666  
2150.000000	61.548590  
2149.000000	61.526632  
2148.000000	61.502432  
2147.000000	61.475729  
2146.000000	61.447620  
2145.000000	61.420536  
2144.000000	61.397647  
2143.000000	61.382031  
2142.000000	61.375784  
2141.000000	61.379551  
2140.000000	61.392211  
2139.000000	61.411094  
2138.000000	61.432266  
2137.000000	61.451554  
2136.000000	61.465263  
2135.000000	61.470866  
2134.000000	61.467814  
2133.000000	61.457252  
2132.000000	61.441946  
2131.000000	61.425423  
2130.000000	61.410999  
2129.000000	61.401152  
2128.000000	61.396765  
2127.000000	61.397075  
2126.000000	61.400079  
2125.000000	61.403441  
2124.000000	61.405086  
2123.000000	61.403942  
2122.000000	61.400055  
2121.000000	61.394548  
2120.000000	61.389064  
2119.000000	61.385035  
2118.000000	61.383223  
2117.000000	61.383271  
2116.000000	61.383986  
2115.000000	61.383724  
2114.000000	61.381125  
2113.000000	61.375880  
2112.000000	61.368799  
2111.000000	61.361765  
2110.000000	61.356925  
2109.000000	61.356163  
2108.000000	61.360216  
2107.000000	61.368584  
2106.000000	61.379551  
2105.000000	61.390638  
2104.000000	61.399459  
2103.000000	61.404109  
2102.000000	61.403489  
2101.000000	61.397409  
2100.000000	61.386632  
2099.000000	61.372542  
2098.000000	61.356925  
2097.000000	61.341547  
2096.000000	61.327934  
2095.000000	61.317205  
2094.000000	61.309981  
2093.000000	61.306238  
2092.000000	61.305427  
2091.000000	61.306381  
2090.000000	61.307477  
2089.000000	61.306905  
2088.000000	61.302995  
2087.000000	61.294555  
2086.000000	61.281442  
2085.000000	61.264348  
2084.000000	61.245250  
2083.000000	61.226654  
2082.000000	61.211872  
2081.000000	61.203718  
2080.000000	61.204886  
2079.000000	61.217164  
2078.000000	61.241292  
2077.000000	61.276817  
2076.000000	61.321592  
2075.000000	61.372184  
2074.000000	61.423587  
2073.000000	61.470031  
2072.000000	61.505746  
2071.000000	61.525869  
2070.000000	61.527538  
2069.000000	61.510396  
2068.000000	61.476874  
2067.000000	61.431884  
2066.000000	61.382031  
2065.000000	61.334443  
2064.000000	61.295223  
2063.000000	61.268520  
2062.000000	61.255884  
2061.000000	61.256384  
2060.000000	61.267042  
2059.000000	61.283755  
2058.000000	61.302399  
2057.000000	61.319589  
2056.000000	61.332964  
2055.000000	61.341500  
2054.000000	61.344742  
2053.000000	61.343073  
2052.000000	61.336970  
2051.000000	61.326909  
2050.000000	61.313581  
2049.000000	61.297273  
2048.000000	61.278533  
2047.000000	61.257791  
2046.000000	61.235713  
2045.000000	61.213159  
2044.000000	61.191320  
2043.000000	61.171388  
2042.000000	61.154580  
2041.000000	61.142063  
2040.000000	61.134839  
2039.000000	61.133575  
2038.000000	61.138296  
2037.000000	61.148357  
2036.000000	61.162424  
2035.000000	61.178565  
2034.000000	61.194562  
2033.000000	61.207747  
2032.000000	61.215734  
2031.000000	61.216783  
2030.000000	61.210012  
2029.000000	61.195659  
2028.000000	61.174869  
2027.000000	61.149787  
2026.000000	61.122608  
2025.000000	61.095666  
2024.000000	61.070680  
2023.000000	61.048746  
2022.000000	61.030077  
2021.000000	61.014151  
2020.000000	61.000108  
2019.000000	60.987186  
2018.000000	60.975050  
2017.000000	60.963916  
2016.000000	60.954570  
2015.000000	60.948228  
2014.000000	60.945868  
2013.000000	60.947918  
2012.000000	60.953974  
2011.000000	60.962963  
2010.000000	60.973119  
2009.000000	60.982584  
2008.000000	60.989665  
2007.000000	60.993289  
2006.000000	60.992932  
2005.000000	60.988759  
2004.000000	60.981082  
2003.000000	60.970854  
2002.000000	60.958933  
2001.000000	60.946583  
2000.000000	60.934972  
1999.000000	60.925507  
1998.000000	60.919713  
1997.000000	60.918831  
1996.000000	60.923790  
1995.000000	60.934686  
1994.000000	60.950541  
1993.000000	60.969543  
1992.000000	60.989141  
1991.000000	61.006927  
1990.000000	61.020994  
1989.000000	61.030387  
1988.000000	61.035418  
1987.000000	61.037206  
1986.000000	61.036992  
1985.000000	61.035752  
1984.000000	61.033964  
1983.000000	61.031436  
1982.000000	61.027622  
1981.000000	61.022067  
1980.000000	61.014842  
1979.000000	61.006665  
1978.000000	60.998773  
1977.000000	60.992479  
1976.000000	60.988783  
1975.000000	60.987830  
1974.000000	60.988664  
1973.000000	60.989522  
1972.000000	60.988092  
1971.000000	60.982418  
1970.000000	60.971260  
1969.000000	60.954737  
1968.000000	60.934281  
1967.000000	60.912156  
1966.000000	60.891175  
1965.000000	60.873770  
1964.000000	60.861730  
1963.000000	60.856008  
1962.000000	60.856676  
1961.000000	60.863113  
1960.000000	60.874295  
1959.000000	60.889220  
1958.000000	60.906791  
1957.000000	60.925793  
1956.000000	60.945034  
1955.000000	60.963439  
1954.000000	60.979795  
1953.000000	60.992956  
1952.000000	61.001944  
1951.000000	61.006116  
1950.000000	61.005425  
1949.000000	61.000180  
1948.000000	60.991287  
1947.000000	60.979819  
1946.000000	60.967087  
1945.000000	60.954284  
1944.000000	60.942196  
1943.000000	60.931134  
1942.000000	60.921406  
1941.000000	60.912966  
1940.000000	60.905623  
1939.000000	60.899209  
1938.000000	60.893511  
1937.000000	60.888314  
1936.000000	60.883188  
1935.000000	60.877633  
1934.000000	60.870766  
1933.000000	60.861754  
1932.000000	60.849738  
1931.000000	60.834240  
1930.000000	60.815286  
1929.000000	60.793709  
1928.000000	60.771155  
1927.000000	60.749697  
1926.000000	60.731410  
1925.000000	60.718107  
1924.000000	60.710906  
1923.000000	60.709691  
1922.000000	60.713744  
1921.000000	60.721778  
1920.000000	60.732603  
1919.000000	60.745143  
1918.000000	60.759019  
1917.000000	60.774540  
1916.000000	60.792231  
1915.000000	60.812640  
1914.000000	60.835433  
1913.000000	60.859322  
1912.000000	60.881972  
1911.000000	60.900592  
1910.000000	60.912108  
1909.000000	60.914254  
1908.000000	60.905909  
1907.000000	60.887694  
1906.000000	60.861802  
1905.000000	60.831499  
1904.000000	60.800600  
1903.000000	60.772705  
1902.000000	60.750889  
1901.000000	60.737037  
1900.000000	60.732173  
1899.000000	60.735917  
1898.000000	60.747170  
1897.000000	60.763859  
1896.000000	60.783338  
1895.000000	60.802578  
1894.000000	60.818266  
1893.000000	60.827350  
1892.000000	60.827398  
1891.000000	60.817241  
1890.000000	60.797142  
1889.000000	60.769128  
1888.000000	60.736656  
1887.000000	60.704183  
1886.000000	60.676431  
1885.000000	60.657382  
1884.000000	60.649466  
1883.000000	60.653066  
1882.000000	60.666751  
1881.000000	60.687232  
1880.000000	60.710144  
1879.000000	60.731053  
1878.000000	60.746145  
1877.000000	60.752677  
1876.000000	60.749435  
1875.000000	60.736775  
1874.000000	60.716176  
1873.000000	60.690021  
1872.000000	60.661053  
1871.000000	60.631847  
1870.000000	60.604524  
1869.000000	60.580801  
1868.000000	60.561752  
1867.000000	60.548067  
1866.000000	60.540103  
1865.000000	60.537576  
1864.000000	60.540103  
1863.000000	60.546636  
1862.000000	60.555887  
1861.000000	60.566067  
1860.000000	60.575532  
1859.000000	60.582685  
1858.000000	60.586452  
1857.000000	60.586476  
1856.000000	60.583257  
1855.000000	60.577821  
1854.000000	60.571813  
1853.000000	60.566854  
1852.000000	60.564255  
1851.000000	60.564661  
1850.000000	60.567951  
1849.000000	60.573172  
1848.000000	60.578942  
1847.000000	60.583543  
1846.000000	60.585522  
1845.000000	60.583734  
1844.000000	60.577774  
1843.000000	60.568070  
1842.000000	60.555672  
1841.000000	60.542249  
1840.000000	60.529756  
1839.000000	60.520029  
1838.000000	60.514783  
1837.000000	60.515213  
1836.000000	60.521721  
1835.000000	60.533881  
1834.000000	60.550594  
1833.000000	60.569882  
1832.000000	60.589337  
1831.000000	60.606408  
1830.000000	60.618805  
1829.000000	60.625004  
1828.000000	60.624551  
1827.000000	60.618424  
1826.000000	60.608482  
1825.000000	60.597443  
1824.000000	60.588002  
1823.000000	60.582375  
1822.000000	60.581564  
1821.000000	60.585045  
1820.000000	60.590696  
1819.000000	60.595393  
1818.000000	60.595846  
1817.000000	60.589480  
1816.000000	60.575199  
1815.000000	60.553646  
1814.000000	60.527348  
1813.000000	60.500001  
1812.000000	60.475754  
1811.000000	60.458278  
1810.000000	60.449719  
1809.000000	60.450506  
1808.000000	60.459065  
1807.000000	60.472631  
1806.000000	60.487699  
1805.000000	60.500955  
1804.000000	60.509872  
1803.000000	60.513114  
1802.000000	60.510635  
1801.000000	60.503506  
1800.000000	60.493326  
1799.000000	60.481810  
1798.000000	60.470700  
1797.000000	60.461354  
1796.000000	60.454702  
1795.000000	60.451054  
1794.000000	60.450220  
1793.000000	60.451436  
1792.000000	60.453391  
1791.000000	60.454678  
1790.000000	60.453820  
1789.000000	60.449814  
1788.000000	60.442233  
1787.000000	60.431623  
1786.000000	60.419082  
1785.000000	60.406231  
1784.000000	60.394620  
1783.000000	60.385680  
1782.000000	60.380220  
1781.000000	60.378503  
1780.000000	60.380268  
1779.000000	60.384893  
1778.000000	60.391616  
1777.000000	60.399532  
1776.000000	60.408020  
1775.000000	60.416197  
1774.000000	60.423231  
1773.000000	60.427975  
1772.000000	60.429000  
1771.000000	60.424685  
1770.000000	60.413837  
1769.000000	60.395717  
1768.000000	60.370707  
1767.000000	60.340261  
1766.000000	60.307049  
1765.000000	60.274553  
1764.000000	60.246467  
1763.000000	60.226130  
1762.000000	60.215783  
1761.000000	60.216093  
1760.000000	60.226035  
1759.000000	60.243010  
1758.000000	60.263705  
1757.000000	60.284161  
1756.000000	60.300946  
1755.000000	60.311627  
1754.000000	60.315179  
1753.000000	60.311865  
1752.000000	60.303068  
1751.000000	60.290527  
1750.000000	60.276150  
1749.000000	60.261368  
1748.000000	60.247111  
1747.000000	60.233592  
1746.000000	60.220670  
1745.000000	60.208201  
1744.000000	60.196232  
1743.000000	60.185098  
1742.000000	60.175490  
1741.000000	60.168290  
1740.000000	60.164237  
1739.000000	60.163640  
1738.000000	60.166454  
1737.000000	60.171771  
1736.000000	60.178041  
1735.000000	60.183143  
1734.000000	60.184907  
1733.000000	60.181427  
1732.000000	60.171294  
1731.000000	60.154080  
1730.000000	60.130429  
1729.000000	60.102128  
1728.000000	60.071539  
1727.000000	60.041451  
1726.000000	60.014486  
1725.000000	59.992647  
1724.000000	59.977126  
1723.000000	59.967923  
1722.000000	59.964084  
1721.000000	59.964013  
1720.000000	59.965777  
1719.000000	59.967947  
1718.000000	59.969520  
1717.000000	59.970378  
1716.000000	59.971117  
1715.000000	59.972906  
1714.000000	59.977006  
1713.000000	59.984517  
1712.000000	59.996008  
1711.000000	60.011482  
1710.000000	60.030126  
1709.000000	60.050702  
1708.000000	60.071802  
1707.000000	60.092020  
1706.000000	60.110282  
1705.000000	60.126233  
1704.000000	60.139966  
1703.000000	60.152220  
1702.000000	60.163664  
1701.000000	60.174846  
1700.000000	60.185503  
1699.000000	60.195279  
1698.000000	60.203027  
1697.000000	60.207438  
1696.000000	60.207223  
1695.000000	60.202121  
1694.000000	60.192418  
1693.000000	60.179090  
1692.000000	60.163784  
1691.000000	60.148334  
1690.000000	60.134387  
1689.000000	60.122990  
1688.000000	60.114407  
1687.000000	60.108208  
1686.000000	60.103273  
1685.000000	60.098409  
1684.000000	60.092258  
1683.000000	60.083842  
1682.000000	60.072636  
1681.000000	60.058689  
1680.000000	60.042309  
1679.000000	60.024333  
1678.000000	60.006070  
1677.000000	59.989523  
1676.000000	59.976530  
1675.000000	59.969115  
1674.000000	59.969091  
1673.000000	59.977936  
1672.000000	59.996032  
1671.000000	60.022926  
1670.000000	60.056972  
1669.000000	60.095620  
1668.000000	60.135579  
1667.000000	60.173249  
1666.000000	60.205197  
1665.000000	60.228705  
1664.000000	60.242033  
1663.000000	60.244727  
1662.000000	60.237455  
1661.000000	60.222148  
1660.000000	60.201454  
1659.000000	60.178184  
1658.000000	60.154867  
1657.000000	60.133457  
1656.000000	60.114836  
1655.000000	60.098838  
1654.000000	60.084128  
1653.000000	60.068964  
1652.000000	60.051727  
1651.000000	60.031294  
1650.000000	60.007762  
1649.000000	59.982347  
1648.000000	59.957218  
1647.000000	59.934735  
1646.000000	59.916973  
1645.000000	59.905028  
1644.000000	59.898734  
1643.000000	59.896850  
1642.000000	59.897255  
1641.000000	59.897518  
1640.000000	59.895682  
1639.000000	59.890627  
1638.000000	59.882235  
1637.000000	59.871244  
1636.000000	59.859013  
1635.000000	59.847331  
1634.000000	59.837627  
1633.000000	59.830951  
1632.000000	59.827804  
1631.000000	59.828352  
1630.000000	59.832310  
1629.000000	59.839296  
1628.000000	59.848833  
1627.000000	59.860205  
1626.000000	59.872603  
1625.000000	59.885048  
1624.000000	59.896731  
1623.000000	59.906864  
1622.000000	59.915065  
1621.000000	59.920930  
1620.000000	59.924507  
1619.000000	59.925532  
1618.000000	59.924125  
1617.000000	59.920024  
1616.000000	59.912562  
1615.000000	59.901070  
1614.000000	59.885072  
1613.000000	59.864759  
1612.000000	59.840965  
1611.000000	59.815549  
1610.000000	59.791135  
1609.000000	59.770584  
1608.000000	59.756517  
1607.000000	59.750652  
1606.000000	59.753417  
1605.000000	59.763979  
1604.000000	59.780263  
1603.000000	59.799528  
1602.000000	59.818577  
1601.000000	59.834122  
1600.000000	59.843182  
1599.000000	59.843325  
1598.000000	59.833216  
1597.000000	59.812855  
1596.000000	59.783768  
1595.000000	59.748768  
1594.000000	59.711837  
1593.000000	59.677553  
1592.000000	59.649991  
1591.000000	59.632229  
1590.000000	59.625864  
1589.000000	59.630584  
1588.000000	59.644389  
1587.000000	59.664011  
1586.000000	59.685659  
1585.000000	59.705662  
1584.000000	59.721374  
1583.000000	59.731388  
1582.000000	59.735774  
1581.000000	59.735441  
1580.000000	59.732079  
1579.000000	59.727573  
1578.000000	59.723520  
1577.000000	59.720945  
1576.000000	59.720444  
1575.000000	59.721899  
1574.000000	59.724617  
1573.000000	59.727263  
1572.000000	59.728288  
1571.000000	59.726047  
1570.000000	59.719347  
1569.000000	59.707427  
1568.000000	59.690380  
1567.000000	59.669017  
1566.000000	59.644675  
1565.000000	59.619379  
1564.000000	59.595108  
1563.000000	59.574103  
1562.000000	59.558248  
1561.000000	59.549283  
1560.000000	59.548377  
1559.000000	59.555959  
1558.000000	59.571695  
1557.000000	59.594130  
1556.000000	59.620833  
1555.000000	59.648704  
1554.000000	59.674406  
1553.000000	59.694719  
1552.000000	59.707140  
1551.000000	59.710288  
1550.000000	59.704303  
1549.000000	59.690666  
1548.000000	59.671854  
1547.000000	59.650874  
1546.000000	59.630680  
1545.000000	59.613561  
1544.000000	59.600758  
1543.000000	59.592461  
1542.000000	59.587931  
1541.000000	59.585714  
1540.000000	59.584331  
1539.000000	59.582591  
1538.000000	59.579873  
1537.000000	59.576082  
1536.000000	59.571480  
1535.000000	59.566283  
1534.000000	59.560513  
1533.000000	59.553956  
1532.000000	59.546089  
1531.000000	59.536147  
1530.000000	59.523558  
1529.000000	59.508419  
1528.000000	59.491586  
1527.000000	59.474563  
1526.000000	59.459328  
1525.000000	59.447860  
1524.000000	59.441757  
1523.000000	59.441876  
1522.000000	59.447836  
1521.000000	59.458065  
1520.000000	59.470081  
1519.000000	59.480786  
1518.000000	59.487318  
1517.000000	59.487056  
1516.000000	59.478402  
1515.000000	59.460997  
1514.000000	59.435629  
1513.000000	59.404706  
1512.000000	59.371256  
1511.000000	59.339094  
1510.000000	59.312129  
1509.000000	59.294056  
1508.000000	59.287595  
1507.000000	59.294152  
1506.000000	59.313488  
1505.000000	59.343814  
1504.000000	59.381914  
1503.000000	59.423470  
1502.000000	59.463715  
1501.000000	59.497928  
1500.000000	59.521913  
1499.000000	59.532856  
1498.000000	59.529709  
1497.000000	59.513473  
1496.000000	59.486937  
1495.000000	59.454512  
1494.000000	59.421253  
1493.000000	59.391784  
1492.000000	59.369373  
1491.000000	59.355568  
1490.000000	59.349966  
1489.000000	59.351086  
1488.000000	59.356617  
1487.000000	59.364151  
1486.000000	59.371709  
1485.000000	59.378147  
1484.000000	59.382963  
1483.000000	59.385585  
1482.000000	59.385633  
1481.000000	59.382820  
1480.000000	59.376716  
1479.000000	59.367179  
1478.000000	59.354376  
1477.000000	59.338927  
1476.000000	59.322047  
1475.000000	59.305405  
1474.000000	59.290790  
1473.000000	59.279918  
1472.000000	59.274196  
1471.000000	59.274363  
1470.000000	59.280753  
1469.000000	59.292960  
1468.000000	59.310245  
1467.000000	59.331226  
1466.000000	59.354186  
1465.000000	59.376955  
1464.000000	59.396910  
1463.000000	59.411120  
1462.000000	59.416556  
1461.000000	59.410381  
1460.000000	59.390997  
1459.000000	59.357881  
1458.000000	59.312248  
1457.000000	59.256649  
1456.000000	59.194970  
1455.000000	59.131622  
1454.000000	59.071063  
1453.000000	59.017109  
1452.000000	58.972501  
1451.000000	58.938980  
1450.000000	58.917403  
1449.000000	58.908367  
1448.000000	58.912014  
1447.000000	58.928489  
1446.000000	58.957505  
1445.000000	58.998107  
1444.000000	59.048151  
1443.000000	59.104061  
1442.000000	59.160900  
1441.000000	59.212875  
1440.000000	59.254503  
1439.000000	59.281492  
1438.000000	59.291791  
1437.000000	59.286117  
1436.000000	59.267807  
1435.000000	59.242415  
1434.000000	59.215998  
1433.000000	59.194350  
1432.000000	59.181308  
1431.000000	59.178566  
1430.000000	59.185028  
1429.000000	59.197831  
1428.000000	59.212851  
1427.000000	59.226083  
1426.000000	59.234404  
1425.000000	59.236431  
1424.000000	59.232521  
1423.000000	59.224009  
1422.000000	59.213209  
1421.000000	59.202480  
1420.000000	59.193968  
1419.000000	59.188771  
1418.000000	59.187316  
1417.000000	59.189128  
1416.000000	59.193181  
1415.000000	59.197974  
1414.000000	59.201788  
1413.000000	59.203004  
1412.000000	59.200358  
1411.000000	59.193372  
1410.000000	59.182071  
1409.000000	59.167170  
1408.000000	59.150028  
1407.000000	59.132337  
1406.000000	59.115457  
1405.000000	59.100437  
1404.000000	59.087395  
1403.000000	59.075880  
1402.000000	59.064865  
1401.000000	59.053683  
1400.000000	59.042191  
1399.000000	59.031343  
1398.000000	59.022855  
1397.000000	59.018802  
1396.000000	59.020924  
1395.000000	59.029698  
1394.000000	59.044003  
1393.000000	59.061408  
1392.000000	59.078621  
1391.000000	59.092450  
1390.000000	59.100532  
1389.000000	59.102010  
1388.000000	59.097504  
1387.000000	59.088897  
1386.000000	59.078836  
1385.000000	59.069657  
1384.000000	59.062838  
1383.000000	59.058737  
1382.000000	59.056782  
1381.000000	59.055924  
1380.000000	59.054970  
1379.000000	59.053277  
1378.000000	59.050655  
1377.000000	59.047365  
1376.000000	59.043455  
1375.000000	59.038901  
1374.000000	59.033179  
1373.000000	59.025430  
1372.000000	59.014725  
1371.000000	59.000515  
1370.000000	58.982777  
1369.000000	58.962225  
1368.000000	58.940100  
1367.000000	58.918046  
1366.000000	58.897948  
1365.000000	58.881640  
1364.000000	58.870840  
1363.000000	58.866691  
1362.000000	58.870077  
1361.000000	58.881330  
1360.000000	58.900046  
1359.000000	58.925056  
1358.000000	58.954095  
1357.000000	58.984160  
1356.000000	59.011387  
1355.000000	59.032177  
1354.000000	59.043407  
1353.000000	59.043550  
1352.000000	59.032797  
1351.000000	59.013271  
1350.000000	58.988690  
1349.000000	58.963274  
1348.000000	58.941149  
1347.000000	58.925366  
1346.000000	58.917498  
1345.000000	58.917093  
1344.000000	58.922457  
1343.000000	58.930706  
1342.000000	58.938503  
1341.000000	58.942604  
1340.000000	58.940672  
1339.000000	58.931493  
1338.000000	58.915042  
1337.000000	58.892321  
1336.000000	58.865332  
1335.000000	58.836722  
1334.000000	58.809542  
1333.000000	58.786988  
1332.000000	58.771729  
1331.000000	58.765721  
1330.000000	58.769464  
1329.000000	58.782100  
1328.000000	58.801198  
1327.000000	58.822894  
1326.000000	58.842873  
1325.000000	58.856582  
1324.000000	58.860540  
1323.000000	58.852839  
1322.000000	58.833909  
1321.000000	58.806061  
1320.000000	58.773541  
1319.000000	58.741569  
1318.000000	58.715367  
1317.000000	58.699274  
1316.000000	58.695363  
1315.000000	58.703422  
1314.000000	58.720636  
1313.000000	58.742547  
1312.000000	58.763742  
1311.000000	58.779287  
1310.000000	58.785581  
1309.000000	58.781099  
1308.000000	58.766746  
1307.000000	58.745431  
1306.000000	58.721494  
1305.000000	58.699560  
1304.000000	58.683657  
1303.000000	58.676576  
1302.000000	58.679389  
1301.000000	58.691430  
1300.000000	58.710646  
1299.000000	58.734011  
1298.000000	58.758354  
1297.000000	58.780598  
1296.000000	58.798384  
1295.000000	58.810424  
1294.000000	58.816099  
1293.000000	58.815908  
1292.000000	58.811044  
1291.000000	58.803176  
1290.000000	58.794236  
1289.000000	58.785724  
1288.000000	58.778524  
1287.000000	58.772778  
1286.000000	58.768105  
1285.000000	58.763527  
1284.000000	58.757972  
1283.000000	58.750510  
1282.000000	58.740901  
1281.000000	58.729290  
1280.000000	58.716344  
1279.000000	58.702874  
1278.000000	58.689641  
1277.000000	58.677148  
1276.000000	58.665513  
1275.000000	58.654689  
1274.000000	58.644390  
1273.000000	58.634662  
1272.000000	58.625698  
1271.000000	58.618044  
1270.000000	58.612203  
1269.000000	58.608436  
1268.000000	58.606386  
1267.000000	58.604955  
1266.000000	58.602619  
1265.000000	58.597493  
1264.000000	58.588218  
1263.000000	58.574128  
1262.000000	58.555960  
1261.000000	58.535742  
1260.000000	58.516693  
1259.000000	58.502292  
1258.000000	58.496093  
1257.000000	58.500623  
1256.000000	58.516931  
1255.000000	58.544325  
1254.000000	58.580589  
1253.000000	58.622145  
1252.000000	58.664703  
1251.000000	58.703708  
1250.000000	58.735036  
1249.000000	58.755540  
1248.000000	58.763265  
1247.000000	58.757781  
1246.000000	58.740091  
1245.000000	58.712863  
1244.000000	58.679986  
1243.000000	58.646202  
1242.000000	58.616447  
1241.000000	58.594846  
1240.000000	58.584451  
1239.000000	58.586144  
1238.000000	58.598542  
1237.000000	58.618283  
1236.000000	58.640742  
1235.000000	58.660984  
1234.000000	58.674907  
1233.000000	58.680248  
1232.000000	58.676743  
1231.000000	58.665966  
1230.000000	58.650779  
1229.000000	58.634042  
1228.000000	58.617997  
1227.000000	58.603453  
1226.000000	58.589839  
1225.000000	58.575701  
1224.000000	58.559250  
1223.000000	58.539223  
1222.000000	58.515548  
1221.000000	58.489394  
1220.000000	58.463025  
1219.000000	58.438968  
1218.000000	58.419656  
1217.000000	58.406400  
1216.000000	58.399558  
1215.000000	58.398294  
1214.000000	58.401131  
1213.000000	58.406734  
1212.000000	58.413887  
1211.000000	58.421826  
1210.000000	58.430147  
1209.000000	58.438491  
1208.000000	58.446621  
1207.000000	58.454203  
1206.000000	58.460545  
1205.000000	58.464741  
1204.000000	58.465886  
1203.000000	58.463764  
1202.000000	58.458471  
1201.000000	58.450746  
1200.000000	58.441686  
1199.000000	58.432626  
1198.000000	58.425021  
1197.000000	58.420348  
1196.000000	58.419919  
1195.000000	58.425021  
1194.000000	58.436512  
1193.000000	58.454990  
1192.000000	58.480548  
1191.000000	58.512663  
1190.000000	58.550071  
1189.000000	58.591127  
1188.000000	58.634114  
1187.000000	58.677005  
1186.000000	58.718252  
1185.000000	58.755660  
1184.000000	58.786725  
1183.000000	58.807778  
1182.000000	58.815050  
1181.000000	58.804488  
1180.000000	58.773016  
1179.000000	58.719635  
1178.000000	58.646512  
1177.000000	58.559155  
1176.000000	58.466196  
1175.000000	58.378410  
1174.000000	58.306646  
1173.000000	58.259916  
1172.000000	58.243179  
1171.000000	58.256149  
1170.000000	58.293247  
1169.000000	58.344602  
1168.000000	58.398270  
1167.000000	58.441972  
1166.000000	58.466243  
1165.000000	58.465886  
1164.000000	58.441329  
1163.000000	58.397126  
1162.000000	58.341503  
1161.000000	58.283758  
1160.000000	58.232784  
1159.000000	58.194947  
1158.000000	58.173465  
1157.000000	58.168697  
1156.000000	58.178353  
1155.000000	58.198809  
1154.000000	58.226132  
1153.000000	58.256912  
1152.000000	58.288836  
1151.000000	58.320307  
1150.000000	58.350801  
1149.000000	58.380174  
1148.000000	58.408427  
1147.000000	58.435130  
1146.000000	58.458614  
1145.000000	58.475756  
1144.000000	58.482980  
1143.000000	58.476614  
1142.000000	58.453321  
1141.000000	58.411335  
1140.000000	58.351421  
1139.000000	58.277249  
1138.000000	58.195281  
1137.000000	58.114004  
1136.000000	58.042478  
1135.000000	57.988834  
1134.000000	57.958889  
1133.000000	57.954740  
1132.000000	57.974529  
1131.000000	58.012342  
1130.000000	58.059597  
1129.000000	58.106398  
1128.000000	58.143329  
1127.000000	58.163356  
1126.000000	58.162736  
1125.000000	58.141803  
1124.000000	58.104014  
1123.000000	58.056163  
1122.000000	58.006572  
1121.000000	57.964038  
1120.000000	57.935881  
1119.000000	57.926678  
1118.000000	57.937455  
1117.000000	57.965779  
1116.000000	58.006548  
1115.000000	58.052682  
1114.000000	58.096671  
1113.000000	58.132171  
1112.000000	58.155035  
1111.000000	58.163571  
1110.000000	58.158898  
1109.000000	58.144092  
1108.000000	58.123421  
1107.000000	58.101177  
1106.000000	58.080148  
1105.000000	58.062100  
1104.000000	58.045840  
1103.000000	58.028578  
1102.000000	58.005738  
1101.000000	57.972979  
1100.000000	57.926964  
1099.000000	57.866740  
1098.000000	57.794928  
1097.000000	57.717156  
1096.000000	57.642769  
1095.000000	57.582616  
1094.000000	57.547712  
1093.000000	57.546544  
1092.000000	57.583308  
1091.000000	57.656621  
1090.000000	57.759332  
1089.000000	57.879829  
1088.000000	58.003902  
1087.000000	58.117532  
1086.000000	58.209300  
1085.000000	58.271789  
1084.000000	58.302640  
1083.000000	58.303689  
1082.000000	58.279967  
1081.000000	58.237624  
1080.000000	58.183097  
1079.000000	58.121252  
1078.000000	58.056044  
1077.000000	57.989835  
1076.000000	57.925081  
1075.000000	57.864165  
1074.000000	57.810449  
1073.000000	57.767724  
1072.000000	57.739520  
1071.000000	57.728457  
1070.000000	57.735157  
1069.000000	57.758259  
1068.000000	57.794284  
1067.000000	57.838416  
1066.000000	57.885146  
1065.000000	57.929086  
1064.000000	57.965922  
1063.000000	57.992672  
1062.000000	58.008146  
1061.000000	58.012890  
1060.000000	58.008646  
1059.000000	57.998228  
1058.000000	57.984089  
1057.000000	57.968878  
1056.000000	57.953763  
1055.000000	57.938981  
1054.000000	57.923078  
1053.000000	57.904434  
1052.000000	57.880997  
1051.000000	57.851266  
1050.000000	57.814931  
1049.000000	57.773375  
1048.000000	57.729625  
1047.000000	57.687783  
1046.000000	57.652473  
1045.000000	57.627224  
1044.000000	57.614350  
1043.000000	57.614016  
1042.000000	57.624363  
1041.000000	57.641673  
1040.000000	57.661342  
1039.000000	57.679152  
1038.000000	57.691669  
1037.000000	57.697081  
1036.000000	57.695245  
1035.000000	57.687568  
1034.000000	57.676768  
1033.000000	57.665991  
1032.000000	57.658481  
1031.000000	57.656383  
1030.000000	57.660841  
1029.000000	57.670927  
1028.000000	57.684326  
1027.000000	57.696962  
1026.000000	57.703828  
1025.000000	57.699680  
1024.000000	57.680153  
1023.000000	57.643032  
1022.000000	57.588791  
1021.000000	57.521629  
1020.000000	57.448673  
1019.000000	57.379770  
1018.000000	57.325649  
1017.000000	57.295799  
1016.000000	57.296633  
1015.000000	57.329511  
1014.000000	57.390260  
1013.000000	57.469558  
1012.000000	57.554960  
1011.000000	57.633614  
1010.000000	57.695174  
1009.000000	57.733678  
1008.000000	57.748985  
1007.000000	57.745885  
1006.000000	57.732844  
1005.000000	57.719159  
1004.000000	57.712388  
1003.000000	57.716870  
1002.000000	57.732343  
1001.000000	57.755398  
1000.000000	57.779717  
999.000000	 57.799148  
998.000000	 57.808399  
997.000000	 57.805109  
996.000000	 57.789516  
995.000000	 57.764172  
994.000000	 57.732915  
993.000000	 57.699370  
992.000000	 57.666540  
991.000000	 57.636284  
990.000000	 57.609486  
989.000000	 57.586693  
988.000000	 57.568097  
987.000000	 57.554030  
986.000000	 57.544827  
985.000000	 57.540631  
984.000000	 57.540941  
983.000000	 57.544565  
982.000000	 57.549214  
981.000000	 57.552075  
980.000000	 57.550454  
979.000000	 57.542514  
978.000000	 57.527327  
977.000000	 57.505321  
976.000000	 57.478451  
975.000000	 57.449388  
974.000000	 57.421326  
973.000000	 57.396793  
972.000000	 57.377243  
971.000000	 57.362699  
970.000000	 57.352232  
969.000000	 57.344102  
968.000000	 57.336354  
967.000000	 57.327270  
966.000000	 57.315707  
965.000000	 57.301354  
964.000000	 57.284665  
963.000000	 57.266473  
962.000000	 57.247877  
961.000000	 57.229804  
960.000000	 57.212781  
959.000000	 57.197117  
958.000000	 57.182788  
957.000000	 57.169580  
956.000000	 57.157301  
955.000000	 57.145667  
954.000000	 57.134699  
953.000000	 57.124376  
952.000000	 57.114958  
951.000000	 57.106828  
950.000000	 57.100629  
949.000000	 57.097220  
948.000000	 57.097649  
947.000000	 57.102918  
946.000000	 57.113599  
945.000000	 57.129430  
944.000000	 57.149195  
943.000000	 57.170891  
942.000000	 57.191872  
941.000000	 57.209515  
940.000000	 57.221531  
939.000000	 57.226729  
938.000000	 57.224917  
937.000000	 57.216787  
936.000000	 57.203841  
935.000000	 57.187938  
934.000000	 57.171177  
933.000000	 57.155418  
932.000000	 57.142210  
931.000000	 57.132554  
930.000000	 57.126784  
929.000000	 57.124352  
928.000000	 57.123947  
927.000000	 57.123875  
926.000000	 57.122182  
925.000000	 57.117390  
924.000000	 57.108855  
923.000000	 57.097029  
922.000000	 57.083606  
921.000000	 57.071161  
920.000000	 57.062435  
919.000000	 57.059526  
918.000000	 57.063007  
917.000000	 57.071638  
916.000000	 57.082438  
915.000000	 57.091736  
914.000000	 57.096076  
913.000000	 57.093405  
912.000000	 57.083535  
911.000000	 57.068467  
910.000000	 57.051825  
909.000000	 57.037615  
908.000000	 57.028746  
907.000000	 57.026410  
906.000000	 57.029747  
905.000000	 57.035994  
904.000000	 57.041168  
903.000000	 57.041382  
902.000000	 57.033848  
901.000000	 57.017755  
900.000000	 56.994605  
899.000000	 56.967282  
898.000000	 56.939625  
897.000000	 56.915187  
896.000000	 56.896829  
895.000000	 56.885981  
894.000000	 56.882572  
893.000000	 56.885838  
892.000000	 56.894063  
891.000000	 56.905364  
890.000000	 56.917595  
889.000000	 56.928634  
888.000000	 56.936001  
887.000000	 56.937384  
886.000000	 56.930112  
885.000000	 56.911969  
884.000000	 56.880855  
883.000000	 56.835675  
882.000000	 56.776666  
881.000000	 56.705737  
880.000000	 56.626963  
879.000000	 56.546211  
878.000000	 56.470680  
877.000000	 56.407833  
876.000000	 56.364369  
875.000000	 56.345009  
874.000000	 56.351518  
873.000000	 56.382703  
872.000000	 56.434535  
871.000000	 56.501150  
870.000000	 56.575369  
869.000000	 56.650018  
868.000000	 56.718587  
867.000000	 56.776022  
866.000000	 56.818819  
865.000000	 56.845068  
864.000000	 56.854557  
863.000000	 56.848382  
862.000000	 56.828951  
861.000000	 56.799578  
860.000000	 56.764149  
859.000000	 56.726646  
858.000000	 56.691408  
857.000000	 56.661987  
856.000000	 56.641364  
855.000000	 56.630825  
854.000000	 56.630539  
853.000000	 56.638836  
852.000000	 56.652760  
851.000000	 56.668281  
850.000000	 56.681299  
849.000000	 56.688261  
848.000000	 56.687116  
847.000000	 56.677722  
846.000000	 56.661820  
845.000000	 56.642627  
844.000000	 56.623935  
843.000000	 56.609106  
842.000000	 56.600356  
841.000000	 56.598186  
840.000000	 56.601285  
839.000000	 56.606626  
838.000000	 56.610870  
837.000000	 56.611251  
836.000000	 56.606507  
835.000000	 56.597042  
834.000000	 56.585001  
833.000000	 56.573843  
832.000000	 56.567215  
831.000000	 56.568002  
830.000000	 56.576752  
829.000000	 56.591582  
828.000000	 56.608319  
827.000000	 56.621575  
826.000000	 56.625866  
825.000000	 56.616735  
824.000000	 56.592202  
823.000000	 56.553483  
822.000000	 56.504416  
821.000000	 56.450796  
820.000000	 56.398963  
819.000000	 56.354403  
818.000000	 56.321048  
817.000000	 56.300425  
816.000000	 56.291937  
815.000000	 56.292939  
814.000000	 56.299376  
813.000000	 56.306934  
812.000000	 56.311416  
811.000000	 56.310343  
810.000000	 56.302475  
809.000000	 56.288862  
808.000000	 56.271600  
807.000000	 56.254220  
806.000000	 56.240439  
805.000000	 56.234073  
804.000000	 56.237769  
803.000000	 56.253218  
802.000000	 56.281137  
801.000000	 56.320595  
800.000000	 56.369376  
799.000000	 56.423377  
798.000000	 56.477308  
797.000000	 56.524538  
796.000000	 56.558322  
795.000000	 56.572985  
794.000000	 56.565308  
793.000000	 56.535315  
792.000000	 56.486916  
791.000000	 56.427621  
790.000000	 56.366991  
789.000000	 56.314826  
788.000000	 56.279015  
787.000000	 56.264543  
786.000000	 56.271839  
785.000000	 56.297087  
784.000000	 56.332802  
783.000000	 56.369400  
782.000000	 56.397557  
781.000000	 56.410527  
780.000000	 56.405258  
779.000000	 56.382298  
778.000000	 56.345462  
777.000000	 56.300878  
776.000000	 56.254363  
775.000000	 56.209897  
774.000000	 56.168818  
773.000000	 56.129956  
772.000000	 56.090807  
771.000000	 56.049156  
770.000000	 56.004428  
769.000000	 55.958032  
768.000000	 55.913639  
767.000000	 55.875301  
766.000000	 55.845475  
765.000000	 55.823111  
764.000000	 55.802297  
763.000000	 55.773949  
762.000000	 55.726742  
761.000000	 55.652618  
760.000000	 55.549001  
759.000000	 55.423235  
758.000000	 55.290961  
757.000000	 55.175399  
756.000000	 55.101108  
755.000000	 55.089354  
754.000000	 55.151557  
753.000000	 55.286669  
752.000000	 55.480575  
751.000000	 55.708289  
750.000000	 55.939531  
749.000000	 56.144118  
748.000000	 56.297898  
747.000000	 56.386566  
746.000000	 56.407260  
745.000000	 56.367206  
744.000000	 56.280422  
743.000000	 56.164598  
742.000000	 56.036829  
741.000000	 55.911326  
740.000000	 55.797672  
739.000000	 55.702042  
738.000000	 55.627274  
737.000000	 55.574011  
736.000000	 55.541181  
735.000000	 55.526590  
734.000000	 55.527305  
733.000000	 55.538916  
732.000000	 55.556678  
731.000000	 55.574584  
730.000000	 55.587697  
729.000000	 55.591654  
728.000000	 55.584788  
727.000000	 55.567860  
726.000000	 55.544328  
725.000000	 55.519366  
724.000000	 55.498671  
723.000000	 55.487251  
722.000000	 55.487632  
721.000000	 55.499362  
720.000000	 55.518412  
719.000000	 55.538058  
718.000000	 55.551242  
717.000000	 55.552673  
716.000000	 55.539441  
715.000000	 55.511999  
714.000000	 55.474472  
713.000000	 55.433535  
712.000000	 55.396914  
711.000000	 55.371189  
710.000000	 55.359649  
709.000000	 55.361771  
708.000000	 55.373907  
707.000000	 55.390095  
706.000000	 55.403542  
705.000000	 55.408692  
704.000000	 55.402517  
703.000000	 55.386066  
702.000000	 55.363559  
701.000000	 55.341744  
700.000000	 55.327439  
699.000000	 55.325865  
698.000000	 55.339050  
697.000000	 55.365014  
696.000000	 55.398678  
695.000000	 55.432271  
694.000000	 55.457663  
693.000000	 55.467987  
692.000000	 55.459547  
691.000000	 55.431747  
690.000000	 55.386924  
689.000000	 55.329585  
688.000000	 55.265092  
687.000000	 55.198884  
686.000000	 55.135679  
685.000000	 55.079269  
684.000000	 55.032467  
683.000000	 54.997873  
682.000000	 54.977297  
681.000000	 54.971957  
680.000000	 54.981279  
679.000000	 55.002260  
678.000000	 55.029606  
677.000000	 55.055308  
676.000000	 55.071401  
675.000000	 55.070781  
674.000000	 55.050396  
673.000000	 55.011200  
672.000000	 54.959607  
671.000000	 54.905652  
670.000000	 54.861330  
669.000000	 54.837608  
668.000000	 54.842114  
667.000000	 54.877352  
666.000000	 54.940128  
665.000000	 55.022454  
664.000000	 55.113053  
663.000000	 55.200004  
662.000000	 55.272603  
661.000000	 55.323147  
660.000000	 55.347919  
659.000000	 55.347084  
658.000000	 55.324172  
657.000000	 55.284428  
656.000000	 55.233764  
655.000000	 55.177235  
654.000000	 55.119442  
653.000000	 55.063366  
652.000000	 55.010652  
651.000000	 54.961609  
650.000000	 54.916238  
649.000000	 54.874706  
648.000000	 54.837417  
647.000000	 54.805493  
646.000000	 54.780292  
645.000000	 54.763174  
644.000000	 54.754877  
643.000000	 54.754900  
642.000000	 54.760956  
641.000000	 54.769349  
640.000000	 54.775333  
639.000000	 54.774260  
638.000000	 54.762268  
637.000000	 54.737114  
636.000000	 54.698491  
635.000000	 54.648423  
634.000000	 54.591059  
633.000000	 54.531955  
632.000000	 54.477167  
631.000000	 54.431939  
630.000000	 54.399824  
629.000000	 54.382920  
628.000000	 54.381442  
627.000000	 54.393911  
626.000000	 54.417395  
625.000000	 54.448318  
624.000000	 54.482936  
623.000000	 54.517841  
622.000000	 54.550313  
621.000000	 54.578685  
620.000000	 54.601788  
619.000000	 54.618692  
618.000000	 54.628348  
617.000000	 54.629611  
616.000000	 54.621553  
615.000000	 54.603409  
614.000000	 54.576039  
613.000000	 54.542422  
612.000000	 54.507851  
611.000000	 54.479265  
610.000000	 54.463839  
609.000000	 54.467296  
608.000000	 54.491615  
607.000000	 54.534292  
606.000000	 54.587554  
605.000000	 54.639911  
604.000000	 54.678606  
603.000000	 54.692697  
602.000000	 54.676294  
601.000000	 54.629850  
600.000000	 54.561018  
599.000000	 54.481649  
598.000000	 54.404830  
597.000000	 54.340600  
596.000000	 54.293918  
595.000000	 54.262232  
594.000000	 54.237246  
593.000000	 54.206728  
592.000000	 54.159092  
591.000000	 54.086399  
590.000000	 53.987145  
589.000000	 53.866815  
588.000000	 53.736233  
587.000000	 53.609395  
586.000000	 53.499245  
585.000000	 53.415560  
584.000000	 53.362321  
583.000000	 53.338551  
582.000000	 53.339314  
581.000000	 53.357815  
580.000000	 53.387188  
579.000000	 53.421258  
578.000000	 53.455376  
577.000000	 53.485870  
576.000000	 53.509926  
575.000000	 53.525495  
574.000000	 53.531455  
573.000000	 53.527688  
572.000000	 53.515195  
571.000000	 53.496932  
570.000000	 53.476786  
569.000000	 53.459143  
568.000000	 53.447771  
567.000000	 53.445148  
566.000000	 53.451657  
565.000000	 53.466248  
564.000000	 53.486275  
563.000000	 53.508615  
562.000000	 53.529930  
561.000000	 53.548049  
560.000000	 53.560709  
559.000000	 53.565859  
558.000000	 53.561568  
557.000000	 53.546094  
556.000000	 53.519058  
555.000000	 53.481650  
554.000000	 53.437614  
553.000000	 53.392648  
552.000000	 53.353548  
551.000000	 53.326320  
550.000000	 53.314185  
549.000000	 53.316283  
548.000000	 53.327846  
547.000000	 53.340959  
546.000000	 53.346419  
545.000000	 53.335785  
544.000000	 53.303623  
543.000000	 53.248691  
542.000000	 53.174304  
541.000000	 53.087353  
540.000000	 52.996182  
539.000000	 52.908897  
538.000000	 52.831745  
537.000000	 52.768588  
536.000000	 52.720737  
535.000000	 52.687501  
534.000000	 52.667570  
533.000000	 52.658963  
532.000000	 52.660107  
531.000000	 52.668309  
530.000000	 52.679681  
529.000000	 52.688503  
528.000000	 52.687740  
527.000000	 52.669644  
526.000000	 52.627396  
525.000000	 52.557015  
524.000000	 52.459096  
523.000000	 52.339434  
522.000000	 52.208805  
521.000000	 52.080726  
520.000000	 51.969766  
519.000000	 51.887917  
518.000000	 51.843428  
517.000000	 51.839041  
516.000000	 51.872730  
515.000000	 51.937842  
514.000000	 52.025222  
513.000000	 52.125120  
512.000000	 52.228116  
511.000000	 52.325868  
510.000000	 52.411365  
509.000000	 52.478933  
508.000000	 52.523779  
507.000000	 52.542495  
506.000000	 52.532267  
505.000000	 52.491641  
504.000000	 52.421140  
503.000000	 52.324485  
502.000000	 52.208471  
501.000000	 52.083086  
500.000000	 51.959991  
499.000000	 51.851201  
498.000000	 51.765656  
497.000000	 51.707959  
496.000000	 51.677703  
495.000000	 51.669740  
494.000000	 51.675772  
493.000000	 51.686286  
492.000000	 51.692414  
491.000000	 51.687335  
490.000000	 51.667165  
489.000000	 51.630806  
488.000000	 51.578831  
487.000000	 51.513481  
486.000000	 51.436924  
485.000000	 51.352548  
484.000000	 51.264762  
483.000000	 51.178860  
482.000000	 51.101636  
481.000000	 51.038646  
480.000000	 50.993108  
479.000000	 50.965046  
478.000000	 50.951528  
477.000000	 50.946569  
476.000000	 50.941348  
475.000000	 50.929570  
474.000000	 50.908803  
473.000000	 50.882887  
472.000000	 50.860571  
471.000000	 50.853943  
470.000000	 50.873613  
469.000000	 50.924110  
468.000000	 51.000380  
467.000000	 51.086020  
466.000000	 51.157021  
465.000000	 51.185989  
464.000000	 51.152205  
463.000000	 51.048660  
462.000000	 50.886511  
461.000000	 50.694608  
460.000000	 50.511598  
459.000000	 50.377774  
458.000000	 50.321149  
457.000000	 50.351977  
456.000000	 50.455117  
455.000000	 50.594091  
454.000000	 50.718951  
453.000000	 50.781607  
452.000000	 50.745940  
451.000000	 50.596666  
450.000000	 50.345206  
449.000000	 50.027656  
448.000000	 49.691581  
447.000000	 49.382615  
446.000000	 49.136042  
445.000000	 48.968982  
444.000000	 48.879003  
443.000000	 48.846745  
442.000000	 48.846626  
441.000000	 48.853039  
440.000000	 48.841857  
439.000000	 48.796916  
438.000000	 48.709511  
437.000000	 48.581814  
436.000000	 48.424220  
435.000000	 48.255181  
434.000000	 48.091411  
433.000000	 47.950410  
432.000000	 47.849726  
431.000000	 47.803950  
430.000000	 47.816109  
429.000000	 47.887349  
428.000000	 48.012232  
427.000000	 48.191142  
426.000000	 48.426795  
425.000000	 48.730921  
424.000000	 49.118733  
423.000000	 49.601626  
422.000000	 50.175929  
421.000000	 50.824689  
420.000000	 51.518630  
419.000000	 52.208590  
418.000000	 52.835035  
417.000000	 53.352570  
416.000000	 53.738403  
415.000000	 54.023075  
414.000000	 54.272031  
413.000000	 54.541540  
412.000000	 54.852128  
411.000000	 55.217790  
410.000000	 55.603575  
409.000000	 55.899620  
408.000000	 55.957913  
407.000000	 55.660724  
406.000000	 54.934692  
405.000000	 53.789997  
404.000000	 52.323698  
403.000000	 50.640869  
402.000000	 48.925113  
401.000000	 47.449207  
400.000000	 46.465539  
399.000000	 46.217727  
398.000000	 46.734380  
397.000000	 47.794246  
396.000000	 48.954129  
395.000000	 49.622440  
394.000000	 49.315881  
393.000000	 47.798824  
392.000000	 45.231103  
391.000000	 42.177081  
390.000000	 39.271593  
389.000000	 37.138485  
388.000000	 36.202073  
387.000000	 36.734914  
386.000000	 39.097619  
385.000000	 43.633580  
384.000000	 50.861144  
383.000000	 60.984730  
382.000000	 73.696446  
381.000000	 87.901544  
380.000000	 101.582622 
379.000000	 112.325191 
378.000000	 117.871809 
377.000000	 116.754317 
376.000000	 108.832383 
375.000000	 95.313072  
374.000000	 78.589391  
373.000000	 61.616086  
372.000000	 47.119688  
371.000000	 37.194228  
370.000000	 32.882094  

