PE IR       SPECTRUM    SPECTRUM    ASCII       PEDS        1.60        
  -1
C-1E64~1.ASC
17/03/27
22:05:15.00
17/03/27
22:05:15.00
tln
$C-4040-8_t0092$<tbV0>[5.2,7.8,8.0,0.0,27,1,0]
370.000000
64









2002,4.07    
MIRTGS : RIGHTBACK : INTERNAL 2
MIR : ON : INTERNAL 2
OPTKBR

0.200000
8
8.000000
FILLER
RATIO
SPECTRUM
UNLOCKED 256

DOUBLE
64
COMBINED
1
0
0


1.000000
RATIO


1
0
TRUE
51149
0
LEFT NOT FITTED RIGHT NOT FITTED 0
NONE
NONE
15600
12.000000
4.427000
51148
TRUE
1 0 8 72 0 0 0 0 

15798.010000






#HDR
-1
-1
#GR
CM-1
%T
0.00002384185791015625
0.0
5000.000000
-1.000000
4631
8
84.239530
10.724949
#DATA
5000.000000	65.225291 
4999.000000	65.144252 
4998.000000	65.031838 
4997.000000	64.900064 
4996.000000	64.765834 
4995.000000	64.647150 
4994.000000	64.561319 
4993.000000	64.521121 
4992.000000	64.533352 
4991.000000	64.597749 
4990.000000	64.707136 
4989.000000	64.848685 
4988.000000	65.006089 
4987.000000	65.162134 
4986.000000	65.300774 
4985.000000	65.409016 
4984.000000	65.478849 
4983.000000	65.507555 
4982.000000	65.497303 
4981.000000	65.453672 
4980.000000	65.383505 
4979.000000	65.292978 
4978.000000	65.187335 
4977.000000	65.069842 
4976.000000	64.942812 
4975.000000	64.808630 
4974.000000	64.670729 
4973.000000	64.535212 
4972.000000	64.410781 
4971.000000	64.308357 
4970.000000	64.237856 
4969.000000	64.207625 
4968.000000	64.220905 
4967.000000	64.276170 
4966.000000	64.365506 
4965.000000	64.477014 
4964.000000	64.596128 
4963.000000	64.708805 
4962.000000	64.803147 
4961.000000	64.871644 
4960.000000	64.911580 
4959.000000	64.924955 
4958.000000	64.916849 
4957.000000	64.895796 
4956.000000	64.871740 
4955.000000	64.855051 
4954.000000	64.854216 
4953.000000	64.875221 
4952.000000	64.919161 
4951.000000	64.982938 
4950.000000	65.058088 
4949.000000	65.131902 
4948.000000	65.189623 
4947.000000	65.217614 
4946.000000	65.206980 
4945.000000	65.154862 
4944.000000	65.066456 
4943.000000	64.955019 
4942.000000	64.838075 
4941.000000	64.734077 
4940.000000	64.657330 
4939.000000	64.615797 
4938.000000	64.607834 
4937.000000	64.623928 
4936.000000	64.648485 
4935.000000	64.664292 
4934.000000	64.657306 
4933.000000	64.620161 
4932.000000	64.553952 
4931.000000	64.467191 
4930.000000	64.374899 
4929.000000	64.294672 
4928.000000	64.242362 
4927.000000	64.228415 
4926.000000	64.256191 
4925.000000	64.321947 
4924.000000	64.416098 
4923.000000	64.525890 
4922.000000	64.638423 
4921.000000	64.743494 
4920.000000	64.834642 
4919.000000	64.909768 
4918.000000	64.969205 
4917.000000	65.014863 
4916.000000	65.048646 
4915.000000	65.070843 
4914.000000	65.080785 
4913.000000	65.076327 
4912.000000	65.056204 
4911.000000	65.019607 
4910.000000	64.967942 
4909.000000	64.904594 
4908.000000	64.835572 
4907.000000	64.767289 
4906.000000	64.705562 
4905.000000	64.654827 
4904.000000	64.617466 
4903.000000	64.593672 
4902.000000	64.581894 
4901.000000	64.578866 
4900.000000	64.580821 
4899.000000	64.583396 
4898.000000	64.583396 
4897.000000	64.578580 
4896.000000	64.569783 
4895.000000	64.560961 
4894.000000	64.558792 
4893.000000	64.571714 
4892.000000	64.606714 
4891.000000	64.667987 
4890.000000	64.753746 
4889.000000	64.855265 
4888.000000	64.958357 
4887.000000	65.046358 
4886.000000	65.104317 
4885.000000	65.122652 
4884.000000	65.100502 
4883.000000	65.046215 
4882.000000	64.975738 
4881.000000	64.909362 
4880.000000	64.865589 
4879.000000	64.856481 
4878.000000	64.884853 
4877.000000	64.944100 
4876.000000	65.020585 
4875.000000	65.097761 
4874.000000	65.161252 
4873.000000	65.202689 
4872.000000	65.220761 
4871.000000	65.220642 
4870.000000	65.210986 
4869.000000	65.200686 
4868.000000	65.196132 
4867.000000	65.198850 
4866.000000	65.205883 
4865.000000	65.210175 
4864.000000	65.203785 
4863.000000	65.180158 
4862.000000	65.136337 
4861.000000	65.074944 
4860.000000	65.003466 
4859.000000	64.933538 
4858.000000	64.877533 
4857.000000	64.846754 
4856.000000	64.848685 
4855.000000	64.885330 
4854.000000	64.952802 
4853.000000	65.042018 
4852.000000	65.140628 
4851.000000	65.235304 
4850.000000	65.314412 
4849.000000	65.369772 
4848.000000	65.397477 
4847.000000	65.398526 
4846.000000	65.377402 
4845.000000	65.340137 
4844.000000	65.292429 
4843.000000	65.238642 
4842.000000	65.181064 
4841.000000	65.121197 
4840.000000	65.059852 
4839.000000	64.999055 
4838.000000	64.941620 
4837.000000	64.891028 
4836.000000	64.850854 
4835.000000	64.823269 
4834.000000	64.809560 
4833.000000	64.808583 
4832.000000	64.818286 
4831.000000	64.835429 
4830.000000	64.857578 
4829.000000	64.883112 
4828.000000	64.912366 
4827.000000	64.946508 
4826.000000	64.987635 
4825.000000	65.037178 
4824.000000	65.095400 
4823.000000	65.160274 
4822.000000	65.228366 
4821.000000	65.295100 
4820.000000	65.355610 
4819.000000	65.405631 
4818.000000	65.442466 
4817.000000	65.465641 
4816.000000	65.476417 
4815.000000	65.477705 
4814.000000	65.473604 
4813.000000	65.468311 
4812.000000	65.466070 
4811.000000	65.469741 
4810.000000	65.480566 
4809.000000	65.497612 
4808.000000	65.518665 
4807.000000	65.540242 
4806.000000	65.558934 
4805.000000	65.571546 
4804.000000	65.576314 
4803.000000	65.572261 
4802.000000	65.559744 
4801.000000	65.539288 
4800.000000	65.511417 
4799.000000	65.476346 
4798.000000	65.433931 
4797.000000	65.383911 
4796.000000	65.326690 
4795.000000	65.264105 
4794.000000	65.199708 
4793.000000	65.138554 
4792.000000	65.086364 
4791.000000	65.048432 
4790.000000	65.028405 
4789.000000	65.026712 
4788.000000	65.040731 
4787.000000	65.065312 
4786.000000	65.094041 
4785.000000	65.120291 
4784.000000	65.138697 
4783.000000	65.146064 
4782.000000	65.141725 
4781.000000	65.126848 
4780.000000	65.104293 
4779.000000	65.077185 
4778.000000	65.048742 
4777.000000	65.021347 
4776.000000	64.996767 
4775.000000	64.976191 
4774.000000	64.960551 
4773.000000	64.950609 
4772.000000	64.947271 
4771.000000	64.951443 
4770.000000	64.963912 
4769.000000	64.984774 
4768.000000	65.013480 
4767.000000	65.048551 
4766.000000	65.088105 
4765.000000	65.129661 
4764.000000	65.170311 
4763.000000	65.206766 
4762.000000	65.236330 
4761.000000	65.256834 
4760.000000	65.266823 
4759.000000	65.265655 
4758.000000	65.254139 
4757.000000	65.234136 
4756.000000	65.208387 
4755.000000	65.179824 
4754.000000	65.151906 
4753.000000	65.127229 
4752.000000	65.107774 
4751.000000	65.093994 
4750.000000	65.085434 
4749.000000	65.080285 
4748.000000	65.076184 
4747.000000	65.070509 
4746.000000	65.060997 
4745.000000	65.046215 
4744.000000	65.025758 
4743.000000	65.000891 
4742.000000	64.974045 
4741.000000	64.949393 
4740.000000	64.931917 
4739.000000	64.926838 
4738.000000	64.938235 
4737.000000	64.968633 
4736.000000	65.018248 
4735.000000	65.084195 
4734.000000	65.161085 
4733.000000	65.242004 
4732.000000	65.320181 
4731.000000	65.389585 
4730.000000	65.446567 
4729.000000	65.490221 
4728.000000	65.521883 
4727.000000	65.544915 
4726.000000	65.562677 
4725.000000	65.577554 
4724.000000	65.590095 
4723.000000	65.599346 
4722.000000	65.603184 
4721.000000	65.599822 
4720.000000	65.588665 
4719.000000	65.571522 
4718.000000	65.551662 
4717.000000	65.533423 
4716.000000	65.520405 
4715.000000	65.514421 
4714.000000	65.514278 
4713.000000	65.515923 
4712.000000	65.513348 
4711.000000	65.500164 
4710.000000	65.471744 
4709.000000	65.426659 
4708.000000	65.367269 
4707.000000	65.299534 
4706.000000	65.231847 
4705.000000	65.173387 
4704.000000	65.131568 
4703.000000	65.110707 
4702.000000	65.111637 
4701.000000	65.131545 
4700.000000	65.164661 
4699.000000	65.203785 
4698.000000	65.241909 
4697.000000	65.273237 
4696.000000	65.293502 
4695.000000	65.300869 
4694.000000	65.295433 
4693.000000	65.279388 
4692.000000	65.255928 
4691.000000	65.229225 
4690.000000	65.203642 
4689.000000	65.183234 
4688.000000	65.171313 
4687.000000	65.169191 
4686.000000	65.176105 
4685.000000	65.189123 
4684.000000	65.203857 
4683.000000	65.214872 
4682.000000	65.217280 
4681.000000	65.207839 
4680.000000	65.186238 
4679.000000	65.155243 
4678.000000	65.120482 
4677.000000	65.089154 
4676.000000	65.068316 
4675.000000	65.062761 
4674.000000	65.074110 
4673.000000	65.100240 
4672.000000	65.136170 
4671.000000	65.175390 
4670.000000	65.211367 
4669.000000	65.239119 
4668.000000	65.256142 
4667.000000	65.262722 
4666.000000	65.261530 
4665.000000	65.255928 
4664.000000	65.250325 
4663.000000	65.248894 
4662.000000	65.255355 
4661.000000	65.272331 
4660.000000	65.301108 
4659.000000	65.341305 
4658.000000	65.390801 
4657.000000	65.445971 
4656.000000	65.501213 
4655.000000	65.550351 
4654.000000	65.587258 
4653.000000	65.607857 
4652.000000	65.611195 
4651.000000	65.599536 
4650.000000	65.579175 
4649.000000	65.557670 
4648.000000	65.542340 
4647.000000	65.537452 
4646.000000	65.543532 
4645.000000	65.556550 
4644.000000	65.569996 
4643.000000	65.575599 
4642.000000	65.566396 
4641.000000	65.538024 
4640.000000	65.490460 
4639.000000	65.427374 
4638.000000	65.354609 
4637.000000	65.280199 
4636.000000	65.212178 
4635.000000	65.157580 
4634.000000	65.120983 
4633.000000	65.104651 
4632.000000	65.108489 
4631.000000	65.130472 
4630.000000	65.167546 
4629.000000	65.215539 
4628.000000	65.270376 
4627.000000	65.328049 
4626.000000	65.385699 
4625.000000	65.441846 
4624.000000	65.495777 
4623.000000	65.548205 
4622.000000	65.598678 
4621.000000	65.645503 
4620.000000	65.684080 
4619.000000	65.708255 
4618.000000	65.710258 
4617.000000	65.683674 
4616.000000	65.624189 
4615.000000	65.532636 
4614.000000	65.413856 
4613.000000	65.276956 
4612.000000	65.133213 
4611.000000	64.994120 
4610.000000	64.869952 
4609.000000	64.768314 
4608.000000	64.693927 
4607.000000	64.648675 
4606.000000	64.632534 
4605.000000	64.644312 
4604.000000	64.682221 
4603.000000	64.744281 
4602.000000	64.827609 
4601.000000	64.928698 
4600.000000	65.042233 
4599.000000	65.161800 
4598.000000	65.280771 
4597.000000	65.392827 
4596.000000	65.492677 
4595.000000	65.576076 
4594.000000	65.640974 
4593.000000	65.686249 
4592.000000	65.712380 
4591.000000	65.719771 
4590.000000	65.709877 
4589.000000	65.683984 
4588.000000	65.645313 
4587.000000	65.597295 
4586.000000	65.544486 
4585.000000	65.491676 
4584.000000	65.444183 
4583.000000	65.406203 
4582.000000	65.380620 
4581.000000	65.368890 
4580.000000	65.370798 
4579.000000	65.384793 
4578.000000	65.408492 
4577.000000	65.438961 
4576.000000	65.472745 
4575.000000	65.506076 
4574.000000	65.534806 
4573.000000	65.553760 
4572.000000	65.557718 
4571.000000	65.542650 
4570.000000	65.507149 
4569.000000	65.451788 
4568.000000	65.381240 
4567.000000	65.304732 
4566.000000	65.234375 
4565.000000	65.182542 
4564.000000	65.159344 
4563.000000	65.170836 
4562.000000	65.216803 
4561.000000	65.291070 
4560.000000	65.382242 
4559.000000	65.475893 
4558.000000	65.557646 
4557.000000	65.616583 
4556.000000	65.645694 
4555.000000	65.642666 
4554.000000	65.609550 
4553.000000	65.551757 
4552.000000	65.475511 
4551.000000	65.386247 
4550.000000	65.289068 
4549.000000	65.187907 
4548.000000	65.085959 
4547.000000	64.985013 
4546.000000	64.886379 
4545.000000	64.789700 
4544.000000	64.692735 
4543.000000	64.591979 
4542.000000	64.481592 
4541.000000	64.357995 
4540.000000	64.220333 
4539.000000	64.074993 
4538.000000	63.933038 
4537.000000	63.812136 
4536.000000	63.731312 
4535.000000	63.708853 
4534.000000	63.755369 
4533.000000	63.872718 
4532.000000	64.050722 
4531.000000	64.270734 
4530.000000	64.507317 
4529.000000	64.736032 
4528.000000	64.937424 
4527.000000	65.101408 
4526.000000	65.227389 
4525.000000	65.323066 
4524.000000	65.399956 
4523.000000	65.469145 
4522.000000	65.536522 
4521.000000	65.601396 
4520.000000	65.655303 
4519.000000	65.687322 
4518.000000	65.685343 
4517.000000	65.640735 
4516.000000	65.549921 
4515.000000	65.417313 
4514.000000	65.253710 
4513.000000	65.074038 
4512.000000	64.895081 
4511.000000	64.732694 
4510.000000	64.599227 
4509.000000	64.501953 
4508.000000	64.442706 
4507.000000	64.418840 
4506.000000	64.424395 
4505.000000	64.451122 
4504.000000	64.490580 
4503.000000	64.534187 
4502.000000	64.575815 
4501.000000	64.611148 
4500.000000	64.638400 
4499.000000	64.656710 
4498.000000	64.667725 
4497.000000	64.674305 
4496.000000	64.678788 
4495.000000	64.682102 
4494.000000	64.684176 
4493.000000	64.683866 
4492.000000	64.678621 
4491.000000	64.665865 
4490.000000	64.644122 
4489.000000	64.613866 
4488.000000	64.577841 
4487.000000	64.540815 
4486.000000	64.508485 
4485.000000	64.486145 
4484.000000	64.477634 
4483.000000	64.484405 
4482.000000	64.504671 
4481.000000	64.534163 
4480.000000	64.567780 
4479.000000	64.599967 
4478.000000	64.625573 
4477.000000	64.641118 
4476.000000	64.645409 
4475.000000	64.638614 
4474.000000	64.621829 
4473.000000	64.596271 
4472.000000	64.563035 
4471.000000	64.522433 
4470.000000	64.474415 
4469.000000	64.418816 
4468.000000	64.355731 
4467.000000	64.285635 
4466.000000	64.209961 
4465.000000	64.130783 
4464.000000	64.051508 
4463.000000	63.976645 
4462.000000	63.911533 
4461.000000	63.861775 
4460.000000	63.831996 
4459.000000	63.824248 
4458.000000	63.837838 
4457.000000	63.868260 
4456.000000	63.909173 
4455.000000	63.953042 
4454.000000	63.993573 
4453.000000	64.026832 
4452.000000	64.051747 
4451.000000	64.069080 
4450.000000	64.081454 
4449.000000	64.091849 
4448.000000	64.103174 
4447.000000	64.117336 
4446.000000	64.135336 
4445.000000	64.157485 
4444.000000	64.182186 
4443.000000	64.206266 
4442.000000	64.226460 
4441.000000	64.240622 
4440.000000	64.247369 
4439.000000	64.247035 
4438.000000	64.242649 
4437.000000	64.238715 
4436.000000	64.239621 
4435.000000	64.248085 
4434.000000	64.264130 
4433.000000	64.285063 
4432.000000	64.306521 
4431.000000	64.323878 
4430.000000	64.333033 
4429.000000	64.333128 
4428.000000	64.327621 
4427.000000	64.323258 
4426.000000	64.328551 
4425.000000	64.350676 
4424.000000	64.392018 
4423.000000	64.450979 
4422.000000	64.521956 
4421.000000	64.597916 
4420.000000	64.669513 
4419.000000	64.736676 
4418.000000	64.811849 
4417.000000	64.906501 
4416.000000	65.026187 
4415.000000	65.178394 
4414.000000	65.367746 
4413.000000	65.592908 
4412.000000	65.844368 
4411.000000	66.098475 
4410.000000	66.322684 
4409.000000	66.492009 
4408.000000	66.587305 
4407.000000	66.602015 
4406.000000	66.535854 
4405.000000	66.391468 
4404.000000	66.176152 
4403.000000	65.887403 
4402.000000	65.535640 
4401.000000	65.160012 
4400.000000	64.812874 
4399.000000	64.562773 
4398.000000	64.461851 
4397.000000	64.509844 
4396.000000	64.692187 
4395.000000	64.946389 
4394.000000	65.282750 
4393.000000	65.789675 
4392.000000	66.644191 
4391.000000	68.070888 
4390.000000	70.207810 
4389.000000	73.034715 
4388.000000	76.299071 
4387.000000	79.546284 
4386.000000	82.244706 
4385.000000	83.902668 
4384.000000	84.239530 
4383.000000	83.226728 
4382.000000	81.079936 
4381.000000	78.190708 
4380.000000	74.999785 
4379.000000	71.912860 
4378.000000	69.237112 
4377.000000	67.130565 
4376.000000	65.655803 
4375.000000	64.752769 
4374.000000	64.309525 
4373.000000	64.177680 
4372.000000	64.202833 
4371.000000	64.269280 
4370.000000	64.294338 
4369.000000	64.254331 
4368.000000	64.147067 
4367.000000	64.005851 
4366.000000	63.863444 
4365.000000	63.755083 
4364.000000	63.699126 
4363.000000	63.706016 
4362.000000	63.776755 
4361.000000	63.900160 
4360.000000	64.056563 
4359.000000	64.223790 
4358.000000	64.382028 
4357.000000	64.512753 
4356.000000	64.603781 
4355.000000	64.654684 
4354.000000	64.674687 
4353.000000	64.672970 
4352.000000	64.660739 
4351.000000	64.649200 
4350.000000	64.647245 
4349.000000	64.669632 
4348.000000	64.723682 
4347.000000	64.800596 
4346.000000	64.883947 
4345.000000	64.960265 
4344.000000	65.015172 
4343.000000	65.034723 
4342.000000	65.012955 
4341.000000	64.954400 
4340.000000	64.870929 
4339.000000	64.779138 
4338.000000	64.694976 
4337.000000	64.629411 
4336.000000	64.587688 
4335.000000	64.569091 
4334.000000	64.569187 
4333.000000	64.582824 
4332.000000	64.606523 
4331.000000	64.640378 
4330.000000	64.687275 
4329.000000	64.751791 
4328.000000	64.837980 
4327.000000	64.946699 
4326.000000	65.072965 
4325.000000	65.206003 
4324.000000	65.331220 
4323.000000	65.432310 
4322.000000	65.495252 
4321.000000	65.510749 
4320.000000	65.477633 
4319.000000	65.401625 
4318.000000	65.295481 
4317.000000	65.174388 
4316.000000	65.053534 
4315.000000	64.943933 
4314.000000	64.851832 
4313.000000	64.776682 
4312.000000	64.713668 
4311.000000	64.654850 
4310.000000	64.592909 
4309.000000	64.522600 
4308.000000	64.442777 
4307.000000	64.356708 
4306.000000	64.271497 
4305.000000	64.195871 
4304.000000	64.138317 
4303.000000	64.104938 
4302.000000	64.098215 
4301.000000	64.116358 
4300.000000	64.153480 
4299.000000	64.200615 
4298.000000	64.247441 
4297.000000	64.283776 
4296.000000	64.302229 
4295.000000	64.298200 
4294.000000	64.272475 
4293.000000	64.229750 
4292.000000	64.178657 
4291.000000	64.129161 
4290.000000	64.090943 
4289.000000	64.071178 
4288.000000	64.073371 
4287.000000	64.096784 
4286.000000	64.137268 
4285.000000	64.188575 
4284.000000	64.244699 
4283.000000	64.301276 
4282.000000	64.356565 
4281.000000	64.411306 
4280.000000	64.467453 
4279.000000	64.526748 
4278.000000	64.588594 
4277.000000	64.649724 
4276.000000	64.704680 
4275.000000	64.747500 
4274.000000	64.773678 
4273.000000	64.781999 
4272.000000	64.776515 
4271.000000	64.764904 
4270.000000	64.756894 
4269.000000	64.760875 
4268.000000	64.781856 
4267.000000	64.819693 
4266.000000	64.869761 
4265.000000	64.923405 
4264.000000	64.971327 
4263.000000	65.004944 
4262.000000	65.019464 
4261.000000	65.013265 
4260.000000	64.988303 
4259.000000	64.947938 
4258.000000	64.895629 
4257.000000	64.833831 
4256.000000	64.763712 
4255.000000	64.686036 
4254.000000	64.602351 
4253.000000	64.516544 
4252.000000	64.435338 
4251.000000	64.367389 
4250.000000	64.321947 
4249.000000	64.306092 
4248.000000	64.323067 
4247.000000	64.370942 
4246.000000	64.443063 
4245.000000	64.528584 
4244.000000	64.615082 
4243.000000	64.691114 
4242.000000	64.748120 
4241.000000	64.781451 
4240.000000	64.790606 
4239.000000	64.778399 
4238.000000	64.749407 
4237.000000	64.708757 
4236.000000	64.660286 
4235.000000	64.606308 
4234.000000	64.547848 
4233.000000	64.485764 
4232.000000	64.422035 
4231.000000	64.360857 
4230.000000	64.308357 
4229.000000	64.271688 
4228.000000	64.257812 
4227.000000	64.271712 
4226.000000	64.314985 
4225.000000	64.385056 
4224.000000	64.475440 
4223.000000	64.576625 
4222.000000	64.677739 
4221.000000	64.768433 
4220.000000	64.840650 
4219.000000	64.889454 
4218.000000	64.913010 
4217.000000	64.912486 
4216.000000	64.891052 
4215.000000	64.853429 
4214.000000	64.805364 
4213.000000	64.753031 
4212.000000	64.703655 
4211.000000	64.663410 
4210.000000	64.638376 
4209.000000	64.631199 
4208.000000	64.641094 
4207.000000	64.663124 
4206.000000	64.689183 
4205.000000	64.709830 
4204.000000	64.716315 
4203.000000	64.703893 
4202.000000	64.672899 
4201.000000	64.629077 
4200.000000	64.581799 
4199.000000	64.541220 
4198.000000	64.514827 
4197.000000	64.504146 
4196.000000	64.503765 
4195.000000	64.502549 
4194.000000	64.487028 
4193.000000	64.445710 
4192.000000	64.373016 
4191.000000	64.271736 
4190.000000	64.153218 
4189.000000	64.033889 
4188.000000	63.932514 
4187.000000	63.863754 
4186.000000	63.836884 
4185.000000	63.852715 
4184.000000	63.905644 
4183.000000	63.985252 
4182.000000	64.079856 
4181.000000	64.179325 
4180.000000	64.276432 
4179.000000	64.367222 
4178.000000	64.449596 
4177.000000	64.521193 
4176.000000	64.579081 
4175.000000	64.618968 
4174.000000	64.637470 
4173.000000	64.633464 
4172.000000	64.610004 
4171.000000	64.574432 
4170.000000	64.536786 
4169.000000	64.507722 
4168.000000	64.495730 
4167.000000	64.505743 
4166.000000	64.538121 
4165.000000	64.589214 
4164.000000	64.653658 
4163.000000	64.725446 
4162.000000	64.799523 
4161.000000	64.871978 
4160.000000	64.939904 
4159.000000	65.000844 
4158.000000	65.051651 
4157.000000	65.089225 
4156.000000	65.110492 
4155.000000	65.113854 
4154.000000	65.100049 
4153.000000	65.072560 
4152.000000	65.038275 
4151.000000	65.004730 
4150.000000	64.979338 
4149.000000	64.966225 
4148.000000	64.965534 
4147.000000	64.974188 
4146.000000	64.987063 
4145.000000	64.999008 
4144.000000	65.006709 
4143.000000	65.010070 
4142.000000	65.012025 
4141.000000	65.016937 
4140.000000	65.028834 
4139.000000	65.049743 
4138.000000	65.078425 
4137.000000	65.110206 
4136.000000	65.138554 
4135.000000	65.156483 
4134.000000	65.159225 
4133.000000	65.145826 
4132.000000	65.119552 
4131.000000	65.087246 
4130.000000	65.057563 
4129.000000	65.038418 
4128.000000	65.035414 
4127.000000	65.050315 
4126.000000	65.081095 
4125.000000	65.122675 
4124.000000	65.168380 
4123.000000	65.212059 
4122.000000	65.248847 
4121.000000	65.276050 
4120.000000	65.292978 
4119.000000	65.300631 
4118.000000	65.300393 
4117.000000	65.293264 
4116.000000	65.279603 
4115.000000	65.258955 
4114.000000	65.230846 
4113.000000	65.195536 
4112.000000	65.154838 
4111.000000	65.112400 
4110.000000	65.073037 
4109.000000	65.042448 
4108.000000	65.025544 
4107.000000	65.026187 
4106.000000	65.045380 
4105.000000	65.081977 
4104.000000	65.132856 
4103.000000	65.193390 
4102.000000	65.258336 
4101.000000	65.322184 
4100.000000	65.380120 
4099.000000	65.427732 
4098.000000	65.461540 
4097.000000	65.478658 
4096.000000	65.477323 
4095.000000	65.456771 
4094.000000	65.417957 
4093.000000	65.363764 
4092.000000	65.299034 
4091.000000	65.229988 
4090.000000	65.163564 
4089.000000	65.106248 
4088.000000	65.063166 
4087.000000	65.037250 
4086.000000	65.028858 
4085.000000	65.035939 
4084.000000	65.054440 
4083.000000	65.079402 
4082.000000	65.105724 
4081.000000	65.128827 
4080.000000	65.145421 
4079.000000	65.153241 
4078.000000	65.151786 
4077.000000	65.142059 
4076.000000	65.126562 
4075.000000	65.108585 
4074.000000	65.091514 
4073.000000	65.078330 
4072.000000	65.070724 
4071.000000	65.069103 
4070.000000	65.072202 
4069.000000	65.077590 
4068.000000	65.082216 
4067.000000	65.083241 
4066.000000	65.078902 
4065.000000	65.069127 
4064.000000	65.055727 
4063.000000	65.042066 
4062.000000	65.031933 
4061.000000	65.028762 
4060.000000	65.035104 
4059.000000	65.051436 
4058.000000	65.075850 
4057.000000	65.104055 
4056.000000	65.130925 
4055.000000	65.150856 
4054.000000	65.158462 
4053.000000	65.150213 
4052.000000	65.124654 
4051.000000	65.083694 
4050.000000	65.032291 
4049.000000	64.978218 
4048.000000	64.930224 
4047.000000	64.896845 
4046.000000	64.884710 
4045.000000	64.896917 
4044.000000	64.932465 
4043.000000	64.986395 
4042.000000	65.050888 
4041.000000	65.116930 
4040.000000	65.176224 
4039.000000	65.223050 
4038.000000	65.255045 
4037.000000	65.273571 
4036.000000	65.282773 
4035.000000	65.288543 
4034.000000	65.297055 
4033.000000	65.313243 
4032.000000	65.339922 
4031.000000	65.378379 
4030.000000	65.427756 
4029.000000	65.486168 
4028.000000	65.550065 
4027.000000	65.615296 
4026.000000	65.676665 
4025.000000	65.728664 
4024.000000	65.765953 
4023.000000	65.784406 
4022.000000	65.781760 
4021.000000	65.758800 
4020.000000	65.718722 
4019.000000	65.667295 
4018.000000	65.611314 
4017.000000	65.558052 
4016.000000	65.513062 
4015.000000	65.479445 
4014.000000	65.457487 
4013.000000	65.445280 
4012.000000	65.439414 
4011.000000	65.436172 
4010.000000	65.432047 
4009.000000	65.424227 
4008.000000	65.410995 
4007.000000	65.391397 
4006.000000	65.364217 
4005.000000	65.328454 
4004.000000	65.283656 
4003.000000	65.230703 
4002.000000	65.172076 
4001.000000	65.112113 
4000.000000	65.056777 
3999.000000	65.012574 
3998.000000	64.985060 
3997.000000	64.977860 
3996.000000	64.991617 
3995.000000	65.024232 
3994.000000	65.070486 
3993.000000	65.124440 
3992.000000	65.180397 
3991.000000	65.234518 
3990.000000	65.285015 
3989.000000	65.331959 
3988.000000	65.376257 
3987.000000	65.418267 
3986.000000	65.456986 
3985.000000	65.488934 
3984.000000	65.508866 
3983.000000	65.511202 
3982.000000	65.491724 
3981.000000	65.448856 
3980.000000	65.384602 
3979.000000	65.305042 
3978.000000	65.219449 
3977.000000	65.138268 
3976.000000	65.071296 
3975.000000	65.025973 
3974.000000	65.005922 
3973.000000	65.010619 
3972.000000	65.035724 
3971.000000	65.074586 
3970.000000	65.119504 
3969.000000	65.162968 
3968.000000	65.199065 
3967.000000	65.223550 
3966.000000	65.234613 
3965.000000	65.231943 
3964.000000	65.217041 
3963.000000	65.192103 
3962.000000	65.159845 
3961.000000	65.123128 
3960.000000	65.084791 
3959.000000	65.047550 
3958.000000	65.014147 
3957.000000	64.987325 
3956.000000	64.969396 
3955.000000	64.962148 
3954.000000	64.966535 
3953.000000	64.982652 
3952.000000	65.009140 
3951.000000	65.043807 
3950.000000	65.083646 
3949.000000	65.125274 
3948.000000	65.165519 
3947.000000	65.201568 
3946.000000	65.230727 
3945.000000	65.250825 
3944.000000	65.260553 
3943.000000	65.259552 
3942.000000	65.248298 
3941.000000	65.228414 
3940.000000	65.202713 
3939.000000	65.174865 
3938.000000	65.149021 
3937.000000	65.129280 
3936.000000	65.118861 
3935.000000	65.119910 
3934.000000	65.133142 
3933.000000	65.157413 
3932.000000	65.190196 
3931.000000	65.227580 
3930.000000	65.264892 
3929.000000	65.297389 
3928.000000	65.320968 
3927.000000	65.332722 
3926.000000	65.331411 
3925.000000	65.317893 
3924.000000	65.294909 
3923.000000	65.266823 
3922.000000	65.238714 
3921.000000	65.215754 
3920.000000	65.201854 
3919.000000	65.199422 
3918.000000	65.208506 
3917.000000	65.227007 
3916.000000	65.251088 
3915.000000	65.276145 
3914.000000	65.297675 
3913.000000	65.312147 
3912.000000	65.317416 
3911.000000	65.313220 
3910.000000	65.300512 
3909.000000	65.281248 
3908.000000	65.257453 
3907.000000	65.231084 
3906.000000	65.203428 
3905.000000	65.175414 
3904.000000	65.147781 
3903.000000	65.121340 
3902.000000	65.097236 
3901.000000	65.076804 
3900.000000	65.061545 
3899.000000	65.052866 
3898.000000	65.051102 
3897.000000	65.055680 
3896.000000	65.064859 
3895.000000	65.076065 
3894.000000	65.086483 
3893.000000	65.093994 
3892.000000	65.097284 
3891.000000	65.096521 
3890.000000	65.093183 
3889.000000	65.089392 
3888.000000	65.087199 
3887.000000	65.087676 
3886.000000	65.090799 
3885.000000	65.095210 
3884.000000	65.099024 
3883.000000	65.099906 
3882.000000	65.096068 
3881.000000	65.086579 
3880.000000	65.071535 
3879.000000	65.051841 
3878.000000	65.028929 
3877.000000	65.004086 
3876.000000	64.978241 
3875.000000	64.952039 
3874.000000	64.926171 
3873.000000	64.901232 
3872.000000	64.878320 
3871.000000	64.859127 
3870.000000	64.845848 
3869.000000	64.840793 
3868.000000	64.846110 
3867.000000	64.862775 
3866.000000	64.890575 
3865.000000	64.928126 
3864.000000	64.972877 
3863.000000	65.021419 
3862.000000	65.069961 
3861.000000	65.114831 
3860.000000	65.152549 
3859.000000	65.180325 
3858.000000	65.196371 
3857.000000	65.199971 
3856.000000	65.191602 
3855.000000	65.173077 
3854.000000	65.147137 
3853.000000	65.117049 
3852.000000	65.086698 
3851.000000	65.059947 
3850.000000	65.040493 
3849.000000	65.031313 
3848.000000	65.034294 
3847.000000	65.049886 
3846.000000	65.076684 
3845.000000	65.111374 
3844.000000	65.149211 
3843.000000	65.184712 
3842.000000	65.212249 
3841.000000	65.227460 
3840.000000	65.227937 
3839.000000	65.213799 
3838.000000	65.187525 
3837.000000	65.153336 
3836.000000	65.116405 
3835.000000	65.081214 
3834.000000	65.050888 
3833.000000	65.026664 
3832.000000	65.007853 
3831.000000	64.993023 
3830.000000	64.981031 
3829.000000	64.971637 
3828.000000	64.965891 
3827.000000	64.965677 
3826.000000	64.972758 
3825.000000	64.987850 
3824.000000	65.009593 
3823.000000	65.034461 
3822.000000	65.057182 
3821.000000	65.072345 
3820.000000	65.075683 
3819.000000	65.065455 
3818.000000	65.043115 
3817.000000	65.013027 
3816.000000	64.981603 
3815.000000	64.955449 
3814.000000	64.940142 
3813.000000	64.938426 
3812.000000	64.950299 
3811.000000	64.973568 
3810.000000	65.004324 
3809.000000	65.038490 
3808.000000	65.072393 
3807.000000	65.103220 
3806.000000	65.129232 
3805.000000	65.149235 
3804.000000	65.162944 
3803.000000	65.169954 
3802.000000	65.170741 
3801.000000	65.166544 
3800.000000	65.159273 
3799.000000	65.151333 
3798.000000	65.145397 
3797.000000	65.144062 
3796.000000	65.148854 
3795.000000	65.160131 
3794.000000	65.176582 
3793.000000	65.195751 
3792.000000	65.214657 
3791.000000	65.230464 
3790.000000	65.241360 
3789.000000	65.246438 
3788.000000	65.245890 
3787.000000	65.240287 
3786.000000	65.230417 
3785.000000	65.217041 
3784.000000	65.200519 
3783.000000	65.181326 
3782.000000	65.160250 
3781.000000	65.138912 
3780.000000	65.119314 
3779.000000	65.104079 
3778.000000	65.095901 
3777.000000	65.097260 
3776.000000	65.109920 
3775.000000	65.134525 
3774.000000	65.170049 
3773.000000	65.214157 
3772.000000	65.263247 
3771.000000	65.312695 
3770.000000	65.357494 
3769.000000	65.392851 
3768.000000	65.415096 
3767.000000	65.422129 
3766.000000	65.413904 
3765.000000	65.392971 
3764.000000	65.363788 
3763.000000	65.332365 
3762.000000	65.304899 
3761.000000	65.286636 
3760.000000	65.280723 
3759.000000	65.287566 
3758.000000	65.305161 
3757.000000	65.329480 
3756.000000	65.356254 
3755.000000	65.381741 
3754.000000	65.404081 
3753.000000	65.423369 
3752.000000	65.441179 
3751.000000	65.459895 
3750.000000	65.481066 
3749.000000	65.504527 
3748.000000	65.527796 
3747.000000	65.546560 
3746.000000	65.555667 
3745.000000	65.550661 
3744.000000	65.529298 
3743.000000	65.492320 
3742.000000	65.443587 
3741.000000	65.389442 
3740.000000	65.336918 
3739.000000	65.292143 
3738.000000	65.259003 
3737.000000	65.238523 
3736.000000	65.228867 
3735.000000	65.226411 
3734.000000	65.227222 
3733.000000	65.228295 
3732.000000	65.228462 
3731.000000	65.228438 
3730.000000	65.229797 
3729.000000	65.234565 
3728.000000	65.243554 
3727.000000	65.256357 
3726.000000	65.271162 
3725.000000	65.285062 
3724.000000	65.295338 
3723.000000	65.299391 
3722.000000	65.295934 
3721.000000	65.284538 
3720.000000	65.265703 
3719.000000	65.240621 
3718.000000	65.210700 
3717.000000	65.177559 
3716.000000	65.142869 
3715.000000	65.108656 
3714.000000	65.077185 
3713.000000	65.051102 
3712.000000	65.033125 
3711.000000	65.025401 
3710.000000	65.029215 
3709.000000	65.044546 
3708.000000	65.070033 
3707.000000	65.102863 
3706.000000	65.139532 
3705.000000	65.176463 
3704.000000	65.210747 
3703.000000	65.240216 
3702.000000	65.263915 
3701.000000	65.281701 
3700.000000	65.294265 
3699.000000	65.302467 
3698.000000	65.306997 
3697.000000	65.308570 
3696.000000	65.307235 
3695.000000	65.303134 
3694.000000	65.296053 
3693.000000	65.286183 
3692.000000	65.273952 
3691.000000	65.260314 
3690.000000	65.246534 
3689.000000	65.234065 
3688.000000	65.224218 
3687.000000	65.218043 
3686.000000	65.216064 
3685.000000	65.218400 
3684.000000	65.224313 
3683.000000	65.232968 
3682.000000	65.243101 
3681.000000	65.253758 
3680.000000	65.264391 
3679.000000	65.275144 
3678.000000	65.286588 
3677.000000	65.299534 
3676.000000	65.314817 
3675.000000	65.332579 
3674.000000	65.352344 
3673.000000	65.372562 
3672.000000	65.391397 
3671.000000	65.406394 
3670.000000	65.415382 
3669.000000	65.416646 
3668.000000	65.409517 
3667.000000	65.394282 
3666.000000	65.372300 
3665.000000	65.345788 
3664.000000	65.317702 
3663.000000	65.291190 
3662.000000	65.269231 
3661.000000	65.254259 
3660.000000	65.247583 
3659.000000	65.249371 
3658.000000	65.258383 
3657.000000	65.272283 
3656.000000	65.287995 
3655.000000	65.302038 
3654.000000	65.311670 
3653.000000	65.315198 
3652.000000	65.312671 
3651.000000	65.305852 
3650.000000	65.298056 
3649.000000	65.293455 
3648.000000	65.295815 
3647.000000	65.307855 
3646.000000	65.330100 
3645.000000	65.360856 
3644.000000	65.395951 
3643.000000	65.429806 
3642.000000	65.456271 
3641.000000	65.470266 
3640.000000	65.468621 
3639.000000	65.450930 
3638.000000	65.419650 
3637.000000	65.379405 
3636.000000	65.336203 
3635.000000	65.296053 
3634.000000	65.263605 
3633.000000	65.241408 
3632.000000	65.229606 
3631.000000	65.226483 
3630.000000	65.228986 
3629.000000	65.233850 
3628.000000	65.238428 
3627.000000	65.241742 
3626.000000	65.244340 
3625.000000	65.248322 
3624.000000	65.256214 
3623.000000	65.270304 
3622.000000	65.291929 
3621.000000	65.320491 
3620.000000	65.353918 
3619.000000	65.388131 
3618.000000	65.418338 
3617.000000	65.439581 
3616.000000	65.447807 
3615.000000	65.441012 
3614.000000	65.419411 
3613.000000	65.385770 
3612.000000	65.344762 
3611.000000	65.302276 
3610.000000	65.264296 
3609.000000	65.235686 
3608.000000	65.219497 
3607.000000	65.216445 
3606.000000	65.224957 
3605.000000	65.241599 
3604.000000	65.262126 
3603.000000	65.282130 
3602.000000	65.298199 
3601.000000	65.308308 
3600.000000	65.312337 
3599.000000	65.311884 
3598.000000	65.309834 
3597.000000	65.309405 
3596.000000	65.313506 
3595.000000	65.323805 
3594.000000	65.340280 
3593.000000	65.361523 
3592.000000	65.384411 
3591.000000	65.405249 
3590.000000	65.420317 
3589.000000	65.426921 
3588.000000	65.424275 
3587.000000	65.413808 
3586.000000	65.398764 
3585.000000	65.383505 
3584.000000	65.372300 
3583.000000	65.368366 
3582.000000	65.372776 
3581.000000	65.384292 
3580.000000	65.399646 
3579.000000	65.414166 
3578.000000	65.423107 
3577.000000	65.422725 
3576.000000	65.411067 
3575.000000	65.388655 
3574.000000	65.357756 
3573.000000	65.322470 
3572.000000	65.287566 
3571.000000	65.258145 
3570.000000	65.238404 
3569.000000	65.231370 
3568.000000	65.238904 
3567.000000	65.261030 
3566.000000	65.296339 
3565.000000	65.341567 
3564.000000	65.391826 
3563.000000	65.441131 
3562.000000	65.483069 
3561.000000	65.512204 
3560.000000	65.524911 
3559.000000	65.520524 
3558.000000	65.501308 
3557.000000	65.471911 
3556.000000	65.438365 
3555.000000	65.406250 
3554.000000	65.379738 
3553.000000	65.360283 
3552.000000	65.346670 
3551.000000	65.335416 
3550.000000	65.322399 
3549.000000	65.304255 
3548.000000	65.279531 
3547.000000	65.249204 
3546.000000	65.216469 
3545.000000	65.185451 
3544.000000	65.160465 
3543.000000	65.144395 
3542.000000	65.138578 
3541.000000	65.142250 
3540.000000	65.153431 
3539.000000	65.169906 
3538.000000	65.189409 
3537.000000	65.210318 
3536.000000	65.231513 
3535.000000	65.251874 
3534.000000	65.270686 
3533.000000	65.287184 
3532.000000	65.300655 
3531.000000	65.310382 
3530.000000	65.316009 
3529.000000	65.317916 
3528.000000	65.316581 
3527.000000	65.312814 
3526.000000	65.306735 
3525.000000	65.297555 
3524.000000	65.283632 
3523.000000	65.263128 
3522.000000	65.234446 
3521.000000	65.197491 
3520.000000	65.154218 
3519.000000	65.108966 
3518.000000	65.067791 
3517.000000	65.037322 
3516.000000	65.023303 
3515.000000	65.029287 
3514.000000	65.055656 
3513.000000	65.099215 
3512.000000	65.153980 
3511.000000	65.211987 
3510.000000	65.265154 
3509.000000	65.306329 
3508.000000	65.330576 
3507.000000	65.335845 
3506.000000	65.322852 
3505.000000	65.295124 
3504.000000	65.257811 
3503.000000	65.216970 
3502.000000	65.178370 
3501.000000	65.146923 
3500.000000	65.126609 
3499.000000	65.119338 
3498.000000	65.125250 
3497.000000	65.142488 
3496.000000	65.167903 
3495.000000	65.197396 
3494.000000	65.226864 
3493.000000	65.252828 
3492.000000	65.272688 
3491.000000	65.285468 
3490.000000	65.291166 
3489.000000	65.290951 
3488.000000	65.285730 
3487.000000	65.276265 
3486.000000	65.262246 
3485.000000	65.242552 
3484.000000	65.215945 
3483.000000	65.181803 
3482.000000	65.141463 
3481.000000	65.098023 
3480.000000	65.057301 
3479.000000	65.026688 
3478.000000	65.014314 
3477.000000	65.026712 
3476.000000	65.067720 
3475.000000	65.137267 
3474.000000	65.230655 
3473.000000	65.339136 
3472.000000	65.450692 
3471.000000	65.552163 
3470.000000	65.631461 
3469.000000	65.679788 
3468.000000	65.693163 
3467.000000	65.672755 
3466.000000	65.624737 
3465.000000	65.558314 
3464.000000	65.484023 
3463.000000	65.410995 
3462.000000	65.345907 
3461.000000	65.291452 
3460.000000	65.247154 
3459.000000	65.209746 
3458.000000	65.175175 
3457.000000	65.140318 
3456.000000	65.103888 
3455.000000	65.067219 
3454.000000	65.033245 
3453.000000	65.005850 
3452.000000	64.987802 
3451.000000	64.980483 
3450.000000	64.982533 
3449.000000	64.991235 
3448.000000	65.002846 
3447.000000	65.014266 
3446.000000	65.023589 
3445.000000	65.030527 
3444.000000	65.035963 
3443.000000	65.041089 
3442.000000	65.046787 
3441.000000	65.053415 
3440.000000	65.060567 
3439.000000	65.067410 
3438.000000	65.072941 
3437.000000	65.076994 
3436.000000	65.079975 
3435.000000	65.083146 
3434.000000	65.087652 
3433.000000	65.093994 
3432.000000	65.101814 
3431.000000	65.109682 
3430.000000	65.115666 
3429.000000	65.117788 
3428.000000	65.114951 
3427.000000	65.107321 
3426.000000	65.096330 
3425.000000	65.084314 
3424.000000	65.073752 
3423.000000	65.066361 
3422.000000	65.063261 
3421.000000	65.064549 
3420.000000	65.069818 
3419.000000	65.078592 
3418.000000	65.090560 
3417.000000	65.105748 
3416.000000	65.124297 
3415.000000	65.146231 
3414.000000	65.171027 
3413.000000	65.197324 
3412.000000	65.223073 
3411.000000	65.245795 
3410.000000	65.263175 
3409.000000	65.273284 
3408.000000	65.275478 
3407.000000	65.269970 
3406.000000	65.258264 
3405.000000	65.241909 
3404.000000	65.222549 
3403.000000	65.201258 
3402.000000	65.178489 
3401.000000	65.154075 
3400.000000	65.127706 
3399.000000	65.099287 
3398.000000	65.069246 
3397.000000	65.038752 
3396.000000	65.009593 
3395.000000	64.984011 
3394.000000	64.964199 
3393.000000	64.952111 
3392.000000	64.948844 
3391.000000	64.954829 
3390.000000	64.969468 
3389.000000	64.991450 
3388.000000	65.018773 
3387.000000	65.049004 
3386.000000	65.079593 
3385.000000	65.107774 
3384.000000	65.131115 
3383.000000	65.147542 
3382.000000	65.155744 
3381.000000	65.155339 
3380.000000	65.147066 
3379.000000	65.132641 
3378.000000	65.114307 
3377.000000	65.094876 
3376.000000	65.076851 
3375.000000	65.062260 
3374.000000	65.052366 
3373.000000	65.047550 
3372.000000	65.047526 
3371.000000	65.051603 
3370.000000	65.058970 
3369.000000	65.069007 
3368.000000	65.081071 
3367.000000	65.094375 
3366.000000	65.107870 
3365.000000	65.120363 
3364.000000	65.130400 
3363.000000	65.136408 
3362.000000	65.137457 
3361.000000	65.133476 
3360.000000	65.125584 
3359.000000	65.116000 
3358.000000	65.107846 
3357.000000	65.104222 
3356.000000	65.108084 
3355.000000	65.121126 
3354.000000	65.143322 
3353.000000	65.172648 
3352.000000	65.206027 
3351.000000	65.239381 
3350.000000	65.268588 
3349.000000	65.289902 
3348.000000	65.301060 
3347.000000	65.301203 
3346.000000	65.291166 
3345.000000	65.273141 
3344.000000	65.250325 
3343.000000	65.226531 
3342.000000	65.205764 
3341.000000	65.191578 
3340.000000	65.186762 
3339.000000	65.192985 
3338.000000	65.210628 
3337.000000	65.238618 
3336.000000	65.274715 
3335.000000	65.315532 
3334.000000	65.357041 
3333.000000	65.394902 
3332.000000	65.425014 
3331.000000	65.443992 
3330.000000	65.449500 
3329.000000	65.440511 
3328.000000	65.417313 
3327.000000	65.381646 
3326.000000	65.336251 
3325.000000	65.284609 
3324.000000	65.230536 
3323.000000	65.177798 
3322.000000	65.129780 
3321.000000	65.089559 
3320.000000	65.059256 
3319.000000	65.039873 
3318.000000	65.031337 
3317.000000	65.032601 
3316.000000	65.041661 
3315.000000	65.055584 
3314.000000	65.071392 
3313.000000	65.086054 
3312.000000	65.097332 
3311.000000	65.103983 
3310.000000	65.106081 
3309.000000	65.104484 
3308.000000	65.101075 
3307.000000	65.097808 
3306.000000	65.096473 
3305.000000	65.098142 
3304.000000	65.102958 
3303.000000	65.110349 
3302.000000	65.119123 
3301.000000	65.127825 
3300.000000	65.135192 
3299.000000	65.139961 
3298.000000	65.141224 
3297.000000	65.138220 
3296.000000	65.130472 
3295.000000	65.117621 
3294.000000	65.099573 
3293.000000	65.076780 
3292.000000	65.050697 
3291.000000	65.023732 
3290.000000	64.998912 
3289.000000	64.979720 
3288.000000	64.969396 
3287.000000	64.970302 
3286.000000	64.983177 
3285.000000	65.007066 
3284.000000	65.039110 
3283.000000	65.075469 
3282.000000	65.111947 
3281.000000	65.144968 
3280.000000	65.171957 
3279.000000	65.191960 
3278.000000	65.205359 
3277.000000	65.213561 
3276.000000	65.218377 
3275.000000	65.221381 
3274.000000	65.223670 
3273.000000	65.225887 
3272.000000	65.228295 
3271.000000	65.231204 
3270.000000	65.234994 
3269.000000	65.240502 
3268.000000	65.248441 
3267.000000	65.259575 
3266.000000	65.273976 
3265.000000	65.290832 
3264.000000	65.308332 
3263.000000	65.323996 
3262.000000	65.335154 
3261.000000	65.339636 
3260.000000	65.336132 
3259.000000	65.324544 
3258.000000	65.306019 
3257.000000	65.282893 
3256.000000	65.258026 
3255.000000	65.234327 
3254.000000	65.214371 
3253.000000	65.200018 
3252.000000	65.192413 
3251.000000	65.192008 
3250.000000	65.198683 
3249.000000	65.211749 
3248.000000	65.230035 
3247.000000	65.251755 
3246.000000	65.274524 
3245.000000	65.295433 
3244.000000	65.311598 
3243.000000	65.320372 
3242.000000	65.319657 
3241.000000	65.308475 
3240.000000	65.287518 
3239.000000	65.258836 
3238.000000	65.225481 
3237.000000	65.191364 
3236.000000	65.160727 
3235.000000	65.137100 
3234.000000	65.122747 
3233.000000	65.118527 
3232.000000	65.123844 
3231.000000	65.136504 
3230.000000	65.153479 
3229.000000	65.171527 
3228.000000	65.188193 
3227.000000	65.202140 
3226.000000	65.213537 
3225.000000	65.223956 
3224.000000	65.235924 
3223.000000	65.252351 
3222.000000	65.275359 
3221.000000	65.305542 
3220.000000	65.341091 
3219.000000	65.378475 
3218.000000	65.412306 
3217.000000	65.437126 
3216.000000	65.447831 
3215.000000	65.441751 
3214.000000	65.418195 
3213.000000	65.379524 
3212.000000	65.329837 
3211.000000	65.274667 
3210.000000	65.219211 
3209.000000	65.167570 
3208.000000	65.121722 
3207.000000	65.081954 
3206.000000	65.046596 
3205.000000	65.013098 
3204.000000	64.979171 
3203.000000	64.943718 
3202.000000	64.907336 
3201.000000	64.872217 
3200.000000	64.841961 
3199.000000	64.820647 
3198.000000	64.812040 
3197.000000	64.818882 
3196.000000	64.841794 
3195.000000	64.879131 
3194.000000	64.926934 
3193.000000	64.979887 
3192.000000	65.031838 
3191.000000	65.077304 
3190.000000	65.112090 
3189.000000	65.134358 
3188.000000	65.144395 
3187.000000	65.144729 
3186.000000	65.138864 
3185.000000	65.130662 
3184.000000	65.123224 
3183.000000	65.118503 
3182.000000	65.117049 
3181.000000	65.118622 
3180.000000	65.122723 
3179.000000	65.129041 
3178.000000	65.137815 
3177.000000	65.149903 
3176.000000	65.166473 
3175.000000	65.187954 
3174.000000	65.213346 
3173.000000	65.240192 
3172.000000	65.264892 
3171.000000	65.283441 
3170.000000	65.292572 
3169.000000	65.291070 
3168.000000	65.280222 
3167.000000	65.263748 
3166.000000	65.247154 
3165.000000	65.236377 
3164.000000	65.236115 
3163.000000	65.248537 
3162.000000	65.272545 
3161.000000	65.304303 
3160.000000	65.337753 
3159.000000	65.366530 
3158.000000	65.384984 
3157.000000	65.389800 
3156.000000	65.380382 
3155.000000	65.358591 
3154.000000	65.328335 
3153.000000	65.294361 
3152.000000	65.261721 
3151.000000	65.234661 
3150.000000	65.216493 
3149.000000	65.209150 
3148.000000	65.212988 
3147.000000	65.227365 
3146.000000	65.249848 
3145.000000	65.276956 
3144.000000	65.304231 
3143.000000	65.327143 
3142.000000	65.341520 
3141.000000	65.344882 
3140.000000	65.336966 
3139.000000	65.320253 
3138.000000	65.299677 
3137.000000	65.281891 
3136.000000	65.274119 
3135.000000	65.282249 
3134.000000	65.309739 
3133.000000	65.356469 
3132.000000	65.418958 
3131.000000	65.490770 
3130.000000	65.563988 
3129.000000	65.630292 
3128.000000	65.683007 
3127.000000	65.717482 
3126.000000	65.731954 
3125.000000	65.726685 
3124.000000	65.703582 
3123.000000	65.665364 
3122.000000	65.615057 
3121.000000	65.555763 
3120.000000	65.490746 
3119.000000	65.424013 
3118.000000	65.360307 
3117.000000	65.305113 
3116.000000	65.264153 
3115.000000	65.242266 
3114.000000	65.242552 
3113.000000	65.265631 
3112.000000	65.308976 
3111.000000	65.366911 
3110.000000	65.431475 
3109.000000	65.493559 
3108.000000	65.544319 
3107.000000	65.576601 
3106.000000	65.586519 
3105.000000	65.573334 
3104.000000	65.540146 
3103.000000	65.492749 
3102.000000	65.438747 
3101.000000	65.386247 
3100.000000	65.342116 
3099.000000	65.311264 
3098.000000	65.295362 
3097.000000	65.293455 
3096.000000	65.301752 
3095.000000	65.314769 
3094.000000	65.326619 
3093.000000	65.332388 
3092.000000	65.328884 
3091.000000	65.315318 
3090.000000	65.292978 
3089.000000	65.264797 
3088.000000	65.234684 
3087.000000	65.206694 
3086.000000	65.184020 
3085.000000	65.168857 
3084.000000	65.162229 
3083.000000	65.164017 
3082.000000	65.173363 
3081.000000	65.188956 
3080.000000	65.209269 
3079.000000	65.232944 
3078.000000	65.258765 
3077.000000	65.285611 
3076.000000	65.312337 
3075.000000	65.337681 
3074.000000	65.360331 
3073.000000	65.378832 
3072.000000	65.391921 
3071.000000	65.398097 
3070.000000	65.396213 
3069.000000	65.385556 
3068.000000	65.366387 
3067.000000	65.340185 
3066.000000	65.309429 
3065.000000	65.277528 
3064.000000	65.248274 
3063.000000	65.225172 
3062.000000	65.210604 
3061.000000	65.205049 
3060.000000	65.207386 
3059.000000	65.214872 
3058.000000	65.224361 
3057.000000	65.232825 
3056.000000	65.238595 
3055.000000	65.241718 
3054.000000	65.244269 
3053.000000	65.249276 
3052.000000	65.260219 
3051.000000	65.279698 
3050.000000	65.308451 
3049.000000	65.344882 
3048.000000	65.385270 
3047.000000	65.424513 
3046.000000	65.457177 
3045.000000	65.478944 
3044.000000	65.487265 
3043.000000	65.482020 
3042.000000	65.465307 
3041.000000	65.440845 
3040.000000	65.413188 
3039.000000	65.386629 
3038.000000	65.364551 
3037.000000	65.348839 
3036.000000	65.339756 
3035.000000	65.336060 
3034.000000	65.335750 
3033.000000	65.336346 
3032.000000	65.335488 
3031.000000	65.331244 
3030.000000	65.322446 
3029.000000	65.308713 
3028.000000	65.290284 
3027.000000	65.268230 
3026.000000	65.243792 
3025.000000	65.218925 
3024.000000	65.195488 
3023.000000	65.175580 
3022.000000	65.161156 
3021.000000	65.153813 
3020.000000	65.154576 
3019.000000	65.163850 
3018.000000	65.181040 
3017.000000	65.204858 
3016.000000	65.233254 
3015.000000	65.263533 
3014.000000	65.292644 
3013.000000	65.317654 
3012.000000	65.336132 
3011.000000	65.346455 
3010.000000	65.347957 
3009.000000	65.340900 
3008.000000	65.326309 
3007.000000	65.306043 
3006.000000	65.282249 
3005.000000	65.257167 
3004.000000	65.232849 
3003.000000	65.210819 
3002.000000	65.192294 
3001.000000	65.177893 
3000.000000	65.168046 
2999.000000	65.162825 
2998.000000	65.162491 
2997.000000	65.167212 
2996.000000	65.177321 
2995.000000	65.193009 
2994.000000	65.213990 
2993.000000	65.239024 
2992.000000	65.266060 
2991.000000	65.292263 
2990.000000	65.314221 
2989.000000	65.328741 
2988.000000	65.333485 
2987.000000	65.327620 
2986.000000	65.312218 
2985.000000	65.290045 
2984.000000	65.265035 
2983.000000	65.241527 
2982.000000	65.222811 
2981.000000	65.210700 
2980.000000	65.204763 
2979.000000	65.202689 
2978.000000	65.201115 
2977.000000	65.196561 
2976.000000	65.186548 
2975.000000	65.170621 
2974.000000	65.150141 
2973.000000	65.128612 
2972.000000	65.110158 
2971.000000	65.098905 
2970.000000	65.097618 
2969.000000	65.107083 
2968.000000	65.126061 
2967.000000	65.151405 
2966.000000	65.179038 
2965.000000	65.204930 
2964.000000	65.225839 
2963.000000	65.240240 
2962.000000	65.248370 
2961.000000	65.252065 
2960.000000	65.253734 
2959.000000	65.255999 
2958.000000	65.260934 
2957.000000	65.269374 
2956.000000	65.280675 
2955.000000	65.292882 
2954.000000	65.303063 
2953.000000	65.308141 
2952.000000	65.305662 
2951.000000	65.294337 
2950.000000	65.274500 
2949.000000	65.248346 
2948.000000	65.219402 
2947.000000	65.191841 
2946.000000	65.169477 
2945.000000	65.155315 
2944.000000	65.150547 
2943.000000	65.154814 
2942.000000	65.165972 
2941.000000	65.180945 
2940.000000	65.196061 
2939.000000	65.207767 
2938.000000	65.213251 
2937.000000	65.210962 
2936.000000	65.200471 
2935.000000	65.182352 
2934.000000	65.157771 
2933.000000	65.128159 
2932.000000	65.094780 
2931.000000	65.058803 
2930.000000	65.021038 
2929.000000	64.982223 
2928.000000	64.943313 
2927.000000	64.905834 
2926.000000	64.871788 
2925.000000	64.843440 
2924.000000	64.823055 
2923.000000	64.812231 
2922.000000	64.811348 
2921.000000	64.819788 
2920.000000	64.835405 
2919.000000	64.855623 
2918.000000	64.877247 
2917.000000	64.897847 
2916.000000	64.915704 
2915.000000	64.930725 
2914.000000	64.943957 
2913.000000	64.957737 
2912.000000	64.974617 
2911.000000	64.996790 
2910.000000	65.025711 
2909.000000	65.060710 
2908.000000	65.099358 
2907.000000	65.137314 
2906.000000	65.169644 
2905.000000	65.191197 
2904.000000	65.198135 
2903.000000	65.188813 
2902.000000	65.164327 
2901.000000	65.128374 
2900.000000	65.086674 
2899.000000	65.045976 
2898.000000	65.012788 
2897.000000	64.991855 
2896.000000	64.985299 
2895.000000	64.992856 
2894.000000	65.011525 
2893.000000	65.036487 
2892.000000	65.062379 
2891.000000	65.084099 
2890.000000	65.098381 
2889.000000	65.103888 
2888.000000	65.101909 
2887.000000	65.094852 
2886.000000	65.086579 
2885.000000	65.081238 
2884.000000	65.082502 
2883.000000	65.092372 
2882.000000	65.111517 
2881.000000	65.139126 
2880.000000	65.173149 
2879.000000	65.210509 
2878.000000	65.247678 
2877.000000	65.281391 
2876.000000	65.308666 
2875.000000	65.327501 
2874.000000	65.336847 
2873.000000	65.337014 
2872.000000	65.329742 
2871.000000	65.317797 
2870.000000	65.304803 
2869.000000	65.294289 
2868.000000	65.289688 
2867.000000	65.292739 
2866.000000	65.303301 
2865.000000	65.318727 
2864.000000	65.334987 
2863.000000	65.346717 
2862.000000	65.349268 
2861.000000	65.339088 
2860.000000	65.314888 
2859.000000	65.277576 
2858.000000	65.230059 
2857.000000	65.176343 
2856.000000	65.120625 
2855.000000	65.066456 
2854.000000	65.016293 
2853.000000	64.971542 
2852.000000	64.932894 
2851.000000	64.900875 
2850.000000	64.876508 
2849.000000	64.861249 
2848.000000	64.856886 
2847.000000	64.864921 
2846.000000	64.886355 
2845.000000	64.920473 
2844.000000	64.965057 
2843.000000	65.016603 
2842.000000	65.070748 
2841.000000	65.122985 
2840.000000	65.169048 
2839.000000	65.205597 
2838.000000	65.230345 
2837.000000	65.242314 
2836.000000	65.241837 
2835.000000	65.230655 
2834.000000	65.211653 
2833.000000	65.188813 
2832.000000	65.166354 
2831.000000	65.148377 
2830.000000	65.137743 
2829.000000	65.136003 
2828.000000	65.142655 
2827.000000	65.155506 
2826.000000	65.171313 
2825.000000	65.186738 
2824.000000	65.199089 
2823.000000	65.207028 
2822.000000	65.211248 
2821.000000	65.213966 
2820.000000	65.217947 
2819.000000	65.225744 
2818.000000	65.238690 
2817.000000	65.256357 
2816.000000	65.276765 
2815.000000	65.296792 
2814.000000	65.313100 
2813.000000	65.322995 
2812.000000	65.325403 
2811.000000	65.320825 
2810.000000	65.311121 
2809.000000	65.298843 
2808.000000	65.286731 
2807.000000	65.276837 
2806.000000	65.270185 
2805.000000	65.266537 
2804.000000	65.265083 
2803.000000	65.264534 
2802.000000	65.263986 
2801.000000	65.263080 
2800.000000	65.262246 
2799.000000	65.262484 
2798.000000	65.265107 
2797.000000	65.271639 
2796.000000	65.283346 
2795.000000	65.301084 
2794.000000	65.324831 
2793.000000	65.353775 
2792.000000	65.386152 
2791.000000	65.419435 
2790.000000	65.450501 
2789.000000	65.475988 
2788.000000	65.492939 
2787.000000	65.499305 
2786.000000	65.494298 
2785.000000	65.478682 
2784.000000	65.454864 
2783.000000	65.426230 
2782.000000	65.396595 
2781.000000	65.369653 
2780.000000	65.347909 
2779.000000	65.332698 
2778.000000	65.323519 
2777.000000	65.318822 
2776.000000	65.316152 
2775.000000	65.313005 
2774.000000	65.307426 
2773.000000	65.298128 
2772.000000	65.285015 
2771.000000	65.268754 
2770.000000	65.251016 
2769.000000	65.233540 
2768.000000	65.218257 
2767.000000	65.206599 
2766.000000	65.199685 
2765.000000	65.197849 
2764.000000	65.200924 
2763.000000	65.208268 
2762.000000	65.218710 
2761.000000	65.231037 
2760.000000	65.243840 
2759.000000	65.255928 
2758.000000	65.266418 
2757.000000	65.274834 
2756.000000	65.281128 
2755.000000	65.285539 
2754.000000	65.288352 
2753.000000	65.289759 
2752.000000	65.289950 
2751.000000	65.288877 
2750.000000	65.286421 
2749.000000	65.282464 
2748.000000	65.277266 
2747.000000	65.271282 
2746.000000	65.265107 
2745.000000	65.259552 
2744.000000	65.255188 
2743.000000	65.252494 
2742.000000	65.251660 
2741.000000	65.252780 
2740.000000	65.255784 
2739.000000	65.260601 
2738.000000	65.267229 
2737.000000	65.275692 
2736.000000	65.286087 
2735.000000	65.298295 
2734.000000	65.311932 
2733.000000	65.326142 
2732.000000	65.339994 
2731.000000	65.352654 
2730.000000	65.363645 
2729.000000	65.372991 
2728.000000	65.381145 
2727.000000	65.389037 
2726.000000	65.397572 
2725.000000	65.407371 
2724.000000	65.418481 
2723.000000	65.430283 
2722.000000	65.441298 
2721.000000	65.449833 
2720.000000	65.454125 
2719.000000	65.452790 
2718.000000	65.445184 
2717.000000	65.431642 
2716.000000	65.413522 
2715.000000	65.392899 
2714.000000	65.372514 
2713.000000	65.354871 
2712.000000	65.341949 
2711.000000	65.334653 
2710.000000	65.332841 
2709.000000	65.335226 
2708.000000	65.339565 
2707.000000	65.343475 
2706.000000	65.344405 
2705.000000	65.340876 
2704.000000	65.332365 
2703.000000	65.319752 
2702.000000	65.304827 
2701.000000	65.290212 
2700.000000	65.278482 
2699.000000	65.271759 
2698.000000	65.271306 
2697.000000	65.277099 
2696.000000	65.288066 
2695.000000	65.302157 
2694.000000	65.317058 
2693.000000	65.330505 
2692.000000	65.340757 
2691.000000	65.346765 
2690.000000	65.348148 
2689.000000	65.345454 
2688.000000	65.339827 
2687.000000	65.332818 
2686.000000	65.325903 
2685.000000	65.320348 
2684.000000	65.316915 
2683.000000	65.315890 
2682.000000	65.316891 
2681.000000	65.319085 
2680.000000	65.321397 
2679.000000	65.322589 
2678.000000	65.321969 
2677.000000	65.319275 
2676.000000	65.315222 
2675.000000	65.311098 
2674.000000	65.309095 
2673.000000	65.311503 
2672.000000	65.320467 
2671.000000	65.337371 
2670.000000	65.362215 
2669.000000	65.393495 
2668.000000	65.428018 
2667.000000	65.461564 
2666.000000	65.489363 
2665.000000	65.507102 
2664.000000	65.511727 
2663.000000	65.502119 
2662.000000	65.479445 
2661.000000	65.446710 
2660.000000	65.408301 
2659.000000	65.369057 
2658.000000	65.333247 
2657.000000	65.303707 
2656.000000	65.281510 
2655.000000	65.266203 
2654.000000	65.255975 
2653.000000	65.248584 
2652.000000	65.242195 
2651.000000	65.235996 
2650.000000	65.230178 
2649.000000	65.225934 
2648.000000	65.224695 
2647.000000	65.227699 
2646.000000	65.235304 
2645.000000	65.246772 
2644.000000	65.260052 
2643.000000	65.272355 
2642.000000	65.280938 
2641.000000	65.283799 
2640.000000	65.280032 
2639.000000	65.270519 
2638.000000	65.257596 
2637.000000	65.244388 
2636.000000	65.234088 
2635.000000	65.229010 
2634.000000	65.230202 
2633.000000	65.237045 
2632.000000	65.247488 
2631.000000	65.258932 
2630.000000	65.268969 
2629.000000	65.276432 
2628.000000	65.281581 
2627.000000	65.285944 
2626.000000	65.291738 
2625.000000	65.301346 
2624.000000	65.316104 
2623.000000	65.335631 
2622.000000	65.357518 
2621.000000	65.378069 
2620.000000	65.392971 
2619.000000	65.398335 
2618.000000	65.391874 
2617.000000	65.373516 
2616.000000	65.345454 
2615.000000	65.311741 
2614.000000	65.277194 
2613.000000	65.246415 
2612.000000	65.222668 
2611.000000	65.207409 
2610.000000	65.200042 
2609.000000	65.198278 
2608.000000	65.198922 
2607.000000	65.198779 
2606.000000	65.195512 
2605.000000	65.188074 
2604.000000	65.176844 
2603.000000	65.163779 
2602.000000	65.151524 
2601.000000	65.142893 
2600.000000	65.140032 
2599.000000	65.144157 
2598.000000	65.155100 
2597.000000	65.171551 
2596.000000	65.191364 
2595.000000	65.212130 
2594.000000	65.231585 
2593.000000	65.248155 
2592.000000	65.260958 
2591.000000	65.269732 
2590.000000	65.274715 
2589.000000	65.276360 
2588.000000	65.275192 
2587.000000	65.271329 
2586.000000	65.264821 
2585.000000	65.255403 
2584.000000	65.242862 
2583.000000	65.227246 
2582.000000	65.209174 
2581.000000	65.189719 
2580.000000	65.170407 
2579.000000	65.153026 
2578.000000	65.139460 
2577.000000	65.131044 
2576.000000	65.128493 
2575.000000	65.131831 
2574.000000	65.140557 
2573.000000	65.153765 
2572.000000	65.170502 
2571.000000	65.189886 
2570.000000	65.211248 
2569.000000	65.233874 
2568.000000	65.257096 
2567.000000	65.279865 
2566.000000	65.300989 
2565.000000	65.318965 
2564.000000	65.332388 
2563.000000	65.340209 
2562.000000	65.342116 
2561.000000	65.338826 
2560.000000	65.331840 
2559.000000	65.323185 
2558.000000	65.315008 
2557.000000	65.309000 
2556.000000	65.306210 
2555.000000	65.306615 
2554.000000	65.309691 
2553.000000	65.314579 
2552.000000	65.320515 
2551.000000	65.327334 
2550.000000	65.335154 
2549.000000	65.344214 
2548.000000	65.354728 
2547.000000	65.366387 
2546.000000	65.377926 
2545.000000	65.387558 
2544.000000	65.393185 
2543.000000	65.392780 
2542.000000	65.385437 
2541.000000	65.371227 
2540.000000	65.351581 
2539.000000	65.328717 
2538.000000	65.305447 
2537.000000	65.284299 
2536.000000	65.266966 
2535.000000	65.254068 
2534.000000	65.244984 
2533.000000	65.238356 
2532.000000	65.232634 
2531.000000	65.226578 
2530.000000	65.219616 
2529.000000	65.212011 
2528.000000	65.204787 
2527.000000	65.199160 
2526.000000	65.196156 
2525.000000	65.196418 
2524.000000	65.199899 
2523.000000	65.206551 
2522.000000	65.215992 
2521.000000	65.228033 
2520.000000	65.242290 
2519.000000	65.258097 
2518.000000	65.274143 
2517.000000	65.288233 
2516.000000	65.297794 
2515.000000	65.300488 
2514.000000	65.294933 
2513.000000	65.281414 
2512.000000	65.262293 
2511.000000	65.241432 
2510.000000	65.223884 
2509.000000	65.214657 
2508.000000	65.217828 
2507.000000	65.235590 
2506.000000	65.267968 
2505.000000	65.312862 
2504.000000	65.366673 
2503.000000	65.425133 
2502.000000	65.484070 
2501.000000	65.540146 
2500.000000	65.590691 
2499.000000	65.633797 
2498.000000	65.668010 
2497.000000	65.692019 
2496.000000	65.704822 
2495.000000	65.705657 
2494.000000	65.694594 
2493.000000	65.672492 
2492.000000	65.641188 
2491.000000	65.603375 
2490.000000	65.562319 
2489.000000	65.521550 
2488.000000	65.484786 
2487.000000	65.455269 
2486.000000	65.435528 
2485.000000	65.426754 
2484.000000	65.428948 
2483.000000	65.440464 
2482.000000	65.458440 
2481.000000	65.479111 
2480.000000	65.498447 
2479.000000	65.512990 
2478.000000	65.520119 
2477.000000	65.518832 
2476.000000	65.509819 
2475.000000	65.494966 
2474.000000	65.476918 
2473.000000	65.458297 
2472.000000	65.441274 
2471.000000	65.426659 
2470.000000	65.414237 
2469.000000	65.403103 
2468.000000	65.392017 
2467.000000	65.380144 
2466.000000	65.367150 
2465.000000	65.353417 
2464.000000	65.339732 
2463.000000	65.326857 
2462.000000	65.315508 
2461.000000	65.305924 
2460.000000	65.298008 
2459.000000	65.291428 
2458.000000	65.285754 
2457.000000	65.280747 
2456.000000	65.276336 
2455.000000	65.272688 
2454.000000	65.269804 
2453.000000	65.267324 
2452.000000	65.264582 
2451.000000	65.260791 
2450.000000	65.255093 
2449.000000	65.246820 
2448.000000	65.235805 
2447.000000	65.222835 
2446.000000	65.209007 
2445.000000	65.195584 
2444.000000	65.183806 
2443.000000	65.174531 
2442.000000	65.168523 
2441.000000	65.166091 
2440.000000	65.167522 
2439.000000	65.172624 
2438.000000	65.180945 
2437.000000	65.191245 
2436.000000	65.201902 
2435.000000	65.210390 
2434.000000	65.213513 
2433.000000	65.208077 
2432.000000	65.191531 
2431.000000	65.163111 
2430.000000	65.123867 
2429.000000	65.077352 
2428.000000	65.029025 
2427.000000	64.986062 
2426.000000	64.955449 
2425.000000	64.943623 
2424.000000	64.954543 
2423.000000	64.989733 
2422.000000	65.047597 
2421.000000	65.123677 
2420.000000	65.211415 
2419.000000	65.302395 
2418.000000	65.387344 
2417.000000	65.457057 
2416.000000	65.503692 
2415.000000	65.521812 
2414.000000	65.509438 
2413.000000	65.468740 
2412.000000	65.405964 
2411.000000	65.330743 
2410.000000	65.254640 
2409.000000	65.189504 
2408.000000	65.145111 
2407.000000	65.127754 
2406.000000	65.138745 
2405.000000	65.174770 
2404.000000	65.228414 
2403.000000	65.289783 
2402.000000	65.348768 
2401.000000	65.396595 
2400.000000	65.427923 
2399.000000	65.440845 
2398.000000	65.437650 
2397.000000	65.422892 
2396.000000	65.402746 
2395.000000	65.382814 
2394.000000	65.367412 
2393.000000	65.358686 
2392.000000	65.356588 
2391.000000	65.359354 
2390.000000	65.364193 
2389.000000	65.368366 
2388.000000	65.369486 
2387.000000	65.366482 
2386.000000	65.359044 
2385.000000	65.347647 
2384.000000	65.333557 
2383.000000	65.318417 
2382.000000	65.303945 
2381.000000	65.291714 
2380.000000	65.282893 
2379.000000	65.278172 
2378.000000	65.277981 
2377.000000	65.282177 
2376.000000	65.289950 
2375.000000	65.300011 
2374.000000	65.310859 
2373.000000	65.321040 
2372.000000	65.329384 
2371.000000	65.335345 
2370.000000	65.338563 
2369.000000	65.339398 
2368.000000	65.338611 
2367.000000	65.337061 
2366.000000	65.335512 
2365.000000	65.334677 
2364.000000	65.335059 
2363.000000	65.337014 
2362.000000	65.340757 
2361.000000	65.346145 
2360.000000	65.352940 
2359.000000	65.360522 
2358.000000	65.368080 
2357.000000	65.374922 
2356.000000	65.380311 
2355.000000	65.383958 
2354.000000	65.385890 
2353.000000	65.386462 
2352.000000	65.386271 
2351.000000	65.385961 
2350.000000	65.385866 
2349.000000	65.385818 
2348.000000	65.385341 
2347.000000	65.383768 
2346.000000	65.380597 
2345.000000	65.375971 
2344.000000	65.370655 
2343.000000	65.366172 
2342.000000	65.364313 
2341.000000	65.366649 
2340.000000	65.373873 
2339.000000	65.385484 
2338.000000	65.399718 
2337.000000	65.413975 
2336.000000	65.425276 
2335.000000	65.431261 
2334.000000	65.430665 
2333.000000	65.423750 
2332.000000	65.412163 
2331.000000	65.398526 
2330.000000	65.385603 
2329.000000	65.375852 
2328.000000	65.370368 
2327.000000	65.368914 
2326.000000	65.370106 
2325.000000	65.371823 
2324.000000	65.372085 
2323.000000	65.369653 
2322.000000	65.364241 
2321.000000	65.356755 
2320.000000	65.348792 
2319.000000	65.342259 
2318.000000	65.338492 
2317.000000	65.337920 
2316.000000	65.339970 
2315.000000	65.343284 
2314.000000	65.346145 
2313.000000	65.346980 
2312.000000	65.345144 
2311.000000	65.340852 
2310.000000	65.335297 
2309.000000	65.330147 
2308.000000	65.326976 
2307.000000	65.326547 
2306.000000	65.328621 
2305.000000	65.331745 
2304.000000	65.333890 
2303.000000	65.332937 
2302.000000	65.327501 
2301.000000	65.317463 
2300.000000	65.304255 
2299.000000	65.290307 
2298.000000	65.278768 
2297.000000	65.272545 
2296.000000	65.273714 
2295.000000	65.283012 
2294.000000	65.299677 
2293.000000	65.321731 
2292.000000	65.346527 
2291.000000	65.371346 
2290.000000	65.393900 
2289.000000	65.412735 
2288.000000	65.427398 
2287.000000	65.437936 
2286.000000	65.444970 
2285.000000	65.449166 
2284.000000	65.451049 
2283.000000	65.450906 
2282.000000	65.448999 
2281.000000	65.445494 
2280.000000	65.440511 
2279.000000	65.434384 
2278.000000	65.427494 
2277.000000	65.420317 
2276.000000	65.413284 
2275.000000	65.406656 
2274.000000	65.400576 
2273.000000	65.394854 
2272.000000	65.389347 
2271.000000	65.384125 
2270.000000	65.379285 
2269.000000	65.375089 
2268.000000	65.372276 
2267.000000	65.371775 
2266.000000	65.374326 
2265.000000	65.380430 
2264.000000	65.390062 
2263.000000	65.402531 
2262.000000	65.416455 
2261.000000	65.430235 
2260.000000	65.442347 
2259.000000	65.451860 
2258.000000	65.458393 
2257.000000	65.462565 
2256.000000	65.465807 
2255.000000	65.470004 
2254.000000	65.476870 
2253.000000	65.487575 
2252.000000	65.502214 
2251.000000	65.519571 
2250.000000	65.537428 
2249.000000	65.552973 
2248.000000	65.563082 
2247.000000	65.565443 
2246.000000	65.558528 
2245.000000	65.542364 
2244.000000	65.518164 
2243.000000	65.488290 
2242.000000	65.455722 
2241.000000	65.423607 
2240.000000	65.394663 
2239.000000	65.370988 
2238.000000	65.353679 
2237.000000	65.342831 
2236.000000	65.337657 
2235.000000	65.336823 
2234.000000	65.338730 
2233.000000	65.342044 
2232.000000	65.345692 
2231.000000	65.348982 
2230.000000	65.351629 
2229.000000	65.353655 
2228.000000	65.355229 
2227.000000	65.356373 
2226.000000	65.356874 
2225.000000	65.356159 
2224.000000	65.353631 
2223.000000	65.348601 
2222.000000	65.340447 
2221.000000	65.328836 
2220.000000	65.313839 
2219.000000	65.296030 
2218.000000	65.276551 
2217.000000	65.257191 
2216.000000	65.239906 
2215.000000	65.226721 
2214.000000	65.219426 
2213.000000	65.219187 
2212.000000	65.226364 
2211.000000	65.240097 
2210.000000	65.258121 
2209.000000	65.276956 
2208.000000	65.292716 
2207.000000	65.301632 
2206.000000	65.300774 
2205.000000	65.288949 
2204.000000	65.266942 
2203.000000	65.237760 
2202.000000	65.205883 
2201.000000	65.176630 
2200.000000	65.155220 
2199.000000	65.145611 
2198.000000	65.149784 
2197.000000	65.167617 
2196.000000	65.196561 
2195.000000	65.232348 
2194.000000	65.269732 
2193.000000	65.303492 
2192.000000	65.329504 
2191.000000	65.345358 
2190.000000	65.351033 
2189.000000	65.348386 
2188.000000	65.340805 
2187.000000	65.332221 
2186.000000	65.325951 
2185.000000	65.324783 
2184.000000	65.329384 
2183.000000	65.338683 
2182.000000	65.349912 
2181.000000	65.359735 
2180.000000	65.364670 
2179.000000	65.362358 
2178.000000	65.351915 
2177.000000	65.334129 
2176.000000	65.311431 
2175.000000	65.287470 
2174.000000	65.266466 
2173.000000	65.252161 
2172.000000	65.247797 
2171.000000	65.255260 
2170.000000	65.274834 
2169.000000	65.304946 
2168.000000	65.342211 
2167.000000	65.381979 
2166.000000	65.418696 
2165.000000	65.447425 
2164.000000	65.464425 
2163.000000	65.468788 
2162.000000	65.462207 
2161.000000	65.449070 
2160.000000	65.435838 
2159.000000	65.428709 
2158.000000	65.432786 
2157.000000	65.449738 
2156.000000	65.477824 
2155.000000	65.511417 
2154.000000	65.542817 
2153.000000	65.563845 
2152.000000	65.568256 
2151.000000	65.553355 
2150.000000	65.520906 
2149.000000	65.476393 
2148.000000	65.427660 
2147.000000	65.382766 
2146.000000	65.347838 
2145.000000	65.325546 
2144.000000	65.314698 
2143.000000	65.311098 
2142.000000	65.309214 
2141.000000	65.304064 
2140.000000	65.293097 
2139.000000	65.276527 
2138.000000	65.257596 
2137.000000	65.241289 
2136.000000	65.232944 
2135.000000	65.235877 
2134.000000	65.250825 
2133.000000	65.275478 
2132.000000	65.305352 
2131.000000	65.334796 
2130.000000	65.358448 
2129.000000	65.372776 
2128.000000	65.376853 
2127.000000	65.371966 
2126.000000	65.361547 
2125.000000	65.349602 
2124.000000	65.340113 
2123.000000	65.335965 
2122.000000	65.338826 
2121.000000	65.348982 
2120.000000	65.365743 
2119.000000	65.387749 
2118.000000	65.413475 
2117.000000	65.441107 
2116.000000	65.468692 
2115.000000	65.494132 
2114.000000	65.514755 
2113.000000	65.527820 
2112.000000	65.531063 
2111.000000	65.522956 
2110.000000	65.503478 
2109.000000	65.473937 
2108.000000	65.437364 
2107.000000	65.397620 
2106.000000	65.358519 
2105.000000	65.323376 
2104.000000	65.294671 
2103.000000	65.273714 
2102.000000	65.260553 
2101.000000	65.254664 
2100.000000	65.255355 
2099.000000	65.261912 
2098.000000	65.273785 
2097.000000	65.290069 
2096.000000	65.309190 
2095.000000	65.328812 
2094.000000	65.345788 
2093.000000	65.356612 
2092.000000	65.358114 
2091.000000	65.348553 
2090.000000	65.328097 
2089.000000	65.298867 
2088.000000	65.264701 
2087.000000	65.230655 
2086.000000	65.201997 
2085.000000	65.182590 
2084.000000	65.175008 
2083.000000	65.180230 
2082.000000	65.198278 
2081.000000	65.228509 
2080.000000	65.270161 
2079.000000	65.322613 
2078.000000	65.385127 
2077.000000	65.456604 
2076.000000	65.534543 
2075.000000	65.614390 
2074.000000	65.690112 
2073.000000	65.755081 
2072.000000	65.802955 
2071.000000	65.829372 
2070.000000	65.832710 
2069.000000	65.815043 
2068.000000	65.781021 
2067.000000	65.736722 
2066.000000	65.687894 
2065.000000	65.638566 
2064.000000	65.589976 
2063.000000	65.540742 
2062.000000	65.487766 
2061.000000	65.427803 
2060.000000	65.359139 
2059.000000	65.282750 
2058.000000	65.202355 
2057.000000	65.124583 
2056.000000	65.056824 
2055.000000	65.006756 
2054.000000	64.979410 
2053.000000	64.977335 
2052.000000	64.999818 
2051.000000	65.043592 
2050.000000	65.103220 
2049.000000	65.172410 
2048.000000	65.244817 
2047.000000	65.314745 
2046.000000	65.376973 
2045.000000	65.427732 
2044.000000	65.464353 
2043.000000	65.485715 
2042.000000	65.491962 
2041.000000	65.484786 
2040.000000	65.467166 
2039.000000	65.443181 
2038.000000	65.417289 
2037.000000	65.393781 
2036.000000	65.375709 
2035.000000	65.364885 
2034.000000	65.361499 
2033.000000	65.363907 
2032.000000	65.369200 
2031.000000	65.374445 
2030.000000	65.377116 
2029.000000	65.375399 
2028.000000	65.368819 
2027.000000	65.358066 
2026.000000	65.344786 
2025.000000	65.330767 
2024.000000	65.317797 
2023.000000	65.307140 
2022.000000	65.299677 
2021.000000	65.295529 
2020.000000	65.294528 
2019.000000	65.296363 
2018.000000	65.300822 
2017.000000	65.307950 
2016.000000	65.317773 
2015.000000	65.329790 
2014.000000	65.343308 
2013.000000	65.357089 
2012.000000	65.369486 
2011.000000	65.378665 
2010.000000	65.383291 
2009.000000	65.382862 
2008.000000	65.378093 
2007.000000	65.370631 
2006.000000	65.362930 
2005.000000	65.357184 
2004.000000	65.355324 
2003.000000	65.357828 
2002.000000	65.363836 
2001.000000	65.371203 
2000.000000	65.376996 
1999.000000	65.378427 
1998.000000	65.373778 
1997.000000	65.362930 
1996.000000	65.347409 
1995.000000	65.330314 
1994.000000	65.315413 
1993.000000	65.306377 
1992.000000	65.305709 
1991.000000	65.314292 
1990.000000	65.331053 
1989.000000	65.353083 
1988.000000	65.376710 
1987.000000	65.398001 
1986.000000	65.413689 
1985.000000	65.421915 
1984.000000	65.422368 
1983.000000	65.416216 
1982.000000	65.405774 
1981.000000	65.393710 
1980.000000	65.382575 
1979.000000	65.374231 
1978.000000	65.369653 
1977.000000	65.368962 
1976.000000	65.371322 
1975.000000	65.375423 
1974.000000	65.379714 
1973.000000	65.382719 
1972.000000	65.383672 
1971.000000	65.382289 
1970.000000	65.379166 
1969.000000	65.375304 
1968.000000	65.372109 
1967.000000	65.370678 
1966.000000	65.371751 
1965.000000	65.375423 
1964.000000	65.381169 
1963.000000	65.388154 
1962.000000	65.395426 
1961.000000	65.402269 
1960.000000	65.408039 
1959.000000	65.412378 
1958.000000	65.415096 
1957.000000	65.415906 
1956.000000	65.414524 
1955.000000	65.410709 
1954.000000	65.404272 
1953.000000	65.395212 
1952.000000	65.384268 
1951.000000	65.372562 
1950.000000	65.361762 
1949.000000	65.353655 
1948.000000	65.349626 
1947.000000	65.350484 
1946.000000	65.355896 
1945.000000	65.364742 
1944.000000	65.375208 
1943.000000	65.385389 
1942.000000	65.393638 
1941.000000	65.398764 
1940.000000	65.400552 
1939.000000	65.399360 
1938.000000	65.395879 
1937.000000	65.391111 
1936.000000	65.385675 
1935.000000	65.380024 
1934.000000	65.374302 
1933.000000	65.368437 
1932.000000	65.362238 
1931.000000	65.355730 
1930.000000	65.349102 
1929.000000	65.342855 
1928.000000	65.337610 
1927.000000	65.333747 
1926.000000	65.331315 
1925.000000	65.329813 
1924.000000	65.328288 
1923.000000	65.325403 
1922.000000	65.319943 
1921.000000	65.311050 
1920.000000	65.298533 
1919.000000	65.283155 
1918.000000	65.266442 
1917.000000	65.250539 
1916.000000	65.237665 
1915.000000	65.229678 
1914.000000	65.227484 
1913.000000	65.230894 
1912.000000	65.238642 
1911.000000	65.248608 
1910.000000	65.258574 
1909.000000	65.266799 
1908.000000	65.272355 
1907.000000	65.275359 
1906.000000	65.276765 
1905.000000	65.277934 
1904.000000	65.280151 
1903.000000	65.284228 
1902.000000	65.290379 
1901.000000	65.298080 
1900.000000	65.306544 
1899.000000	65.315103 
1898.000000	65.323448 
1897.000000	65.331578 
1896.000000	65.340042 
1895.000000	65.349459 
1894.000000	65.360021 
1893.000000	65.371370 
1892.000000	65.382456 
1891.000000	65.391755 
1890.000000	65.397572 
1889.000000	65.398526 
1888.000000	65.394139 
1887.000000	65.384745 
1886.000000	65.371417 
1885.000000	65.355753 
1884.000000	65.339612 
1883.000000	65.324568 
1882.000000	65.311717 
1881.000000	65.301561 
1880.000000	65.294075 
1879.000000	65.289068 
1878.000000	65.286159 
1877.000000	65.284943 
1876.000000	65.284943 
1875.000000	65.285611 
1874.000000	65.286588 
1873.000000	65.287375 
1872.000000	65.287685 
1871.000000	65.287446 
1870.000000	65.286946 
1869.000000	65.286874 
1868.000000	65.288186 
1867.000000	65.291571 
1866.000000	65.297603 
1865.000000	65.305972 
1864.000000	65.316224 
1863.000000	65.327167 
1862.000000	65.337991 
1861.000000	65.348076 
1860.000000	65.357398 
1859.000000	65.366554 
1858.000000	65.376496 
1857.000000	65.388083 
1856.000000	65.401601 
1855.000000	65.416479 
1854.000000	65.431141 
1853.000000	65.443372 
1852.000000	65.450787 
1851.000000	65.451622 
1850.000000	65.445208 
1849.000000	65.432500 
1848.000000	65.415644 
1847.000000	65.397787 
1846.000000	65.382313 
1845.000000	65.371942 
1844.000000	65.368485 
1843.000000	65.372347 
1842.000000	65.382552 
1841.000000	65.397024 
1840.000000	65.413331 
1839.000000	65.428948 
1838.000000	65.441584 
1837.000000	65.449953 
1836.000000	65.453338 
1835.000000	65.452075 
1834.000000	65.446877 
1833.000000	65.439009 
1832.000000	65.429925 
1831.000000	65.420985 
1830.000000	65.413403 
1829.000000	65.407752 
1828.000000	65.404105 
1827.000000	65.401959 
1826.000000	65.400433 
1825.000000	65.398526 
1824.000000	65.395689 
1823.000000	65.391826 
1822.000000	65.387415 
1821.000000	65.383315 
1820.000000	65.380454 
1819.000000	65.379357 
1818.000000	65.379858 
1817.000000	65.381073 
1816.000000	65.381550 
1815.000000	65.379524 
1814.000000	65.373611 
1813.000000	65.363121 
1812.000000	65.348362 
1811.000000	65.330791 
1810.000000	65.312790 
1809.000000	65.296912 
1808.000000	65.285706 
1807.000000	65.280795 
1806.000000	65.282630 
1805.000000	65.290355 
1804.000000	65.302014 
1803.000000	65.314960 
1802.000000	65.326476 
1801.000000	65.334129 
1800.000000	65.336489 
1799.000000	65.333223 
1798.000000	65.325212 
1797.000000	65.314173 
1796.000000	65.302443 
1795.000000	65.292358 
1794.000000	65.285754 
1793.000000	65.283489 
1792.000000	65.285372 
1791.000000	65.290355 
1790.000000	65.296840 
1789.000000	65.302968 
1788.000000	65.307116 
1787.000000	65.308284 
1786.000000	65.306401 
1785.000000	65.302300 
1784.000000	65.297150 
1783.000000	65.292716 
1782.000000	65.290474 
1781.000000	65.291571 
1780.000000	65.296363 
1779.000000	65.304636 
1778.000000	65.315580 
1777.000000	65.328049 
1776.000000	65.340924 
1775.000000	65.353417 
1774.000000	65.365004 
1773.000000	65.375876 
1772.000000	65.386581 
1771.000000	65.398025 
1770.000000	65.411114 
1769.000000	65.426468 
1768.000000	65.443992 
1767.000000	65.462660 
1766.000000	65.480589 
1765.000000	65.495276 
1764.000000	65.503931 
1763.000000	65.503787 
1762.000000	65.492844 
1761.000000	65.470504 
1760.000000	65.437674 
1759.000000	65.397143 
1758.000000	65.352892 
1757.000000	65.309500 
1756.000000	65.271043 
1755.000000	65.240526 
1754.000000	65.219044 
1753.000000	65.205788 
1752.000000	65.198564 
1751.000000	65.194296 
1750.000000	65.190267 
1749.000000	65.184617 
1748.000000	65.176987 
1747.000000	65.168190 
1746.000000	65.159916 
1745.000000	65.153789 
1744.000000	65.150809 
1743.000000	65.150976 
1742.000000	65.153336 
1741.000000	65.156269 
1740.000000	65.158581 
1739.000000	65.159726 
1738.000000	65.160250 
1737.000000	65.161442 
1736.000000	65.164732 
1735.000000	65.170931 
1734.000000	65.179467 
1733.000000	65.188407 
1732.000000	65.195035 
1731.000000	65.196800 
1730.000000	65.192103 
1729.000000	65.181183 
1728.000000	65.165948 
1727.000000	65.149927 
1726.000000	65.137267 
1725.000000	65.131878 
1724.000000	65.136051 
1723.000000	65.150356 
1722.000000	65.173101 
1721.000000	65.201258 
1720.000000	65.230894 
1719.000000	65.258431 
1718.000000	65.281367 
1717.000000	65.298581 
1716.000000	65.310502 
1715.000000	65.318346 
1714.000000	65.323591 
1713.000000	65.327286 
1712.000000	65.329551 
1711.000000	65.329599 
1710.000000	65.325903 
1709.000000	65.316891 
1708.000000	65.301489 
1707.000000	65.279722 
1706.000000	65.252995 
1705.000000	65.224289 
1704.000000	65.197634 
1703.000000	65.177178 
1702.000000	65.166163 
1701.000000	65.166163 
1700.000000	65.176415 
1699.000000	65.194010 
1698.000000	65.214490 
1697.000000	65.232872 
1696.000000	65.244960 
1695.000000	65.248084 
1694.000000	65.241694 
1693.000000	65.227222 
1692.000000	65.207719 
1691.000000	65.186762 
1690.000000	65.167951 
1689.000000	65.153932 
1688.000000	65.146064 
1687.000000	65.144348 
1686.000000	65.147805 
1685.000000	65.155029 
1684.000000	65.164399 
1683.000000	65.174460 
1682.000000	65.183687 
1681.000000	65.191006 
1680.000000	65.195274 
1679.000000	65.195870 
1678.000000	65.192818 
1677.000000	65.186882 
1676.000000	65.179800 
1675.000000	65.173792 
1674.000000	65.171217 
1673.000000	65.173673 
1672.000000	65.181875 
1671.000000	65.195155 
1670.000000	65.211272 
1669.000000	65.227222 
1668.000000	65.239739 
1667.000000	65.246367 
1666.000000	65.245890 
1665.000000	65.238809 
1664.000000	65.227031 
1663.000000	65.213370 
1662.000000	65.200805 
1661.000000	65.191602 
1660.000000	65.186858 
1659.000000	65.186500 
1658.000000	65.189385 
1657.000000	65.193986 
1656.000000	65.198850 
1655.000000	65.202808 
1654.000000	65.205407 
1653.000000	65.206599 
1652.000000	65.206789 
1651.000000	65.206575 
1650.000000	65.206527 
1649.000000	65.207099 
1648.000000	65.208697 
1647.000000	65.211677 
1646.000000	65.216279 
1645.000000	65.222692 
1644.000000	65.230941 
1643.000000	65.240693 
1642.000000	65.251231 
1641.000000	65.261363 
1640.000000	65.269804 
1639.000000	65.275287 
1638.000000	65.276837 
1637.000000	65.273952 
1636.000000	65.266466 
1635.000000	65.254783 
1634.000000	65.239548 
1633.000000	65.221428 
1632.000000	65.201330 
1631.000000	65.180349 
1630.000000	65.159773 
1629.000000	65.141153 
1628.000000	65.125989 
1627.000000	65.115666 
1626.000000	65.111207 
1625.000000	65.113091 
1624.000000	65.121340 
1623.000000	65.135431 
1622.000000	65.154361 
1621.000000	65.176606 
1620.000000	65.200519 
1619.000000	65.224146 
1618.000000	65.245676 
1617.000000	65.263223 
1616.000000	65.275359 
1615.000000	65.280890 
1614.000000	65.279364 
1613.000000	65.270733 
1612.000000	65.255761 
1611.000000	65.235638 
1610.000000	65.212082 
1609.000000	65.186882 
1608.000000	65.161848 
1607.000000	65.138483 
1606.000000	65.117859 
1605.000000	65.100622 
1604.000000	65.087032 
1603.000000	65.076851 
1602.000000	65.069866 
1601.000000	65.065598 
1600.000000	65.063643 
1599.000000	65.063643 
1598.000000	65.065240 
1597.000000	65.068101 
1596.000000	65.072059 
1595.000000	65.076780 
1594.000000	65.081858 
1593.000000	65.087008 
1592.000000	65.091848 
1591.000000	65.095996 
1590.000000	65.099120 
1589.000000	65.100932 
1588.000000	65.101289 
1587.000000	65.100216 
1586.000000	65.098071 
1585.000000	65.095591 
1584.000000	65.093946 
1583.000000	65.094423 
1582.000000	65.098047 
1581.000000	65.105104 
1580.000000	65.115189 
1579.000000	65.126991 
1578.000000	65.138435 
1577.000000	65.146875 
1576.000000	65.149855 
1575.000000	65.145611 
1574.000000	65.133261 
1573.000000	65.112996 
1572.000000	65.086221 
1571.000000	65.055227 
1570.000000	65.022850 
1569.000000	64.992117 
1568.000000	64.965629 
1567.000000	64.945411 
1566.000000	64.932799 
1565.000000	64.928102 
1564.000000	64.930796 
1563.000000	64.939832 
1562.000000	64.953351 
1561.000000	64.969825 
1560.000000	64.987373 
1559.000000	65.005064 
1558.000000	65.022516 
1557.000000	65.040302 
1556.000000	65.059518 
1555.000000	65.081214 
1554.000000	65.105962 
1553.000000	65.133500 
1552.000000	65.162515 
1551.000000	65.190839 
1550.000000	65.215897 
1549.000000	65.235352 
1548.000000	65.247368 
1547.000000	65.251350 
1546.000000	65.247678 
1545.000000	65.237784 
1544.000000	65.223622 
1543.000000	65.207314 
1542.000000	65.190601 
1541.000000	65.174698 
1540.000000	65.160012 
1539.000000	65.146470 
1538.000000	65.133500 
1537.000000	65.120553 
1536.000000	65.107488 
1535.000000	65.094399 
1534.000000	65.082144 
1533.000000	65.071868 
1532.000000	65.065193 
1531.000000	65.063405 
1530.000000	65.067481 
1529.000000	65.077590 
1528.000000	65.092778 
1527.000000	65.111184 
1526.000000	65.130090 
1525.000000	65.146422 
1524.000000	65.157389 
1523.000000	65.161228 
1522.000000	65.157222 
1521.000000	65.146327 
1520.000000	65.130686 
1519.000000	65.113162 
1518.000000	65.096902 
1517.000000	65.084266 
1516.000000	65.076398 
1515.000000	65.073037 
1514.000000	65.072607 
1513.000000	65.072989 
1512.000000	65.072154 
1511.000000	65.068745 
1510.000000	65.062665 
1509.000000	65.055060 
1508.000000	65.047812 
1507.000000	65.043282 
1506.000000	65.043187 
1505.000000	65.048480 
1504.000000	65.058922 
1503.000000	65.073394 
1502.000000	65.089941 
1501.000000	65.106368 
1500.000000	65.120768 
1499.000000	65.131759 
1498.000000	65.138745 
1497.000000	65.141916 
1496.000000	65.142202 
1495.000000	65.140962 
1494.000000	65.139722 
1493.000000	65.140008 
1492.000000	65.142989 
1491.000000	65.149569 
1490.000000	65.159869 
1489.000000	65.173435 
1488.000000	65.189003 
1487.000000	65.204715 
1486.000000	65.218305 
1485.000000	65.227389 
1484.000000	65.230059 
1483.000000	65.225338 
1482.000000	65.213465 
1481.000000	65.195751 
1480.000000	65.174603 
1479.000000	65.153074 
1478.000000	65.134143 
1477.000000	65.119910 
1476.000000	65.111374 
1475.000000	65.108180 
1474.000000	65.108871 
1473.000000	65.111422 
1472.000000	65.113830 
1471.000000	65.114736 
1470.000000	65.114116 
1469.000000	65.113043 
1468.000000	65.113282 
1467.000000	65.116524 
1466.000000	65.124058 
1465.000000	65.136075 
1464.000000	65.151166 
1463.000000	65.166854 
1462.000000	65.180039 
1461.000000	65.188241 
1460.000000	65.190029 
1459.000000	65.185880 
1458.000000	65.178203 
1457.000000	65.171074 
1456.000000	65.169119 
1455.000000	65.176486 
1454.000000	65.195488 
1453.000000	65.225982 
1452.000000	65.265417 
1451.000000	65.309071 
1450.000000	65.351319 
1449.000000	65.386748 
1448.000000	65.411424 
1447.000000	65.423178 
1446.000000	65.421819 
1445.000000	65.408802 
1444.000000	65.386629 
1443.000000	65.358161 
1442.000000	65.325784 
1441.000000	65.291309 
1440.000000	65.255808 
1439.000000	65.219807 
1438.000000	65.183377 
1437.000000	65.146851 
1436.000000	65.111017 
1435.000000	65.077567 
1434.000000	65.049123 
1433.000000	65.028333 
1432.000000	65.017867 
1431.000000	65.019392 
1430.000000	65.033245 
1429.000000	65.057826 
1428.000000	65.089988 
1427.000000	65.125346 
1426.000000	65.159392 
1425.000000	65.188026 
1424.000000	65.208649 
1423.000000	65.220713 
1422.000000	65.225577 
1421.000000	65.225887 
1420.000000	65.224933 
1419.000000	65.225577 
1418.000000	65.229392 
1417.000000	65.236377 
1416.000000	65.245199 
1415.000000	65.253663 
1414.000000	65.259504 
1413.000000	65.260910 
1412.000000	65.256905 
1411.000000	65.247297 
1410.000000	65.232563 
1409.000000	65.213656 
1408.000000	65.191531 
1407.000000	65.167284 
1406.000000	65.142059 
1405.000000	65.117216 
1404.000000	65.094447 
1403.000000	65.075373 
1402.000000	65.062022 
1401.000000	65.055632 
1400.000000	65.056467 
1399.000000	65.063476 
1398.000000	65.074086 
1397.000000	65.085196 
1396.000000	65.093612 
1395.000000	65.097022 
1394.000000	65.094327 
1393.000000	65.086293 
1392.000000	65.075206 
1391.000000	65.064334 
1390.000000	65.056657 
1389.000000	65.054154 
1388.000000	65.057158 
1387.000000	65.064191 
1386.000000	65.072464 
1385.000000	65.078544 
1384.000000	65.079283 
1383.000000	65.072751 
1382.000000	65.058851 
1381.000000	65.039205 
1380.000000	65.017056 
1379.000000	64.996242 
1378.000000	64.980649 
1377.000000	64.973163 
1376.000000	64.975333 
1375.000000	64.987063 
1374.000000	65.006518 
1373.000000	65.030765 
1372.000000	65.055966 
1371.000000	65.078282 
1370.000000	65.094256 
1369.000000	65.101480 
1368.000000	65.098881 
1367.000000	65.086770 
1366.000000	65.067219 
1365.000000	65.043592 
1364.000000	65.020012 
1363.000000	65.000581 
1362.000000	64.988636 
1361.000000	64.986062 
1360.000000	64.993119 
1359.000000	65.008401 
1358.000000	65.029478 
1357.000000	65.053486 
1356.000000	65.077900 
1355.000000	65.100741 
1354.000000	65.120983 
1353.000000	65.138030 
1352.000000	65.151691 
1351.000000	65.161681 
1350.000000	65.167641 
1349.000000	65.169072 
1348.000000	65.165686 
1347.000000	65.157508 
1346.000000	65.145325 
1345.000000	65.130329 
1344.000000	65.114212 
1343.000000	65.098285 
1342.000000	65.083527 
1341.000000	65.070009 
1340.000000	65.057015 
1339.000000	65.043544 
1338.000000	65.029096 
1337.000000	65.013909 
1336.000000	64.999318 
1335.000000	64.987182 
1334.000000	64.979624 
1333.000000	64.978122 
1332.000000	64.983248 
1331.000000	64.994263 
1330.000000	65.009474 
1329.000000	65.026617 
1328.000000	65.043663 
1327.000000	65.059280 
1326.000000	65.072822 
1325.000000	65.084505 
1324.000000	65.094542 
1323.000000	65.103220 
1322.000000	65.109825 
1321.000000	65.112853 
1320.000000	65.110039 
1319.000000	65.099406 
1318.000000	65.079426 
1317.000000	65.050148 
1316.000000	65.012907 
1315.000000	64.970588 
1314.000000	64.927101 
1313.000000	64.886569 
1312.000000	64.852786 
1311.000000	64.828610 
1310.000000	64.815878 
1309.000000	64.815187 
1308.000000	64.825892 
1307.000000	64.846658 
1306.000000	64.875459 
1305.000000	64.910078 
1304.000000	64.948153 
1303.000000	64.987421 
1302.000000	65.025663 
1301.000000	65.060806 
1300.000000	65.091133 
1299.000000	65.114903 
1298.000000	65.130734 
1297.000000	65.137386 
1296.000000	65.134096 
1295.000000	65.120363 
1294.000000	65.096688 
1293.000000	65.064334 
1292.000000	65.025615 
1291.000000	64.983892 
1290.000000	64.943218 
1289.000000	64.907789 
1288.000000	64.881324 
1287.000000	64.866304 
1286.000000	64.863753 
1285.000000	64.872980 
1284.000000	64.891862 
1283.000000	64.917612 
1282.000000	64.947175 
1281.000000	64.977931 
1280.000000	65.007853 
1279.000000	65.035581 
1278.000000	65.060281 
1277.000000	65.080809 
1276.000000	65.095758 
1275.000000	65.103101 
1274.000000	65.100932 
1273.000000	65.088129 
1272.000000	65.064954 
1271.000000	65.033507 
1270.000000	64.997386 
1269.000000	64.961719 
1268.000000	64.931774 
1267.000000	64.911699 
1266.000000	64.903688 
1265.000000	64.907693 
1264.000000	64.921331 
1263.000000	64.940738 
1262.000000	64.961838 
1261.000000	64.981389 
1260.000000	64.997911 
1259.000000	65.011715 
1258.000000	65.024471 
1257.000000	65.038299 
1256.000000	65.054845 
1255.000000	65.074491 
1254.000000	65.096545 
1253.000000	65.119290 
1252.000000	65.140795 
1251.000000	65.159463 
1250.000000	65.174484 
1249.000000	65.185570 
1248.000000	65.193033 
1247.000000	65.197181 
1246.000000	65.198135 
1245.000000	65.195488 
1244.000000	65.188646 
1243.000000	65.176749 
1242.000000	65.159559 
1241.000000	65.137386 
1240.000000	65.111541 
1239.000000	65.084123 
1238.000000	65.057682 
1237.000000	65.034723 
1236.000000	65.017080 
1235.000000	65.005612 
1234.000000	65.000057 
1233.000000	64.999008 
1232.000000	65.000486 
1231.000000	65.002250 
1230.000000	65.002655 
1229.000000	65.000700 
1228.000000	64.996242 
1227.000000	64.990162 
1226.000000	64.984154 
1225.000000	64.980292 
1224.000000	64.980673 
1223.000000	64.987134 
1222.000000	65.000748 
1221.000000	65.021586 
1220.000000	65.048432 
1219.000000	65.079283 
1218.000000	65.111160 
1217.000000	65.140819 
1216.000000	65.164875 
1215.000000	65.180659 
1214.000000	65.186452 
1213.000000	65.182018 
1212.000000	65.168166 
1211.000000	65.147042 
1210.000000	65.121340 
1209.000000	65.093994 
1208.000000	65.067434 
1207.000000	65.043163 
1206.000000	65.021848 
1205.000000	65.003490 
1204.000000	64.988088 
1203.000000	64.976048 
1202.000000	64.968371 
1201.000000	64.966559 
1200.000000	64.971947 
1199.000000	64.984893 
1198.000000	65.004158 
1197.000000	65.026926 
1196.000000	65.049362 
1195.000000	65.067172 
1194.000000	65.077066 
1193.000000	65.077137 
1192.000000	65.067267 
1191.000000	65.049362 
1190.000000	65.026473 
1189.000000	65.002632 
1188.000000	64.981484 
1187.000000	64.965724 
1186.000000	64.956688 
1185.000000	64.954233 
1184.000000	64.957141 
1183.000000	64.963245 
1182.000000	64.970278 
1181.000000	64.976286 
1180.000000	64.980149 
1179.000000	64.981794 
1178.000000	64.982008 
1177.000000	64.982295 
1176.000000	64.984226 
1175.000000	64.989089 
1174.000000	64.997482 
1173.000000	65.008616 
1172.000000	65.020346 
1171.000000	65.029621 
1170.000000	65.033555 
1169.000000	65.030026 
1168.000000	65.018773 
1167.000000	65.001559 
1166.000000	64.981961 
1165.000000	64.964795 
1164.000000	64.954423 
1163.000000	64.953780 
1162.000000	64.963150 
1161.000000	64.980149 
1160.000000	64.999842 
1159.000000	65.016484 
1158.000000	65.024137 
1157.000000	65.018463 
1156.000000	64.997649 
1155.000000	64.963006 
1154.000000	64.918518 
1153.000000	64.869832 
1152.000000	64.823341 
1151.000000	64.784550 
1150.000000	64.757823 
1149.000000	64.745521 
1148.000000	64.748215 
1147.000000	64.764857 
1146.000000	64.793157 
1145.000000	64.829921 
1144.000000	64.871454 
1143.000000	64.913678 
1142.000000	64.952540 
1141.000000	64.984297 
1140.000000	65.005755 
1139.000000	65.014886 
1138.000000	65.011358 
1137.000000	64.996743 
1136.000000	64.974117 
1135.000000	64.947748 
1134.000000	64.922881 
1133.000000	64.904236 
1132.000000	64.895415 
1131.000000	64.897871 
1130.000000	64.910769 
1129.000000	64.931130 
1128.000000	64.954519 
1127.000000	64.976406 
1126.000000	64.993238 
1125.000000	65.003299 
1124.000000	65.006756 
1123.000000	65.005731 
1122.000000	65.003275 
1121.000000	65.002727 
1120.000000	65.006446 
1119.000000	65.015554 
1118.000000	65.029239 
1117.000000	65.045762 
1116.000000	65.062189 
1115.000000	65.075230 
1114.000000	65.081048 
1113.000000	65.076494 
1112.000000	65.058803 
1111.000000	65.026116 
1110.000000	64.977669 
1109.000000	64.914083 
1108.000000	64.837694 
1107.000000	64.753103 
1106.000000	64.666342 
1105.000000	64.584445 
1104.000000	64.513921 
1103.000000	64.459633 
1102.000000	64.423608 
1101.000000	64.404678 
1100.000000	64.398884 
1099.000000	64.400434 
1098.000000	64.403438 
1097.000000	64.403033 
1096.000000	64.397120 
1095.000000	64.386701 
1094.000000	64.375495 
1093.000000	64.368748 
1092.000000	64.372396 
1091.000000	64.391446 
1090.000000	64.429044 
1089.000000	64.485311 
1088.000000	64.557838 
1087.000000	64.641427 
1086.000000	64.729642 
1085.000000	64.814877 
1084.000000	64.889574 
1083.000000	64.946913 
1082.000000	64.982128 
1081.000000	64.993023 
1080.000000	64.980149 
1079.000000	64.947247 
1078.000000	64.901280 
1077.000000	64.850616 
1076.000000	64.803957 
1075.000000	64.768385 
1074.000000	64.748835 
1073.000000	64.746427 
1072.000000	64.758610 
1071.000000	64.779901 
1070.000000	64.803528 
1069.000000	64.822936 
1068.000000	64.833259 
1067.000000	64.832162 
1066.000000	64.820241 
1065.000000	64.800405 
1064.000000	64.776897 
1063.000000	64.754104 
1062.000000	64.735412 
1061.000000	64.722800 
1060.000000	64.716911 
1059.000000	64.717793 
1058.000000	64.725208 
1057.000000	64.739561 
1056.000000	64.761495 
1055.000000	64.791750 
1054.000000	64.830350 
1053.000000	64.876198 
1052.000000	64.926576 
1051.000000	64.976906 
1050.000000	65.021586 
1049.000000	65.055561 
1048.000000	65.075087 
1047.000000	65.078759 
1046.000000	65.067529 
1045.000000	65.044760 
1044.000000	65.014815 
1043.000000	64.982128 
1042.000000	64.949846 
1041.000000	64.919662 
1040.000000	64.891624 
1039.000000	64.865112 
1038.000000	64.839339 
1037.000000	64.814639 
1036.000000	64.792490 
1035.000000	64.775872 
1034.000000	64.768576 
1033.000000	64.774298 
1032.000000	64.795207 
1031.000000	64.831089 
1030.000000	64.878773 
1029.000000	64.932727 
1028.000000	64.985823 
1027.000000	65.030837 
1026.000000	65.062522 
1025.000000	65.077352 
1024.000000	65.075039 
1023.000000	65.056610 
1022.000000	65.024018 
1021.000000	64.978694 
1020.000000	64.921545 
1019.000000	64.852976 
1018.000000	64.773750 
1017.000000	64.686226 
1016.000000	64.594864 
1015.000000	64.506173 
1014.000000	64.428377 
1013.000000	64.369297 
1012.000000	64.334583 
1011.000000	64.326405 
1010.000000	64.342641 
1009.000000	64.377164 
1008.000000	64.421272 
1007.000000	64.465975 
1006.000000	64.504027 
1005.000000	64.530968 
1004.000000	64.546132 
1003.000000	64.551353 
1002.000000	64.550733 
1001.000000	64.548373 
1000.000000	64.548087 
999.000000	 64.552879 
998.000000	 64.564490 
997.000000	 64.584589 
996.000000	 64.613676 
995.000000	 64.651942 
994.000000	 64.698004 
993.000000	 64.749431 
992.000000	 64.801716 
991.000000	 64.849066 
990.000000	 64.884901 
989.000000	 64.903473 
988.000000	 64.900636 
987.000000	 64.875245 
986.000000	 64.829611 
985.000000	 64.769315 
984.000000	 64.701509 
983.000000	 64.633488 
982.000000	 64.571428 
981.000000	 64.519357 
980.000000	 64.478802 
979.000000	 64.449071 
978.000000	 64.428377 
977.000000	 64.414811 
976.000000	 64.407134 
975.000000	 64.405465 
974.000000	 64.409899 
973.000000	 64.421653 
972.000000	 64.441418 
971.000000	 64.469933 
970.000000	 64.506411 
969.000000	 64.549279 
968.000000	 64.596223 
967.000000	 64.644074 
966.000000	 64.689445 
965.000000	 64.728832 
964.000000	 64.759159 
963.000000	 64.778137 
962.000000	 64.784288 
961.000000	 64.777803 
960.000000	 64.760470 
959.000000	 64.736104 
958.000000	 64.709687 
957.000000	 64.686536 
956.000000	 64.671111 
955.000000	 64.666366 
954.000000	 64.672970 
953.000000	 64.688682 
952.000000	 64.708971 
951.000000	 64.728569 
950.000000	 64.742445 
949.000000	 64.746379 
948.000000	 64.738130 
947.000000	 64.718151 
946.000000	 64.689230 
945.000000	 64.655423 
944.000000	 64.621090 
943.000000	 64.589929 
942.000000	 64.563775 
941.000000	 64.543151 
940.000000	 64.526581 
939.000000	 64.511346 
938.000000	 64.494681 
937.000000	 64.475059 
936.000000	 64.452600 
935.000000	 64.428687 
934.000000	 64.406991 
933.000000	 64.392352 
932.000000	 64.389538 
931.000000	 64.402031 
930.000000	 64.431476 
929.000000	 64.477539 
928.000000	 64.537858 
927.000000	 64.609074 
926.000000	 64.687657 
925.000000	 64.771080 
924.000000	 64.858293 
923.000000	 64.949035 
922.000000	 65.043568 
921.000000	 65.140652 
920.000000	 65.237641 
919.000000	 65.328311 
918.000000	 65.404319 
917.000000	 65.455174 
916.000000	 65.471816 
915.000000	 65.447330 
914.000000	 65.380167 
913.000000	 65.273690 
912.000000	 65.137505 
911.000000	 64.983940 
910.000000	 64.826536 
909.000000	 64.676928 
908.000000	 64.543509 
907.000000	 64.430642 
906.000000	 64.339160 
905.000000	 64.267635 
904.000000	 64.213871 
903.000000	 64.176273 
902.000000	 64.154696 
901.000000	 64.149093 
900.000000	 64.159512 
899.000000	 64.184260 
898.000000	 64.220380 
897.000000	 64.262247 
896.000000	 64.303851 
895.000000	 64.339971 
894.000000	 64.367604 
893.000000	 64.386534 
892.000000	 64.398670 
891.000000	 64.407587 
890.000000	 64.416360 
889.000000	 64.426255 
888.000000	 64.436364 
887.000000	 64.444041 
886.000000	 64.445757 
885.000000	 64.439058 
884.000000	 64.422821 
883.000000	 64.398169 
882.000000	 64.367938 
881.000000	 64.336514 
880.000000	 64.307594 
879.000000	 64.283299 
878.000000	 64.264273 
877.000000	 64.249753 
876.000000	 64.237952 
875.000000	 64.227056 
874.000000	 64.216446 
873.000000	 64.207172 
872.000000	 64.201092 
871.000000	 64.200353 
870.000000	 64.206075 
869.000000	 64.218115 
868.000000	 64.234709 
867.000000	 64.252972 
866.000000	 64.269661 
865.000000	 64.282011 
864.000000	 64.288330 
863.000000	 64.288854 
862.000000	 64.285206 
861.000000	 64.280605 
860.000000	 64.279007 
859.000000	 64.284157 
858.000000	 64.298820 
857.000000	 64.323639 
856.000000	 64.356780 
855.000000	 64.394187 
854.000000	 64.430284 
853.000000	 64.459419 
852.000000	 64.477300 
851.000000	 64.482164 
850.000000	 64.475178 
849.000000	 64.460182 
848.000000	 64.442586 
847.000000	 64.428210 
846.000000	 64.421463 
845.000000	 64.423775 
844.000000	 64.433193 
843.000000	 64.445018 
842.000000	 64.453458 
841.000000	 64.453649 
840.000000	 64.443349 
839.000000	 64.423680 
838.000000	 64.399003 
837.000000	 64.375758 
836.000000	 64.360523 
835.000000	 64.357829 
834.000000	 64.369320 
833.000000	 64.393734 
832.000000	 64.426684 
831.000000	 64.462113 
830.000000	 64.493131 
829.000000	 64.513731 
828.000000	 64.519476 
827.000000	 64.508152 
826.000000	 64.480471 
825.000000	 64.439845 
824.000000	 64.392280 
823.000000	 64.345264 
822.000000	 64.307498 
821.000000	 64.286923 
820.000000	 64.289522 
819.000000	 64.317512 
818.000000	 64.368605 
817.000000	 64.435768 
816.000000	 64.508199 
815.000000	 64.573431 
814.000000	 64.619612 
813.000000	 64.637994 
812.000000	 64.625120 
811.000000	 64.582610 
810.000000	 64.516997 
809.000000	 64.437222 
808.000000	 64.352989 
807.000000	 64.272189 
806.000000	 64.199924 
805.000000	 64.138007 
804.000000	 64.085960 
803.000000	 64.042115 
802.000000	 64.005374 
801.000000	 63.975667 
800.000000	 63.954424 
799.000000	 63.943409 
798.000000	 63.943576 
797.000000	 63.953924 
796.000000	 63.971018 
795.000000	 63.989758 
794.000000	 64.004540 
793.000000	 64.010810 
792.000000	 64.006185 
791.000000	 63.991045 
790.000000	 63.968348 
789.000000	 63.942432 
788.000000	 63.918447 
787.000000	 63.900876 
786.000000	 63.893008 
785.000000	 63.896274 
784.000000	 63.909935 
783.000000	 63.931536 
782.000000	 63.957142 
781.000000	 63.982319 
780.000000	 64.002799 
779.000000	 64.015150 
778.000000	 64.017748 
777.000000	 64.010763 
776.000000	 63.996672 
775.000000	 63.979363 
774.000000	 63.963961 
773.000000	 63.955712 
772.000000	 63.958930 
771.000000	 63.975882 
770.000000	 64.006042 
769.000000	 64.046239 
768.000000	 64.090633 
767.000000	 64.131712 
766.000000	 64.161729 
765.000000	 64.174342 
764.000000	 64.165329 
763.000000	 64.134097 
762.000000	 64.083242 
761.000000	 64.019107 
760.000000	 63.950514 
759.000000	 63.887500 
758.000000	 63.839673 
757.000000	 63.814187 
756.000000	 63.814687 
755.000000	 63.839936 
754.000000	 63.884639 
753.000000	 63.939571 
752.000000	 63.993787 
751.000000	 64.036297 
750.000000	 64.058065 
749.000000	 64.053916 
748.000000	 64.023160 
747.000000	 63.969826 
746.000000	 63.901233 
745.000000	 63.827228 
744.000000	 63.758158 
743.000000	 63.703155 
742.000000	 63.668608 
741.000000	 63.657426 
740.000000	 63.668918 
739.000000	 63.699269 
738.000000	 63.742542 
737.000000	 63.791847 
736.000000	 63.840746 
735.000000	 63.883614 
734.000000	 63.916635 
733.000000	 63.937664 
732.000000	 63.946485 
731.000000	 63.944125 
730.000000	 63.932561 
729.000000	 63.914394 
728.000000	 63.892221 
727.000000	 63.869190 
726.000000	 63.847732 
725.000000	 63.830089 
724.000000	 63.817119 
723.000000	 63.808965 
722.000000	 63.804173 
721.000000	 63.800501 
720.000000	 63.794732 
719.000000	 63.783597 
718.000000	 63.764977 
717.000000	 63.738584 
716.000000	 63.706326 
715.000000	 63.671875 
714.000000	 63.639736 
713.000000	 63.614273 
712.000000	 63.598632 
711.000000	 63.594150 
710.000000	 63.600087 
709.000000	 63.613915 
708.000000	 63.632392 
707.000000	 63.652133 
706.000000	 63.670563 
705.000000	 63.686013 
704.000000	 63.697838 
703.000000	 63.706111 
702.000000	 63.711380 
701.000000	 63.714051 
700.000000	 63.714551 
699.000000	 63.712596 
698.000000	 63.707542 
697.000000	 63.698124 
696.000000	 63.683509 
695.000000	 63.662552 
694.000000	 63.634371 
693.000000	 63.598299 
692.000000	 63.554215 
691.000000	 63.503193 
690.000000	 63.447618 
689.000000	 63.391232 
688.000000	 63.338494 
687.000000	 63.294124 
686.000000	 63.262033 
685.000000	 63.244605 
684.000000	 63.242197 
683.000000	 63.253283 
682.000000	 63.274717 
681.000000	 63.302445 
680.000000	 63.332247 
679.000000	 63.359856 
678.000000	 63.382267 
677.000000	 63.397121 
676.000000	 63.404464 
675.000000	 63.406085 
674.000000	 63.405776 
673.000000	 63.408207 
672.000000	 63.417458 
671.000000	 63.436174 
670.000000	 63.463616 
669.000000	 63.496327 
668.000000	 63.527584 
667.000000	 63.549351 
666.000000	 63.553714 
665.000000	 63.535118 
664.000000	 63.491582 
663.000000	 63.425374 
662.000000	 63.342857 
661.000000	 63.253235 
660.000000	 63.166284 
659.000000	 63.090610 
658.000000	 63.032364 
657.000000	 62.994647 
656.000000	 62.977480 
655.000000	 62.978434 
654.000000	 62.993741 
653.000000	 63.019037 
652.000000	 63.049316 
651.000000	 63.079953 
650.000000	 63.105630 
649.000000	 63.122367 
648.000000	 63.127708 
647.000000	 63.121604 
646.000000	 63.105797 
645.000000	 63.083720 
644.000000	 63.059735 
643.000000	 63.037657 
642.000000	 63.019967 
641.000000	 63.007020 
640.000000	 62.997102 
639.000000	 62.987470 
638.000000	 62.975382 
637.000000	 62.959623 
636.000000	 62.941169 
635.000000	 62.923240 
634.000000	 62.910437 
633.000000	 62.907505 
632.000000	 62.917995 
631.000000	 62.943029 
630.000000	 62.980794 
629.000000	 63.026690 
628.000000	 63.074040 
627.000000	 63.116264 
626.000000	 63.147115 
625.000000	 63.161683 
624.000000	 63.156390 
623.000000	 63.129496 
622.000000	 63.081240 
621.000000	 63.013505 
620.000000	 62.930321 
619.000000	 62.837505 
618.000000	 62.742877 
617.000000	 62.656211 
616.000000	 62.586927 
615.000000	 62.542963 
614.000000	 62.528085 
613.000000	 62.541341 
612.000000	 62.576055 
611.000000	 62.620711 
610.000000	 62.661838 
609.000000	 62.686777 
608.000000	 62.686848 
607.000000	 62.659358 
606.000000	 62.608313 
605.000000	 62.543439 
604.000000	 62.477803 
603.000000	 62.424612 
602.000000	 62.393522 
601.000000	 62.388873 
600.000000	 62.409520 
599.000000	 62.449431 
598.000000	 62.500596 
597.000000	 62.553977 
596.000000	 62.602734 
595.000000	 62.641525 
594.000000	 62.666988 
593.000000	 62.676978 
592.000000	 62.668967 
591.000000	 62.641453 
590.000000	 62.594270 
589.000000	 62.529015 
588.000000	 62.450385 
587.000000	 62.364506 
586.000000	 62.278604 
585.000000	 62.199044 
584.000000	 62.130403 
583.000000	 62.074756 
582.000000	 62.031960 
581.000000	 62.000870 
580.000000	 61.980509 
579.000000	 61.972165 
578.000000	 61.979484 
577.000000	 62.007737 
576.000000	 62.061905 
575.000000	 62.144184 
574.000000	 62.252116 
573.000000	 62.377500 
572.000000	 62.507081 
571.000000	 62.625646 
570.000000	 62.717914 
569.000000	 62.773156 
568.000000	 62.785243 
567.000000	 62.754368 
566.000000	 62.685441 
565.000000	 62.586545 
564.000000	 62.467837 
563.000000	 62.340855 
562.000000	 62.216281 
561.000000	 62.104415 
560.000000	 62.012505 
559.000000	 61.945009 
558.000000	 61.902403 
557.000000	 61.882138 
556.000000	 61.878395 
555.000000	 61.883711 
554.000000	 61.890435 
553.000000	 61.892390 
552.000000	 61.886715 
551.000000	 61.874103 
550.000000	 61.858272 
549.000000	 61.844348 
548.000000	 61.836504 
547.000000	 61.836147 
546.000000	 61.841201 
545.000000	 61.846184 
544.000000	 61.844754 
543.000000	 61.830353 
542.000000	 61.799383 
541.000000	 61.750268 
540.000000	 61.683750 
539.000000	 61.602568 
538.000000	 61.509776 
537.000000	 61.410379 
536.000000	 61.310172 
535.000000	 61.217117 
534.000000	 61.141014 
533.000000	 61.091375 
532.000000	 61.075520 
531.000000	 61.096024 
530.000000	 61.149501 
529.000000	 61.225342 
528.000000	 61.307191 
527.000000	 61.376094 
526.000000	 61.414647 
525.000000	 61.412477 
524.000000	 61.368632 
523.000000	 61.292195 
522.000000	 61.199712 
521.000000	 61.109924 
520.000000	 61.039280 
519.000000	 60.997104 
518.000000	 60.984563 
517.000000	 60.995626 
516.000000	 61.020445 
515.000000	 61.049580 
514.000000	 61.077570 
513.000000	 61.104512 
512.000000	 61.135935 
511.000000	 61.178636 
510.000000	 61.239266 
509.000000	 61.319971 
508.000000	 61.417913 
507.000000	 61.525082 
506.000000	 61.629414 
505.000000	 61.718535 
504.000000	 61.780762 
503.000000	 61.809039 
502.000000	 61.798906 
501.000000	 61.749649 
500.000000	 61.662602 
499.000000	 61.541390 
498.000000	 61.392998 
497.000000	 61.228322 
496.000000	 61.062073 
495.000000	 60.911250 
494.000000	 60.794711 
493.000000	 60.727810 
492.000000	 60.718321 
491.000000	 60.763454 
490.000000	 60.849404 
489.000000	 60.953688 
488.000000	 61.048817 
487.000000	 61.109423 
486.000000	 61.117100 
485.000000	 61.066007 
484.000000	 60.963010 
483.000000	 60.826826 
482.000000	 60.682964 
481.000000	 60.556793 
480.000000	 60.467290 
479.000000	 60.422277 
478.000000	 60.417556 
477.000000	 60.438513 
476.000000	 60.465669 
475.000000	 60.479807 
474.000000	 60.467433 
473.000000	 60.423135 
472.000000	 60.349750 
471.000000	 60.253620 
470.000000	 60.141181 
469.000000	 60.014677 
468.000000	 59.871768 
467.000000	 59.708046 
466.000000	 59.520053 
465.000000	 59.309244 
464.000000	 59.084105 
463.000000	 58.860182 
462.000000	 58.658027 
461.000000	 58.497595 
460.000000	 58.394813 
459.000000	 58.356690 
458.000000	 58.380317 
457.000000	 58.452844 
456.000000	 58.554458 
455.000000	 58.660602 
454.000000	 58.749628 
453.000000	 58.806276 
452.000000	 58.825516 
451.000000	 58.809328 
450.000000	 58.771252 
449.000000	 58.732390 
448.000000	 58.715009 
447.000000	 58.735752 
446.000000	 58.802437 
445.000000	 58.910822 
444.000000	 59.044003 
443.000000	 59.175014 
442.000000	 59.269237 
441.000000	 59.292340 
440.000000	 59.219932 
439.000000	 59.043788 
438.000000	 58.772134 
437.000000	 58.431220 
436.000000	 58.060383 
435.000000	 57.705545 
434.000000	 57.412958 
433.000000	 57.219195 
432.000000	 57.136535 
431.000000	 57.163214 
430.000000	 57.278990 
429.000000	 57.465195 
428.000000	 57.714247 
427.000000	 58.030200 
426.000000	 58.410763 
425.000000	 58.865952 
424.000000	 59.412932 
423.000000	 60.057711 
422.000000	 60.786485 
421.000000	 61.553096 
420.000000	 62.281036 
419.000000	 62.877345 
418.000000	 63.250207 
417.000000	 63.334417 
416.000000	 63.102936 
415.000000	 62.568426 
414.000000	 61.779785 
413.000000	 60.792160 
412.000000	 59.677553 
411.000000	 58.500075 
410.000000	 57.349395 
409.000000	 56.354880 
408.000000	 55.665230 
407.000000	 55.491518 
406.000000	 55.966401 
405.000000	 57.109808 
404.000000	 58.745694 
403.000000	 60.505056 
402.000000	 61.889600 
401.000000	 62.409377 
400.000000	 61.676859 
399.000000	 59.467601 
398.000000	 55.880331 
397.000000	 51.315355 
396.000000	 46.463775 
395.000000	 42.195796 
394.000000	 39.245653 
393.000000	 38.033366 
392.000000	 38.529872 
391.000000	 40.265893 
390.000000	 42.602276 
389.000000	 44.886898 
388.000000	 46.697616 
387.000000	 47.897696 
386.000000	 48.345446 
385.000000	 48.065137 
384.000000	 46.917748 
383.000000	 44.977545 
382.000000	 42.955088 
381.000000	 41.787838 
380.000000	 42.980790 
379.000000	 47.388672 
378.000000	 54.697012 
377.000000	 63.340497 
376.000000	 70.190834 
375.000000	 72.206139 
374.000000	 67.406797 
373.000000	 55.758905 
372.000000	 39.792108 
371.000000	 23.387145 
370.000000	 10.724949 

