PE IR       SPECTRUM    SPECTRUM    ASCII       PEDS        1.60        
  -1
C-9AEE~1.ASC
17/03/27
16:34:03.00
17/03/27
16:34:03.00
tln
$C-4040-8_t0025$<tbV0>[7.8,-7.8,8.0,0.0,27,1,0]
370.000000
64









2002,4.07    
MIRTGS : RIGHTBACK : INTERNAL 2
MIR : ON : INTERNAL 2
OPTKBR

0.200000
8
8.000000
FILLER
RATIO
SPECTRUM
UNLOCKED 256

DOUBLE
64
COMBINED
1
0
0


1.000000
RATIO


1
0
TRUE
51149
0
LEFT NOT FITTED RIGHT NOT FITTED 0
NONE
NONE
15600
12.000000
4.427000
51148
TRUE
1 0 8 72 0 0 0 0 

15798.010000






#HDR
-1
-1
#GR
CM-1
%T
0.00002384185791015625
0.0
5000.000000
-1.000000
4631
8
71.878552
2.845668
#DATA
5000.000000	62.586736 
4999.000000	62.474489 
4998.000000	62.356376 
4997.000000	62.241530 
4996.000000	62.140846 
4995.000000	62.064504 
4994.000000	62.020111 
4993.000000	62.010955 
4992.000000	62.034344 
4991.000000	62.081480 
4990.000000	62.139391 
4989.000000	62.193059 
4988.000000	62.229347 
4987.000000	62.239623 
4986.000000	62.221574 
4985.000000	62.178826 
4984.000000	62.120175 
4983.000000	62.056779 
4982.000000	61.999249 
4981.000000	61.955475 
4980.000000	61.929535 
4979.000000	61.922121 
4978.000000	61.931324 
4977.000000	61.954665 
4976.000000	61.990523 
4975.000000	62.038969 
4974.000000	62.101125 
4973.000000	62.178349 
4972.000000	62.269759 
4971.000000	62.372112 
4970.000000	62.479281 
4969.000000	62.583422 
4968.000000	62.676215 
4967.000000	62.750744 
4966.000000	62.804007 
4965.000000	62.835907 
4964.000000	62.849259 
4963.000000	62.848186 
4962.000000	62.837100 
4961.000000	62.819504 
4960.000000	62.797975 
4959.000000	62.774014 
4958.000000	62.748765 
4957.000000	62.723302 
4956.000000	62.698984 
4955.000000	62.676692 
4954.000000	62.656712 
4953.000000	62.637591 
4952.000000	62.616872 
4951.000000	62.591171 
4950.000000	62.557935 
4949.000000	62.516641 
4948.000000	62.470197 
4947.000000	62.424826 
4946.000000	62.389159 
4945.000000	62.372183 
4944.000000	62.380480 
4943.000000	62.415862 
4942.000000	62.474584 
4941.000000	62.548065 
4940.000000	62.623739 
4939.000000	62.688422 
4938.000000	62.729930 
4937.000000	62.740135 
4936.000000	62.715601 
4935.000000	62.658214 
4934.000000	62.574434 
4933.000000	62.473320 
4932.000000	62.365794 
4931.000000	62.262821 
4930.000000	62.173509 
4929.000000	62.104177 
4928.000000	62.058520 
4927.000000	62.037706 
4926.000000	62.040162 
4925.000000	62.062549 
4924.000000	62.099742 
4923.000000	62.146472 
4922.000000	62.197279 
4921.000000	62.248063 
4920.000000	62.295508 
4919.000000	62.337827 
4918.000000	62.374258 
4917.000000	62.405157 
4916.000000	62.430620 
4915.000000	62.451362 
4914.000000	62.467932 
4913.000000	62.481570 
4912.000000	62.493729 
4911.000000	62.507247 
4910.000000	62.525868 
4909.000000	62.554454 
4908.000000	62.597584 
4907.000000	62.659645 
4906.000000	62.743496 
4905.000000	62.849497 
4904.000000	62.974786 
4903.000000	63.112711 
4902.000000	63.253641 
4901.000000	63.386440 
4900.000000	63.500189 
4899.000000	63.585615 
4898.000000	63.636350 
4897.000000	63.651227 
4896.000000	63.633131 
4895.000000	63.588285 
4894.000000	63.524103 
4893.000000	63.448739 
4892.000000	63.368535 
4891.000000	63.288903 
4890.000000	63.212370 
4889.000000	63.140392 
4888.000000	63.072562 
4887.000000	63.009142 
4886.000000	62.950038 
4885.000000	62.895107 
4884.000000	62.844514 
4883.000000	62.798786 
4882.000000	62.758517 
4881.000000	62.723183 
4880.000000	62.692546 
4879.000000	62.666416 
4878.000000	62.645125 
4877.000000	62.629389 
4876.000000	62.621140 
4875.000000	62.623286 
4874.000000	62.639117 
4873.000000	62.671446 
4872.000000	62.722849 
4871.000000	62.794399 
4870.000000	62.884688 
4869.000000	62.988901 
4868.000000	63.099813 
4867.000000	63.207316 
4866.000000	63.300251 
4865.000000	63.367128 
4864.000000	63.399124 
4863.000000	63.390493 
4862.000000	63.341307 
4861.000000	63.255548 
4860.000000	63.140821 
4859.000000	63.006520 
4858.000000	62.863516 
4857.000000	62.721633 
4856.000000	62.588715 
4855.000000	62.470555 
4854.000000	62.371778 
4853.000000	62.295341 
4852.000000	62.242674 
4851.000000	62.214255 
4850.000000	62.209248 
4849.000000	62.225151 
4848.000000	62.257337 
4847.000000	62.298989 
4846.000000	62.341761 
4845.000000	62.376761 
4844.000000	62.396192 
4843.000000	62.394237 
4842.000000	62.368535 
4841.000000	62.320876 
4840.000000	62.256979 
4839.000000	62.184906 
4838.000000	62.114238 
4837.000000	62.054467 
4836.000000	62.013626 
4835.000000	61.996507 
4834.000000	62.005090 
4833.000000	62.038207 
4832.000000	62.093067 
4831.000000	62.165069 
4830.000000	62.249970 
4829.000000	62.343382 
4828.000000	62.442326 
4827.000000	62.544536 
4826.000000	62.648010 
4825.000000	62.749767 
4824.000000	62.846374 
4823.000000	62.933659 
4822.000000	63.006687 
4821.000000	63.060259 
4820.000000	63.090229 
4819.000000	63.094282 
4818.000000	63.072657 
4817.000000	63.027691 
4816.000000	62.964200 
4815.000000	62.888193 
4814.000000	62.806487 
4813.000000	62.725162 
4812.000000	62.649202 
4811.000000	62.581753 
4810.000000	62.524485 
4809.000000	62.477803 
4808.000000	62.441086 
4807.000000	62.413620 
4806.000000	62.394547 
4805.000000	62.383675 
4804.000000	62.380576 
4803.000000	62.385416 
4802.000000	62.397837 
4801.000000	62.417626 
4800.000000	62.443637 
4799.000000	62.474608 
4798.000000	62.508821 
4797.000000	62.544345 
4796.000000	62.578821 
4795.000000	62.609839 
4794.000000	62.635135 
4793.000000	62.652301 
4792.000000	62.659192 
4791.000000	62.654638 
4790.000000	62.638545 
4789.000000	62.612175 
4788.000000	62.577867 
4787.000000	62.539029 
4786.000000	62.499094 
4785.000000	62.461543 
4784.000000	62.428736 
4783.000000	62.401509 
4782.000000	62.379050 
4781.000000	62.359476 
4780.000000	62.340378 
4779.000000	62.319159 
4778.000000	62.294745 
4777.000000	62.267518 
4776.000000	62.240386 
4775.000000	62.217640 
4774.000000	62.204885 
4773.000000	62.207221 
4772.000000	62.228155 
4771.000000	62.268590 
4770.000000	62.325811 
4769.000000	62.393832 
4768.000000	62.464022 
4767.000000	62.526822 
4766.000000	62.573385 
4765.000000	62.597417 
4764.000000	62.596654 
4763.000000	62.573194 
4762.000000	62.533187 
4761.000000	62.484860 
4760.000000	62.436938 
4759.000000	62.395977 
4758.000000	62.366056 
4757.000000	62.347245 
4756.000000	62.336778 
4755.000000	62.329816 
4754.000000	62.321662 
4753.000000	62.308859 
4752.000000	62.290024 
4751.000000	62.266230 
4750.000000	62.240290 
4749.000000	62.215900 
4748.000000	62.195920 
4747.000000	62.182092 
4746.000000	62.174272 
4745.000000	62.170767 
4744.000000	62.169098 
4743.000000	62.166619 
4742.000000	62.161469 
4741.000000	62.152886 
4740.000000	62.141513 
4739.000000	62.128710 
4738.000000	62.116456 
4737.000000	62.107014 
4736.000000	62.102580 
4735.000000	62.105011 
4734.000000	62.115550 
4733.000000	62.134552 
4732.000000	62.161278 
4731.000000	62.193846 
4730.000000	62.229466 
4729.000000	62.264227 
4728.000000	62.294292 
4727.000000	62.316131 
4726.000000	62.327980 
4725.000000	62.329959 
4724.000000	62.324166 
4723.000000	62.314629 
4722.000000	62.305903 
4721.000000	62.302517 
4720.000000	62.307071 
4719.000000	62.319874 
4718.000000	62.337994 
4717.000000	62.356519 
4716.000000	62.369251 
4715.000000	62.370610 
4714.000000	62.357091 
4713.000000	62.328386 
4712.000000	62.287807 
4711.000000	62.241601 
4710.000000	62.197828 
4709.000000	62.164735 
4708.000000	62.148809 
4707.000000	62.153244 
4706.000000	62.177848 
4705.000000	62.218904 
4704.000000	62.270116 
4703.000000	62.323689 
4702.000000	62.371897 
4701.000000	62.407779 
4700.000000	62.426686 
4699.000000	62.426233 
4698.000000	62.405920 
4697.000000	62.367296 
4696.000000	62.313699 
4695.000000	62.249398 
4694.000000	62.179183 
4693.000000	62.107920 
4692.000000	62.040853 
4691.000000	61.982583 
4690.000000	61.937093 
4689.000000	61.906957 
4688.000000	61.893057 
4687.000000	61.894464 
4686.000000	61.908411 
4685.000000	61.930155 
4684.000000	61.953616 
4683.000000	61.972308 
4682.000000	61.980724 
4681.000000	61.974644 
4680.000000	61.952972 
4679.000000	61.917352 
4678.000000	61.873078 
4677.000000	61.827754 
4676.000000	61.790609 
4675.000000	61.770057 
4674.000000	61.772942 
4673.000000	61.802864 
4672.000000	61.860036 
4671.000000	61.941385 
4670.000000	62.041378 
4669.000000	62.152957 
4668.000000	62.268495 
4667.000000	62.380671 
4666.000000	62.483000 
4665.000000	62.570238 
4664.000000	62.637782 
4663.000000	62.681937 
4662.000000	62.699842 
4661.000000	62.690210 
4660.000000	62.653183 
4659.000000	62.591171 
4658.000000	62.508916 
4657.000000	62.413525 
4656.000000	62.313842 
4655.000000	62.219405 
4654.000000	62.139010 
4653.000000	62.079811 
4652.000000	62.046289 
4651.000000	62.039899 
4650.000000	62.058687 
4649.000000	62.097954 
4648.000000	62.150812 
4647.000000	62.209844 
4646.000000	62.267136 
4645.000000	62.317132 
4644.000000	62.356185 
4643.000000	62.383890 
4642.000000	62.402129 
4641.000000	62.414288 
4640.000000	62.424111 
4639.000000	62.434053 
4638.000000	62.444829 
4637.000000	62.454724 
4636.000000	62.460660 
4635.000000	62.458443 
4634.000000	62.444496 
4633.000000	62.416338 
4632.000000	62.373828 
4631.000000	62.318992 
4630.000000	62.255978 
4629.000000	62.190103 
4628.000000	62.126779 
4627.000000	62.070846 
4626.000000	62.025785 
4625.000000	61.993288 
4624.000000	61.973142 
4623.000000	61.963868 
4622.000000	61.963009 
4621.000000	61.967062 
4620.000000	61.972832 
4619.000000	61.976957 
4618.000000	61.977958 
4617.000000	61.975884 
4616.000000	61.973071 
4615.000000	61.972570 
4614.000000	61.978173 
4613.000000	61.993122 
4612.000000	62.019348 
4611.000000	62.056040 
4610.000000	62.100958 
4609.000000	62.150645 
4608.000000	62.201619 
4607.000000	62.251114 
4606.000000	62.297296 
4605.000000	62.339329 
4604.000000	62.377142 
4603.000000	62.411022 
4602.000000	62.440657 
4601.000000	62.464928 
4600.000000	62.482690 
4599.000000	62.492680 
4598.000000	62.494397 
4597.000000	62.487864 
4596.000000	62.475013 
4595.000000	62.457752 
4594.000000	62.437844 
4593.000000	62.415599 
4592.000000	62.390136 
4591.000000	62.359046 
4590.000000	62.319850 
4589.000000	62.270188 
4588.000000	62.209224 
4587.000000	62.138080 
4586.000000	62.059855 
4585.000000	61.979579 
4584.000000	61.902737 
4583.000000	61.835598 
4582.000000	61.783552 
4581.000000	61.751484 
4580.000000	61.742591 
4579.000000	61.758470 
4578.000000	61.798763 
4577.000000	61.860847 
4576.000000	61.939907 
4575.000000	62.029075 
4574.000000	62.120532 
4573.000000	62.205862 
4572.000000	62.277698 
4571.000000	62.331223 
4570.000000	62.364673 
4569.000000	62.379860 
4568.000000	62.380695 
4567.000000	62.372374 
4566.000000	62.359142 
4565.000000	62.343978 
4564.000000	62.327265 
4563.000000	62.308120 
4562.000000	62.284708 
4561.000000	62.256097 
4560.000000	62.223148 
4559.000000	62.188982 
4558.000000	62.158799 
4557.000000	62.138438 
4556.000000	62.133526 
4555.000000	62.147927 
4554.000000	62.182855 
4553.000000	62.236332 
4552.000000	62.303590 
4551.000000	62.377643 
4550.000000	62.451076 
4549.000000	62.517285 
4548.000000	62.570834 
4547.000000	62.608218 
4546.000000	62.627840 
4545.000000	62.630105 
4544.000000	62.617325 
4543.000000	62.592887 
4542.000000	62.560939 
4541.000000	62.525105 
4540.000000	62.488961 
4539.000000	62.454485 
4538.000000	62.422776 
4537.000000	62.393140 
4536.000000	62.364673 
4535.000000	62.335658 
4534.000000	62.304663 
4533.000000	62.270236 
4532.000000	62.230944 
4531.000000	62.185931 
4530.000000	62.134885 
4529.000000	62.079215 
4528.000000	62.021565 
4527.000000	61.966991 
4526.000000	61.922192 
4525.000000	61.895012 
4524.000000	61.892437 
4523.000000	61.919331 
4522.000000	61.976695 
4521.000000	62.060832 
4520.000000	62.163281 
4519.000000	62.271499 
4518.000000	62.370896 
4517.000000	62.447977 
4516.000000	62.492632 
4515.000000	62.500071 
4514.000000	62.471675 
4513.000000	62.413859 
4512.000000	62.336945 
4511.000000	62.253284 
4510.000000	62.174534 
4509.000000	62.109851 
4508.000000	62.065267 
4507.000000	62.043452 
4506.000000	62.044310 
4505.000000	62.065839 
4504.000000	62.105131 
4503.000000	62.158608 
4502.000000	62.223315 
4501.000000	62.296724 
4500.000000	62.376141 
4499.000000	62.457823 
4498.000000	62.536907 
4497.000000	62.607264 
4496.000000	62.662220 
4495.000000	62.695550 
4494.000000	62.702631 
4493.000000	62.682008 
4492.000000	62.636232 
4491.000000	62.572050 
4490.000000	62.499666 
4489.000000	62.431073 
4488.000000	62.378287 
4487.000000	62.350893 
4486.000000	62.354850 
4485.000000	62.390542 
4484.000000	62.454032 
4483.000000	62.536311 
4482.000000	62.625765 
4481.000000	62.708854 
4480.000000	62.773537 
4479.000000	62.809324 
4478.000000	62.808656 
4477.000000	62.767696 
4476.000000	62.686967 
4475.000000	62.570977 
4474.000000	62.427878 
4473.000000	62.268829 
4472.000000	62.106728 
4471.000000	61.954998 
4470.000000	61.826062 
4469.000000	61.729574 
4468.000000	61.671233 
4467.000000	61.652326 
4466.000000	61.670327 
4465.000000	61.718726 
4464.000000	61.789393 
4463.000000	61.873626 
4462.000000	61.964654 
4461.000000	62.056922 
4460.000000	62.147736 
4459.000000	62.235736 
4458.000000	62.321043 
4457.000000	62.403678 
4456.000000	62.483048 
4455.000000	62.557649 
4454.000000	62.624931 
4453.000000	62.682533 
4452.000000	62.728095 
4451.000000	62.760734 
4450.000000	62.780165 
4449.000000	62.787628 
4448.000000	62.784600 
4447.000000	62.772893 
4446.000000	62.753868 
4445.000000	62.728714 
4444.000000	62.699151 
4443.000000	62.667608 
4442.000000	62.637710 
4441.000000	62.613654 
4440.000000	62.598943 
4439.000000	62.595582 
4438.000000	62.603139 
4437.000000	62.618875 
4436.000000	62.637901 
4435.000000	62.654280 
4434.000000	62.662935 
4433.000000	62.660217 
4432.000000	62.644171 
4431.000000	62.614893 
4430.000000	62.574076 
4429.000000	62.525010 
4428.000000	62.472486 
4427.000000	62.421798 
4426.000000	62.377929 
4425.000000	62.344884 
4424.000000	62.325739 
4423.000000	62.320518 
4422.000000	62.326312 
4421.000000	62.337493 
4420.000000	62.347292 
4419.000000	62.348127 
4418.000000	62.333250 
4417.000000	62.298393 
4416.000000	62.243366 
4415.000000	62.169671 
4414.000000	62.080430 
4413.000000	61.986041 
4412.000000	61.902189 
4411.000000	61.836814 
4410.000000	61.793327 
4409.000000	61.779212 
4408.000000	61.801958 
4407.000000	61.865901 
4406.000000	61.970877 
4405.000000	62.108635 
4404.000000	62.265491 
4403.000000	62.426757 
4402.000000	62.576985 
4401.000000	62.700033 
4400.000000	62.782526 
4399.000000	62.823963 
4398.000000	62.823843 
4397.000000	62.773180 
4396.000000	62.667655 
4395.000000	62.511229 
4394.000000	62.318634 
4393.000000	62.114048 
4392.000000	61.931610 
4391.000000	61.810111 
4390.000000	61.760306 
4389.000000	61.754083 
4388.000000	61.706209 
4387.000000	61.486458 
4386.000000	60.935544 
4385.000000	59.912443 
4384.000000	58.330678 
4383.000000	56.207942 
4382.000000	53.676581 
4381.000000	50.988125 
4380.000000	48.457241 
4379.000000	46.422696 
4378.000000	45.166563 
4377.000000	44.874906 
4376.000000	45.576238 
4375.000000	47.169780 
4374.000000	49.427342 
4373.000000	52.078890 
4372.000000	54.838371 
4371.000000	57.498884 
4370.000000	59.946441 
4369.000000	62.167882 
4368.000000	64.212036 
4367.000000	66.132402 
4366.000000	67.933917 
4365.000000	69.549107 
4364.000000	70.842695 
4363.000000	71.659851 
4362.000000	71.878552 
4361.000000	71.470665 
4360.000000	70.523142 
4359.000000	69.207692 
4358.000000	67.743229 
4357.000000	66.336870 
4356.000000	65.141606 
4355.000000	64.235067 
4354.000000	63.614273 
4353.000000	63.236713 
4352.000000	63.030219 
4351.000000	62.922644 
4350.000000	62.859916 
4349.000000	62.807154 
4348.000000	62.759280 
4347.000000	62.714219 
4346.000000	62.684464 
4345.000000	62.673425 
4344.000000	62.684011 
4343.000000	62.712788 
4342.000000	62.750959 
4341.000000	62.781786 
4340.000000	62.793040 
4339.000000	62.785863 
4338.000000	62.760186 
4337.000000	62.711405 
4336.000000	62.639975 
4335.000000	62.551474 
4334.000000	62.453246 
4333.000000	62.353539 
4332.000000	62.264084 
4331.000000	62.196969 
4330.000000	62.159109 
4329.000000	62.151741 
4328.000000	62.168455 
4327.000000	62.198591 
4326.000000	62.233996 
4325.000000	62.269353 
4324.000000	62.298297 
4323.000000	62.318110 
4322.000000	62.331914 
4321.000000	62.345004 
4320.000000	62.361764 
4319.000000	62.384462 
4318.000000	62.411952 
4317.000000	62.439131 
4316.000000	62.458777 
4315.000000	62.462902 
4314.000000	62.445926 
4313.000000	62.405395 
4312.000000	62.343382 
4311.000000	62.265539 
4310.000000	62.180185 
4309.000000	62.096309 
4308.000000	62.021827 
4307.000000	61.962604 
4306.000000	61.921834 
4305.000000	61.900448 
4304.000000	61.897540 
4303.000000	61.911392 
4302.000000	61.939692 
4301.000000	61.979365 
4300.000000	62.026739 
4299.000000	62.077093 
4298.000000	62.125635 
4297.000000	62.167167 
4296.000000	62.197661 
4295.000000	62.214589 
4294.000000	62.217283 
4293.000000	62.207293 
4292.000000	62.186980 
4291.000000	62.159395 
4290.000000	62.126946 
4289.000000	62.091326 
4288.000000	62.053203 
4287.000000	62.012839 
4286.000000	61.970782 
4285.000000	61.928558 
4284.000000	61.889266 
4283.000000	61.857080 
4282.000000	61.836290 
4281.000000	61.830067 
4280.000000	61.839365 
4279.000000	61.862063 
4278.000000	61.892867 
4277.000000	61.923933 
4276.000000	61.947035 
4275.000000	61.955380 
4274.000000	61.944866 
4273.000000	61.915516 
4272.000000	61.871218 
4271.000000	61.819052 
4270.000000	61.767792 
4269.000000	61.725616 
4268.000000	61.698555 
4267.000000	61.688756 
4266.000000	61.694502 
4265.000000	61.710333 
4264.000000	61.728620 
4263.000000	61.741566 
4262.000000	61.743187 
4261.000000	61.730909 
4260.000000	61.705493 
4259.000000	61.671352 
4258.000000	61.634707 
4257.000000	61.602759 
4256.000000	61.581540 
4255.000000	61.575531 
4254.000000	61.586475 
4253.000000	61.613702 
4252.000000	61.654090 
4251.000000	61.702489 
4250.000000	61.752462 
4249.000000	61.797285 
4248.000000	61.831045 
4247.000000	61.849617 
4246.000000	61.851668 
4245.000000	61.838650 
4244.000000	61.814498 
4243.000000	61.785006 
4242.000000	61.756157 
4241.000000	61.733007 
4240.000000	61.718368 
4239.000000	61.712574 
4238.000000	61.713218 
4237.000000	61.716389 
4236.000000	61.717653 
4235.000000	61.713624 
4234.000000	61.702466 
4233.000000	61.684393 
4232.000000	61.661052 
4231.000000	61.634945 
4230.000000	61.608290 
4229.000000	61.582207 
4228.000000	61.557078 
4227.000000	61.532902 
4226.000000	61.509823 
4225.000000	61.488676 
4224.000000	61.471009 
4223.000000	61.458849 
4222.000000	61.454010 
4221.000000	61.457371 
4220.000000	61.468625 
4219.000000	61.486029 
4218.000000	61.506438 
4217.000000	61.525774 
4216.000000	61.540412 
4215.000000	61.547350 
4214.000000	61.544966 
4213.000000	61.532783 
4212.000000	61.511492 
4211.000000	61.482405 
4210.000000	61.447429 
4209.000000	61.408162 
4208.000000	61.365962 
4207.000000	61.321973 
4206.000000	61.277580 
4205.000000	61.233806 
4204.000000	61.191463 
4203.000000	61.151242 
4202.000000	61.114192 
4201.000000	61.081171 
4200.000000	61.053085 
4199.000000	61.031150 
4198.000000	61.016798 
4197.000000	61.010837 
4196.000000	61.013126 
4195.000000	61.022567 
4194.000000	61.037015 
4193.000000	61.053419 
4192.000000	61.068201 
4191.000000	61.077809 
4190.000000	61.079668 
4189.000000	61.072897 
4188.000000	61.058568 
4187.000000	61.038756 
4186.000000	61.016917 
4185.000000	60.996603 
4184.000000	60.981655 
4183.000000	60.974431 
4182.000000	60.977125 
4181.000000	60.990953 
4180.000000	61.017417 
4179.000000	61.057758 
4178.000000	61.113071 
4177.000000	61.183333 
4176.000000	61.267876 
4175.000000	61.364674 
4174.000000	61.470675 
4173.000000	61.581707 
4172.000000	61.693525 
4171.000000	61.801862 
4170.000000	61.902451 
4169.000000	61.990499 
4168.000000	62.061691 
4167.000000	62.111210 
4166.000000	62.134718 
4165.000000	62.127780 
4164.000000	62.087917 
4163.000000	62.013816 
4162.000000	61.907672 
4161.000000	61.774230 
4160.000000	61.621451 
4159.000000	61.459612 
4158.000000	61.300849 
4157.000000	61.157679 
4156.000000	61.040854 
4155.000000	60.958695 
4154.000000	60.915827 
4153.000000	60.912942 
4152.000000	60.946035 
4151.000000	61.008119 
4150.000000	61.089992 
4149.000000	61.181807 
4148.000000	61.273694 
4147.000000	61.358070 
4146.000000	61.429834 
4145.000000	61.486649 
4144.000000	61.528158 
4143.000000	61.555767 
4142.000000	61.571049 
4141.000000	61.575484 
4140.000000	61.569046 
4139.000000	61.551570 
4138.000000	61.521887 
4137.000000	61.479496 
4136.000000	61.424088 
4135.000000	61.357021 
4134.000000	61.280703 
4133.000000	61.199021 
4132.000000	61.116576 
4131.000000	61.038231 
4130.000000	60.968327 
4129.000000	60.910367 
4128.000000	60.866093 
4127.000000	60.834598 
4126.000000	60.813474 
4125.000000	60.799121 
4124.000000	60.788297 
4123.000000	60.778307 
4122.000000	60.768485 
4121.000000	60.759949 
4120.000000	60.755586 
4119.000000	60.758900 
4118.000000	60.772442 
4117.000000	60.796689 
4116.000000	60.830068 
4115.000000	60.868811 
4114.000000	60.907554 
4113.000000	60.940170 
4112.000000	60.961341 
4111.000000	60.967445 
4110.000000	60.957312 
4109.000000	60.932278 
4108.000000	60.895681 
4107.000000	60.852289 
4106.000000	60.807323 
4105.000000	60.765814 
4104.000000	60.731697 
4103.000000	60.707783 
4102.000000	60.695910 
4101.000000	60.696792 
4100.000000	60.710072 
4099.000000	60.734391 
4098.000000	60.767745 
4097.000000	60.806703 
4096.000000	60.846710 
4095.000000	60.882353 
4094.000000	60.908126 
4093.000000	60.919213 
4092.000000	60.912299 
4091.000000	60.886669 
4090.000000	60.844326 
4089.000000	60.790109 
4088.000000	60.730624 
4087.000000	60.673141 
4086.000000	60.624051 
4085.000000	60.588097 
4084.000000	60.567474 
4083.000000	60.561490 
4082.000000	60.567212 
4081.000000	60.580658 
4080.000000	60.597872 
4079.000000	60.615420 
4078.000000	60.631155 
4077.000000	60.643815 
4076.000000	60.653400 
4075.000000	60.659933 
4074.000000	60.663723 
4073.000000	60.664463 
4072.000000	60.661888 
4071.000000	60.656070 
4070.000000	60.647821 
4069.000000	60.638856 
4068.000000	60.631632 
4067.000000	60.628819 
4066.000000	60.632538 
4065.000000	60.643434 
4064.000000	60.660243 
4063.000000	60.679745 
4062.000000	60.697031 
4061.000000	60.706543 
4060.000000	60.703420 
4059.000000	60.684537 
4058.000000	60.649251 
4057.000000	60.599660 
4056.000000	60.540294 
4055.000000	60.477542 
4054.000000	60.417890 
4053.000000	60.367512 
4052.000000	60.331106 
4051.000000	60.311746 
4050.000000	60.310459 
4049.000000	60.326409 
4048.000000	60.357379 
4047.000000	60.399723 
4046.000000	60.448718 
4045.000000	60.498952 
4044.000000	60.544729 
4043.000000	60.581278 
4042.000000	60.605049 
4041.000000	60.614848 
4040.000000	60.611724 
4039.000000	60.599327 
4038.000000	60.583353 
4037.000000	60.569882 
4036.000000	60.564279 
4035.000000	60.569787 
4034.000000	60.586810 
4033.000000	60.612702 
4032.000000	60.642528 
4031.000000	60.670518 
4030.000000	60.691452 
4029.000000	60.702013 
4028.000000	60.701417 
4027.000000	60.691380 
4026.000000	60.675811 
4025.000000	60.659480 
4024.000000	60.647249 
4023.000000	60.642957 
4022.000000	60.648822 
4021.000000	60.665965 
4020.000000	60.693359 
4019.000000	60.728502 
4018.000000	60.767054 
4017.000000	60.803961 
4016.000000	60.833311 
4015.000000	60.849332 
4014.000000	60.846853 
4013.000000	60.822439 
4012.000000	60.775303 
4011.000000	60.707831 
4010.000000	60.625624 
4009.000000	60.536789 
4008.000000	60.450720 
4007.000000	60.376453 
4006.000000	60.321187 
4005.000000	60.288882 
4004.000000	60.279703 
4003.000000	60.290503 
4002.000000	60.315489 
4001.000000	60.348010 
4000.000000	60.381603 
3999.000000	60.412073 
3998.000000	60.436749 
3997.000000	60.455942 
3996.000000	60.471725 
3995.000000	60.487651 
3994.000000	60.506534 
3993.000000	60.530400 
3992.000000	60.559654 
3991.000000	60.592961 
3990.000000	60.627794 
3989.000000	60.660910 
3988.000000	60.689544 
3987.000000	60.711646 
3986.000000	60.726428 
3985.000000	60.734367 
3984.000000	60.736989 
3983.000000	60.736322 
3982.000000	60.734486 
3981.000000	60.733509 
3980.000000	60.735058 
3979.000000	60.740876 
3978.000000	60.752058 
3977.000000	60.769248 
3976.000000	60.791993 
3975.000000	60.819554 
3974.000000	60.849523 
3973.000000	60.878372 
3972.000000	60.900974 
3971.000000	60.912108 
3970.000000	60.906958 
3969.000000	60.882067 
3968.000000	60.836338 
3967.000000	60.771536 
3966.000000	60.692024 
3965.000000	60.604500 
3964.000000	60.516691 
3963.000000	60.435819 
3962.000000	60.367417 
3961.000000	60.314655 
3960.000000	60.277605 
3959.000000	60.253667 
3958.000000	60.238075 
3957.000000	60.225319 
3956.000000	60.210108 
3955.000000	60.188722 
3954.000000	60.159826 
3953.000000	60.125279 
3952.000000	60.089063 
3951.000000	60.057115 
3950.000000	60.035562 
3949.000000	60.029864 
3948.000000	60.043478 
3947.000000	60.077214 
3946.000000	60.129499 
3945.000000	60.196089 
3944.000000	60.271072 
3943.000000	60.347437 
3942.000000	60.418128 
3941.000000	60.476589 
3940.000000	60.517573 
3939.000000	60.537600 
3938.000000	60.535359 
3937.000000	60.511946 
3936.000000	60.471057 
3935.000000	60.418200 
3934.000000	60.360074 
3933.000000	60.303664 
3932.000000	60.255837 
3931.000000	60.221219 
3930.000000	60.201740 
3929.000000	60.196661 
3928.000000	60.203337 
3927.000000	60.217857 
3926.000000	60.236287 
3925.000000	60.255551 
3924.000000	60.273885 
3923.000000	60.290384 
3922.000000	60.304450 
3921.000000	60.315203 
3920.000000	60.321164 
3919.000000	60.320115 
3918.000000	60.309672 
3917.000000	60.288310 
3916.000000	60.255908 
3915.000000	60.214447 
3914.000000	60.167908 
3913.000000	60.121703 
3912.000000	60.081887 
3911.000000	60.053944 
3910.000000	60.041928 
3909.000000	60.047078 
3908.000000	60.068416 
3907.000000	60.102915 
3906.000000	60.146141 
3905.000000	60.193085 
3904.000000	60.238695 
3903.000000	60.278749 
3902.000000	60.310196 
3901.000000	60.331511 
3900.000000	60.342812 
3899.000000	60.345673 
3898.000000	60.343146 
3897.000000	60.338759 
3896.000000	60.335874 
3895.000000	60.336852 
3894.000000	60.342478 
3893.000000	60.352063 
3892.000000	60.363793 
3891.000000	60.375356 
3890.000000	60.384941 
3889.000000	60.391807 
3888.000000	60.396575 
3887.000000	60.400867 
3886.000000	60.407018 
3885.000000	60.416340 
3884.000000	60.429000 
3883.000000	60.442852 
3882.000000	60.454201 
3881.000000	60.458302 
3880.000000	60.450887 
3879.000000	60.429430 
3878.000000	60.394096 
3877.000000	60.347986 
3876.000000	60.296583 
3875.000000	60.246396 
3874.000000	60.203528 
3873.000000	60.172557 
3872.000000	60.155510 
3871.000000	60.151529 
3870.000000	60.157418 
3869.000000	60.168647 
3868.000000	60.180807 
3867.000000	60.190153 
3866.000000	60.195112 
3865.000000	60.195589 
3864.000000	60.193681 
3863.000000	60.192036 
3862.000000	60.193610 
3861.000000	60.200691 
3860.000000	60.214090 
3859.000000	60.233473 
3858.000000	60.256409 
3857.000000	60.279369 
3856.000000	60.298013 
3855.000000	60.308241 
3854.000000	60.307097 
3853.000000	60.293388 
3852.000000	60.268282 
3851.000000	60.234951 
3850.000000	60.198259 
3849.000000	60.163950 
3848.000000	60.137152 
3847.000000	60.121536 
3846.000000	60.118675 
3845.000000	60.127758 
3844.000000	60.145950 
3843.000000	60.169029 
3842.000000	60.192346 
3841.000000	60.211777 
3840.000000	60.224223 
3839.000000	60.228466 
3838.000000	60.224628 
3837.000000	60.214471 
3836.000000	60.200214 
3835.000000	60.184645 
3834.000000	60.170292 
3833.000000	60.159516 
3832.000000	60.154104 
3831.000000	60.154962 
3830.000000	60.162472 
3829.000000	60.175871 
3828.000000	60.193610 
3827.000000	60.212898 
3826.000000	60.230493 
3825.000000	60.242581 
3824.000000	60.245633 
3823.000000	60.237097 
3822.000000	60.215830 
3821.000000	60.182523 
3820.000000	60.139679 
3819.000000	60.091137 
3818.000000	60.041117 
3817.000000	59.993743 
3816.000000	59.952187 
3815.000000	59.917950 
3814.000000	59.891176 
3813.000000	59.870553 
3812.000000	59.854459 
3811.000000	59.841370 
3810.000000	59.830665 
3809.000000	59.822297 
3808.000000	59.817051 
3807.000000	59.815835 
3806.000000	59.819340 
3805.000000	59.827160 
3804.000000	59.837961 
3803.000000	59.849452 
3802.000000	59.859156 
3801.000000	59.864926 
3800.000000	59.865856 
3799.000000	59.862232 
3798.000000	59.855723 
3797.000000	59.849023 
3796.000000	59.844851 
3795.000000	59.845161 
3794.000000	59.850716 
3793.000000	59.860801 
3792.000000	59.873318 
3791.000000	59.885382 
3790.000000	59.894204 
3789.000000	59.897518 
3788.000000	59.894037 
3787.000000	59.883427 
3786.000000	59.866547 
3785.000000	59.844899 
3784.000000	59.820342 
3783.000000	59.794497 
3782.000000	59.768939 
3781.000000	59.744596 
3780.000000	59.722018 
3779.000000	59.701204 
3778.000000	59.681820 
3777.000000	59.663748 
3776.000000	59.647274 
3775.000000	59.633398 
3774.000000	59.623336 
3773.000000	59.618949 
3772.000000	59.621977 
3771.000000	59.633755 
3770.000000	59.654450 
3769.000000	59.682989 
3768.000000	59.717059 
3767.000000	59.753274 
3766.000000	59.787726 
3765.000000	59.816884 
3764.000000	59.838342 
3763.000000	59.851384 
3762.000000	59.856820 
3761.000000	59.856748 
3760.000000	59.853768 
3759.000000	59.850502 
3758.000000	59.848475 
3757.000000	59.848189 
3756.000000	59.848451 
3755.000000	59.847617 
3754.000000	59.843158 
3753.000000	59.833168 
3752.000000	59.816098 
3751.000000	59.791874 
3750.000000	59.761476 
3749.000000	59.726834 
3748.000000	59.690403 
3747.000000	59.654784 
3746.000000	59.622001 
3745.000000	59.593200 
3744.000000	59.568619 
3743.000000	59.547686 
3742.000000	59.529399 
3741.000000	59.512996 
3740.000000	59.497976 
3739.000000	59.484434 
3738.000000	59.473347 
3737.000000	59.466385 
3736.000000	59.465169 
3735.000000	59.470915 
3734.000000	59.484219 
3733.000000	59.504485 
3732.000000	59.529972 
3731.000000	59.557461 
3730.000000	59.583210 
3729.000000	59.603190 
3728.000000	59.613966 
3727.000000	59.613490 
3726.000000	59.601163 
3725.000000	59.578180 
3724.000000	59.547567 
3723.000000	59.513473 
3722.000000	59.480714 
3721.000000	59.453463 
3720.000000	59.434938 
3719.000000	59.426355 
3718.000000	59.427046 
3717.000000	59.434342 
3716.000000	59.444546 
3715.000000	59.453415 
3714.000000	59.457063 
3713.000000	59.452867 
3712.000000	59.439873 
3711.000000	59.418606 
3710.000000	59.391188 
3709.000000	59.360289 
3708.000000	59.329199 
3707.000000	59.300899 
3706.000000	59.277820 
3705.000000	59.261608 
3704.000000	59.253048 
3703.000000	59.252190 
3702.000000	59.258389 
3701.000000	59.270191 
3700.000000	59.285593 
3699.000000	59.302282 
3698.000000	59.317874 
3697.000000	59.329843 
3696.000000	59.336256 
3695.000000	59.335756 
3694.000000	59.328126 
3693.000000	59.314155 
3692.000000	59.295606 
3691.000000	59.274935 
3690.000000	59.255027 
3689.000000	59.238696 
3688.000000	59.228157 
3687.000000	59.224629 
3686.000000	59.228134 
3685.000000	59.237599 
3684.000000	59.250807 
3683.000000	59.264731 
3682.000000	59.275889 
3681.000000	59.280943 
3680.000000	59.276938 
3679.000000	59.262013 
3678.000000	59.235668 
3677.000000	59.199070 
3676.000000	59.155106 
3675.000000	59.107947 
3674.000000	59.062623 
3673.000000	59.023761 
3672.000000	58.995079 
3671.000000	58.978366 
3670.000000	58.973264 
3669.000000	58.977317 
3668.000000	58.986568 
3667.000000	58.996748 
3666.000000	59.004044 
3665.000000	59.006214 
3664.000000	59.002685 
3663.000000	58.994936 
3662.000000	58.985424 
3661.000000	58.977174 
3660.000000	58.972525 
3659.000000	58.972597 
3658.000000	58.977031 
3657.000000	58.984255 
3656.000000	58.991956 
3655.000000	58.997964 
3654.000000	59.000658 
3653.000000	58.999252 
3652.000000	58.993649 
3651.000000	58.984279 
3650.000000	58.971905 
3649.000000	58.956933 
3648.000000	58.939671 
3647.000000	58.920240 
3646.000000	58.899044 
3645.000000	58.876848 
3644.000000	58.855056 
3643.000000	58.835816 
3642.000000	58.821654 
3641.000000	58.814954 
3640.000000	58.817481 
3639.000000	58.829736 
3638.000000	58.850479 
3637.000000	58.877134 
3636.000000	58.905720 
3635.000000	58.931636 
3634.000000	58.950471 
3633.000000	58.958816 
3632.000000	58.954954 
3631.000000	58.939266 
3630.000000	58.914184 
3629.000000	58.883857 
3628.000000	58.853411 
3627.000000	58.827948 
3626.000000	58.811569 
3625.000000	58.806347 
3624.000000	58.812451 
3623.000000	58.827686 
3622.000000	58.848476 
3621.000000	58.870220 
3620.000000	58.888721 
3619.000000	58.900260 
3618.000000	58.902359 
3617.000000	58.893704 
3616.000000	58.874511 
3615.000000	58.845949 
3614.000000	58.809900 
3613.000000	58.768701 
3612.000000	58.724880 
3611.000000	58.681154 
3610.000000	58.640193 
3609.000000	58.604502 
3608.000000	58.575963 
3607.000000	58.556079 
3606.000000	58.545994 
3605.000000	58.545851 
3604.000000	58.554863 
3603.000000	58.571910 
3602.000000	58.595442 
3601.000000	58.623456 
3600.000000	58.653879 
3599.000000	58.684492 
3598.000000	58.713483 
3597.000000	58.739137 
3596.000000	58.760523 
3595.000000	58.777308 
3594.000000	58.790016 
3593.000000	58.800196 
3592.000000	58.809733 
3591.000000	58.820843 
3590.000000	58.834791 
3589.000000	58.852529 
3588.000000	58.872747 
3587.000000	58.892917 
3586.000000	58.908629 
3585.000000	58.915567 
3584.000000	58.909463 
3583.000000	58.887529 
3582.000000	58.849167 
3581.000000	58.796429 
3580.000000	58.733415 
3579.000000	58.665704 
3578.000000	58.599114 
3577.000000	58.538722 
3576.000000	58.488059 
3575.000000	58.448481 
3574.000000	58.419394 
3573.000000	58.398652 
3572.000000	58.383369 
3571.000000	58.370971 
3570.000000	58.359003 
3569.000000	58.346319 
3568.000000	58.332610 
3567.000000	58.319067 
3566.000000	58.306956 
3565.000000	58.298707 
3564.000000	58.296895 
3563.000000	58.304333 
3562.000000	58.323192 
3561.000000	58.354449 
3560.000000	58.397364 
3559.000000	58.448910 
3558.000000	58.504247 
3557.000000	58.556866 
3556.000000	58.599829 
3555.000000	58.626985 
3554.000000	58.634185 
3553.000000	58.620119 
3552.000000	58.586549 
3551.000000	58.537840 
3550.000000	58.480167 
3549.000000	58.419966 
3548.000000	58.362722 
3547.000000	58.312320 
3546.000000	58.270692 
3545.000000	58.238124 
3544.000000	58.213520 
3543.000000	58.195614 
3542.000000	58.183193 
3541.000000	58.175206 
3540.000000	58.171033 
3539.000000	58.169579 
3538.000000	58.170056 
3537.000000	58.171415 
3536.000000	58.173036 
3535.000000	58.174514 
3534.000000	58.175849 
3533.000000	58.177614 
3532.000000	58.180665 
3531.000000	58.185839 
3530.000000	58.193349 
3529.000000	58.202767 
3528.000000	58.212733 
3527.000000	58.221197 
3526.000000	58.226084 
3525.000000	58.225679 
3524.000000	58.219170 
3523.000000	58.206796 
3522.000000	58.189821 
3521.000000	58.170366 
3520.000000	58.150744 
3519.000000	58.132982 
3518.000000	58.118510 
3517.000000	58.107686 
3516.000000	58.100271 
3515.000000	58.094978 
3514.000000	58.089947 
3513.000000	58.083033 
3512.000000	58.072042 
3511.000000	58.055973 
3510.000000	58.034443 
3509.000000	58.009004 
3508.000000	57.982230 
3507.000000	57.957911 
3506.000000	57.940244 
3505.000000	57.932877 
3504.000000	57.938122 
3503.000000	57.956457 
3502.000000	57.986259 
3501.000000	58.023881 
3500.000000	58.064246 
3499.000000	58.101773 
3498.000000	58.131194 
3497.000000	58.148479 
3496.000000	58.151531 
3495.000000	58.140206 
3494.000000	58.115959 
3493.000000	58.081817 
3492.000000	58.041405 
3491.000000	57.998418 
3490.000000	57.956051 
3489.000000	57.916879 
3488.000000	57.882666 
3487.000000	57.854127 
3486.000000	57.831168 
3485.000000	57.813167 
3484.000000	57.799410 
3483.000000	57.789182 
3482.000000	57.781791 
3481.000000	57.776761 
3480.000000	57.773613 
3479.000000	57.771635 
3478.000000	57.770085 
3477.000000	57.767939 
3476.000000	57.764625 
3475.000000	57.759952 
3474.000000	57.754564 
3473.000000	57.749819 
3472.000000	57.747411 
3471.000000	57.749128 
3470.000000	57.756114 
3469.000000	57.768535 
3468.000000	57.785487 
3467.000000	57.805323 
3466.000000	57.825732 
3465.000000	57.844495 
3464.000000	57.860016 
3463.000000	57.871532 
3462.000000	57.879614 
3461.000000	57.885575 
3460.000000	57.891011 
3459.000000	57.897210 
3458.000000	57.905149 
3457.000000	57.914924 
3456.000000	57.926154 
3455.000000	57.937669 
3454.000000	57.948303 
3453.000000	57.956409 
3452.000000	57.960557 
3451.000000	57.959198 
3450.000000	57.950949 
3449.000000	57.935118 
3448.000000	57.911944 
3447.000000	57.882690 
3446.000000	57.849597 
3445.000000	57.815599 
3444.000000	57.783770 
3443.000000	57.756805 
3442.000000	57.736468 
3441.000000	57.723641 
3440.000000	57.718539 
3439.000000	57.720589 
3438.000000	57.729029 
3437.000000	57.743263 
3436.000000	57.762789 
3435.000000	57.786965 
3434.000000	57.814455 
3433.000000	57.843017 
3432.000000	57.869076 
3431.000000	57.888150 
3430.000000	57.895469 
3429.000000	57.887291 
3428.000000	57.861304 
3427.000000	57.818055 
3426.000000	57.760357 
3425.000000	57.693147 
3424.000000	57.622146 
3423.000000	57.553076 
3422.000000	57.490515 
3421.000000	57.437467 
3420.000000	57.395029 
3419.000000	57.362794 
3418.000000	57.339024 
3417.000000	57.321381 
3416.000000	57.307291 
3415.000000	57.294726 
3414.000000	57.282042 
3413.000000	57.268595 
3412.000000	57.254242 
3411.000000	57.239794 
3410.000000	57.226562 
3409.000000	57.216286 
3408.000000	57.210826 
3407.000000	57.211732 
3406.000000	57.219910 
3405.000000	57.235336 
3404.000000	57.256770 
3403.000000	57.282018 
3402.000000	57.308435 
3401.000000	57.332944 
3400.000000	57.352924 
3399.000000	57.366204 
3398.000000	57.371258 
3397.000000	57.367467 
3396.000000	57.355141 
3395.000000	57.335591 
3394.000000	57.311129 
3393.000000	57.284927 
3392.000000	57.260775 
3391.000000	57.242178 
3390.000000	57.231783 
3389.000000	57.230806 
3388.000000	57.238864 
3387.000000	57.253694 
3386.000000	57.271504 
3385.000000	57.287955 
3384.000000	57.299041 
3383.000000	57.301926 
3382.000000	57.295823 
3381.000000	57.281756 
3380.000000	57.262635 
3379.000000	57.242131 
3378.000000	57.224059 
3377.000000	57.211399 
3376.000000	57.205581 
3375.000000	57.206439 
3374.000000	57.212233 
3373.000000	57.220506 
3372.000000	57.228302 
3371.000000	57.232928 
3370.000000	57.232213 
3369.000000	57.224845 
3368.000000	57.210516 
3367.000000	57.189893 
3366.000000	57.164621 
3365.000000	57.136750 
3364.000000	57.108998 
3363.000000	57.084321 
3362.000000	57.065343 
3361.000000	57.054066 
3360.000000	57.051062 
3359.000000	57.055282 
3358.000000	57.063961 
3357.000000	57.073211 
3356.000000	57.078647 
3355.000000	57.076644 
3354.000000	57.065010 
3353.000000	57.043886 
3352.000000	57.015633 
3351.000000	56.984686 
3350.000000	56.956219 
3349.000000	56.935381 
3348.000000	56.926321 
3347.000000	56.931018 
3346.000000	56.949210 
3345.000000	56.977868 
3344.000000	57.012128 
3343.000000	57.045722 
3342.000000	57.072281 
3341.000000	57.086515 
3340.000000	57.084965 
3339.000000	57.066631 
3338.000000	57.033109 
3337.000000	56.987810 
3336.000000	56.935310 
3335.000000	56.880664 
3334.000000	56.828546 
3333.000000	56.782960 
3332.000000	56.746602 
3331.000000	56.721138 
3330.000000	56.707191 
3329.000000	56.704235 
3328.000000	56.711030 
3327.000000	56.725430 
3326.000000	56.744766 
3325.000000	56.766223 
3324.000000	56.786870 
3323.000000	56.803727 
3322.000000	56.814289 
3321.000000	56.816554 
3320.000000	56.809282 
3319.000000	56.792068 
3318.000000	56.765580 
3317.000000	56.731438 
3316.000000	56.692552 
3315.000000	56.652593 
3314.000000	56.616044 
3313.000000	56.587529 
3312.000000	56.571054 
3311.000000	56.569266 
3310.000000	56.582570 
3309.000000	56.609153 
3308.000000	56.644654 
3307.000000	56.683182 
3306.000000	56.718373 
3305.000000	56.744742 
3304.000000	56.758713 
3303.000000	56.759333 
3302.000000	56.747961 
3301.000000	56.727600 
3300.000000	56.702232 
3299.000000	56.675410 
3298.000000	56.649518 
3297.000000	56.625699 
3296.000000	56.603789 
3295.000000	56.582832 
3294.000000	56.562328 
3293.000000	56.542134 
3292.000000	56.523108 
3291.000000	56.506657 
3290.000000	56.494259 
3289.000000	56.487107 
3288.000000	56.485009 
3287.000000	56.487059 
3286.000000	56.491494 
3285.000000	56.496214 
3284.000000	56.499385 
3283.000000	56.499552 
3282.000000	56.495738 
3281.000000	56.487584 
3280.000000	56.475067 
3279.000000	56.458568 
3278.000000	56.438827 
3277.000000	56.416869 
3276.000000	56.393957 
3275.000000	56.371569 
3274.000000	56.351137 
3273.000000	56.333923 
3272.000000	56.320595 
3271.000000	56.311368 
3270.000000	56.305646 
3269.000000	56.302595 
3268.000000	56.300973 
3267.000000	56.299424 
3266.000000	56.296944 
3265.000000	56.293058 
3264.000000	56.287622 
3263.000000	56.280851 
3262.000000	56.273245 
3261.000000	56.265044 
3260.000000	56.256604 
3259.000000	56.248426 
3258.000000	56.241059 
3257.000000	56.234979 
3256.000000	56.230664 
3255.000000	56.228303 
3254.000000	56.227588 
3253.000000	56.227850 
3252.000000	56.228160 
3251.000000	56.227684 
3250.000000	56.225728 
3249.000000	56.222081 
3248.000000	56.216907 
3247.000000	56.210994 
3246.000000	56.205177 
3245.000000	56.200480 
3244.000000	56.197786 
3243.000000	56.197404 
3242.000000	56.199479 
3241.000000	56.203293 
3240.000000	56.207704 
3239.000000	56.210732 
3238.000000	56.210422 
3237.000000	56.204390 
3236.000000	56.190371 
3235.000000	56.166601 
3234.000000	56.132388 
3233.000000	56.088376 
3232.000000	56.036782 
3231.000000	55.981349 
3230.000000	55.926942 
3229.000000	55.878496 
3228.000000	55.840039 
3227.000000	55.813884 
3226.000000	55.800271 
3225.000000	55.797219 
3224.000000	55.801177 
3223.000000	55.807733 
3222.000000	55.812454 
3221.000000	55.811929 
3220.000000	55.804419 
3219.000000	55.789613 
3218.000000	55.768895 
3217.000000	55.744504 
3216.000000	55.719375 
3215.000000	55.696129 
3214.000000	55.676746 
3213.000000	55.662417 
3212.000000	55.653500 
3211.000000	55.649590 
3210.000000	55.650162 
3209.000000	55.654406 
3208.000000	55.661845 
3207.000000	55.672144 
3206.000000	55.685496 
3205.000000	55.702328 
3204.000000	55.723094 
3203.000000	55.747699 
3202.000000	55.775022 
3201.000000	55.803036 
3200.000000	55.828547 
3199.000000	55.847859 
3198.000000	55.857419 
3197.000000	55.854558 
3196.000000	55.838561 
3195.000000	55.810832 
3194.000000	55.774617 
3193.000000	55.734491 
3192.000000	55.695605 
3191.000000	55.662369 
3190.000000	55.637907 
3189.000000	55.623412 
3188.000000	55.618238 
3187.000000	55.620288 
3186.000000	55.626964 
3185.000000	55.635714 
3184.000000	55.644702 
3183.000000	55.652713 
3182.000000	55.659031 
3181.000000	55.663180 
3180.000000	55.664420 
3179.000000	55.661487 
3178.000000	55.652809 
3177.000000	55.636930 
3176.000000	55.612969 
3175.000000	55.580973 
3174.000000	55.542254 
3173.000000	55.499315 
3172.000000	55.455541 
3171.000000	55.414748 
3170.000000	55.380511 
3169.000000	55.355477 
3168.000000	55.340933 
3167.000000	55.336761 
3166.000000	55.341362 
3165.000000	55.351924 
3164.000000	55.364990 
3163.000000	55.376911 
3162.000000	55.384635 
3161.000000	55.385756 
3160.000000	55.379343 
3159.000000	55.365514 
3158.000000	55.345892 
3157.000000	55.323052 
3156.000000	55.300331 
3155.000000	55.280804 
3154.000000	55.267310 
3153.000000	55.261611 
3152.000000	55.264496 
3151.000000	55.275607 
3150.000000	55.293512 
3149.000000	55.316114 
3148.000000	55.340909 
3147.000000	55.365109 
3146.000000	55.386281 
3145.000000	55.402612 
3144.000000	55.412888 
3143.000000	55.416512 
3142.000000	55.413866 
3141.000000	55.405473 
3140.000000	55.392193 
3139.000000	55.374288 
3138.000000	55.352067 
3137.000000	55.325341 
3136.000000	55.294084 
3135.000000	55.258822 
3134.000000	55.220603 
3133.000000	55.181574 
3132.000000	55.144929 
3131.000000	55.114412 
3130.000000	55.093359 
3129.000000	55.084300 
3128.000000	55.087947 
3127.000000	55.103254 
3126.000000	55.127167 
3125.000000	55.155634 
3124.000000	55.184340 
3123.000000	55.209851 
3122.000000	55.230140 
3121.000000	55.244994 
3120.000000	55.255603 
3119.000000	55.263900 
3118.000000	55.271720 
3117.000000	55.280065 
3116.000000	55.288505 
3115.000000	55.295419 
3114.000000	55.298089 
3113.000000	55.293703 
3112.000000	55.279684 
3111.000000	55.254888 
3110.000000	55.219411 
3109.000000	55.174851 
3108.000000	55.123805 
3107.000000	55.069303 
3106.000000	55.014562 
3105.000000	54.962706 
3104.000000	54.916477 
3103.000000	54.878067 
3102.000000	54.849028 
3101.000000	54.830312 
3100.000000	54.822015 
3099.000000	54.823327 
3098.000000	54.832792 
3097.000000	54.848337 
3096.000000	54.867482 
3095.000000	54.887652 
3094.000000	54.906487 
3093.000000	54.922151 
3092.000000	54.933357 
3091.000000	54.939532 
3090.000000	54.941058 
3089.000000	54.938936 
3088.000000	54.934644 
3087.000000	54.929780 
3086.000000	54.925704 
3085.000000	54.922938 
3084.000000	54.921436 
3083.000000	54.919791 
3082.000000	54.916000 
3081.000000	54.907274 
3080.000000	54.891157 
3079.000000	54.865813 
3078.000000	54.830718 
3077.000000	54.786849 
3076.000000	54.737067 
3075.000000	54.685258 
3074.000000	54.635572 
3073.000000	54.591989 
3072.000000	54.557394 
3071.000000	54.533338 
3070.000000	54.519891 
3069.000000	54.515886 
3068.000000	54.519319 
3067.000000	54.527783 
3066.000000	54.538822 
3065.000000	54.550242 
3064.000000	54.560160 
3063.000000	54.567360 
3062.000000	54.571104 
3061.000000	54.571104 
3060.000000	54.567384 
3059.000000	54.560518 
3058.000000	54.551100 
3057.000000	54.539942 
3056.000000	54.527735 
3055.000000	54.515075 
3054.000000	54.502344 
3053.000000	54.489660 
3052.000000	54.477143 
3051.000000	54.464793 
3050.000000	54.452896 
3049.000000	54.442024 
3048.000000	54.432868 
3047.000000	54.425907 
3046.000000	54.421472 
3045.000000	54.419589 
3044.000000	54.419779 
3043.000000	54.421091 
3042.000000	54.422307 
3041.000000	54.422402 
3040.000000	54.420590 
3039.000000	54.416418 
3038.000000	54.409933 
3037.000000	54.401516 
3036.000000	54.391860 
3035.000000	54.381680 
3034.000000	54.371476 
3033.000000	54.361343 
3032.000000	54.350948 
3031.000000	54.339528 
3030.000000	54.326152 
3029.000000	54.309964 
3028.000000	54.290533 
3027.000000	54.268193 
3026.000000	54.243898 
3025.000000	54.219388 
3024.000000	54.196858 
3023.000000	54.178547 
3022.000000	54.166340 
3021.000000	54.161429 
3020.000000	54.164004 
3019.000000	54.173398 
3018.000000	54.187822 
3017.000000	54.204797 
3016.000000	54.221558 
3015.000000	54.235386 
3014.000000	54.243946 
3013.000000	54.245662 
3012.000000	54.239821 
3011.000000	54.226779 
3010.000000	54.207706 
3009.000000	54.184532 
3008.000000	54.159450 
3007.000000	54.134726 
3006.000000	54.112219 
3005.000000	54.093194 
3004.000000	54.077768 
3003.000000	54.065442 
3002.000000	54.054999 
3001.000000	54.044699 
3000.000000	54.032778 
2999.000000	54.018020 
2998.000000	53.999567 
2997.000000	53.977274 
2996.000000	53.951835 
2995.000000	53.924226 
2994.000000	53.895831 
2993.000000	53.868079 
2992.000000	53.842210 
2991.000000	53.819227 
2990.000000	53.799724 
2989.000000	53.784012 
2988.000000	53.771829 
2987.000000	53.762817 
2986.000000	53.756260 
2985.000000	53.751325 
2984.000000	53.747010 
2983.000000	53.742170 
2982.000000	53.735852 
2981.000000	53.727364 
2980.000000	53.716564 
2979.000000	53.703832 
2978.000000	53.690099 
2977.000000	53.676772 
2976.000000	53.665375 
2975.000000	53.657245 
2974.000000	53.653049 
2973.000000	53.652429 
2972.000000	53.654026 
2971.000000	53.655552 
2970.000000	53.654313 
2969.000000	53.647708 
2968.000000	53.633809 
2967.000000	53.612065 
2966.000000	53.583383 
2965.000000	53.550410 
2964.000000	53.516626 
2963.000000	53.485894 
2962.000000	53.461599 
2961.000000	53.445792 
2960.000000	53.438925 
2959.000000	53.439998 
2958.000000	53.446793 
2957.000000	53.456497 
2956.000000	53.466320 
2955.000000	53.474330 
2954.000000	53.479743 
2953.000000	53.482651 
2952.000000	53.483867 
2951.000000	53.484392 
2950.000000	53.484964 
2949.000000	53.485751 
2948.000000	53.485941 
2947.000000	53.483963 
2946.000000	53.477692 
2945.000000	53.465414 
2944.000000	53.445935 
2943.000000	53.418898 
2942.000000	53.385162 
2941.000000	53.346753 
2940.000000	53.306627 
2939.000000	53.267884 
2938.000000	53.233289 
2937.000000	53.205037 
2936.000000	53.183960 
2935.000000	53.169631 
2934.000000	53.160119 
2933.000000	53.152799 
2932.000000	53.144383 
2931.000000	53.131628 
2930.000000	53.112006 
2929.000000	53.084111 
2928.000000	53.047943 
2927.000000	53.005146 
2926.000000	52.958440 
2925.000000	52.911543 
2924.000000	52.868485 
2923.000000	52.833032 
2922.000000	52.807974 
2921.000000	52.794981 
2920.000000	52.794075 
2919.000000	52.804160 
2918.000000	52.822756 
2917.000000	52.847266 
2916.000000	52.874684 
2915.000000	52.902722 
2914.000000	52.929663 
2913.000000	52.954673 
2912.000000	52.977466 
2911.000000	52.998208 
2910.000000	53.016996 
2909.000000	53.033542 
2908.000000	53.046965 
2907.000000	53.055834 
2906.000000	53.058743 
2905.000000	53.054380 
2904.000000	53.042006 
2903.000000	53.021836 
2902.000000	52.995133 
2901.000000	52.964043 
2900.000000	52.931356 
2899.000000	52.899837 
2898.000000	52.871727 
2897.000000	52.848434 
2896.000000	52.830219 
2895.000000	52.816486 
2894.000000	52.805995 
2893.000000	52.797627 
2892.000000	52.790570 
2891.000000	52.784490 
2890.000000	52.779626 
2889.000000	52.776312 
2888.000000	52.774763 
2887.000000	52.774453 
2886.000000	52.774667 
2885.000000	52.774500 
2884.000000	52.773022 
2883.000000	52.769708 
2882.000000	52.764463 
2881.000000	52.757668 
2880.000000	52.749800 
2879.000000	52.741169 
2878.000000	52.731466 
2877.000000	52.719783 
2876.000000	52.704977 
2875.000000	52.685952 
2874.000000	52.662253 
2873.000000	52.634239 
2872.000000	52.603554 
2871.000000	52.572560 
2870.000000	52.543616 
2869.000000	52.518463 
2868.000000	52.497577 
2867.000000	52.480149 
2866.000000	52.463936 
2865.000000	52.446341 
2864.000000	52.424931 
2863.000000	52.398610 
2862.000000	52.367520 
2861.000000	52.333688 
2860.000000	52.299904 
2859.000000	52.269601 
2858.000000	52.245402 
2857.000000	52.229070 
2856.000000	52.220654 
2855.000000	52.219104 
2854.000000	52.222418 
2853.000000	52.228689 
2852.000000	52.236533 
2851.000000	52.245426 
2850.000000	52.255678 
2849.000000	52.268147 
2848.000000	52.283549 
2847.000000	52.302026 
2846.000000	52.322769 
2845.000000	52.344059 
2844.000000	52.363276 
2843.000000	52.377557 
2842.000000	52.384138 
2841.000000	52.381372 
2840.000000	52.368807 
2839.000000	52.347254 
2838.000000	52.318668 
2837.000000	52.286100 
2836.000000	52.253007 
2835.000000	52.222466 
2834.000000	52.196741 
2833.000000	52.177262 
2832.000000	52.164340 
2831.000000	52.157449 
2830.000000	52.155470 
2829.000000	52.156901 
2828.000000	52.160429 
2827.000000	52.164864 
2826.000000	52.169513 
2825.000000	52.173900 
2824.000000	52.177572 
2823.000000	52.180051 
2822.000000	52.180504 
2821.000000	52.178096 
2820.000000	52.171897 
2819.000000	52.161240 
2818.000000	52.146077 
2817.000000	52.127146 
2816.000000	52.106022 
2815.000000	52.085089 
2814.000000	52.066874 
2813.000000	52.053666 
2812.000000	52.047109 
2811.000000	52.047491 
2810.000000	52.053713 
2809.000000	52.063298 
2808.000000	52.072930 
2807.000000	52.078938 
2806.000000	52.078080 
2805.000000	52.067971 
2804.000000	52.047467 
2803.000000	52.016973 
2802.000000	51.978182 
2801.000000	51.933789 
2800.000000	51.887059 
2799.000000	51.841306 
2798.000000	51.799583 
2797.000000	51.764297 
2796.000000	51.737070 
2795.000000	51.718568 
2794.000000	51.708626 
2793.000000	51.706147 
2792.000000	51.709461 
2791.000000	51.716232 
2790.000000	51.723933 
2789.000000	51.730322 
2788.000000	51.733326 
2787.000000	51.731634 
2786.000000	51.724600 
2785.000000	51.712226 
2784.000000	51.695084 
2783.000000	51.674103 
2782.000000	51.650476 
2781.000000	51.625514 
2780.000000	51.600623 
2779.000000	51.577138 
2778.000000	51.556158 
2777.000000	51.538586 
2776.000000	51.524996 
2775.000000	51.515340 
2774.000000	51.509356 
2773.000000	51.506352 
2772.000000	51.505517 
2771.000000	51.505851 
2770.000000	51.506400 
2769.000000	51.506328 
2768.000000	51.504921 
2767.000000	51.501679 
2766.000000	51.496148 
2765.000000	51.488018 
2764.000000	51.477122 
2763.000000	51.463580 
2762.000000	51.447653 
2761.000000	51.429963 
2760.000000	51.411342 
2759.000000	51.392793 
2758.000000	51.375222 
2757.000000	51.359248 
2756.000000	51.345324 
2755.000000	51.333427 
2754.000000	51.323223 
2753.000000	51.314306 
2752.000000	51.306343 
2751.000000	51.298880 
2750.000000	51.291656 
2749.000000	51.284313 
2748.000000	51.276516 
2747.000000	51.267862 
2746.000000	51.257872 
2745.000000	51.245927 
2744.000000	51.231527 
2743.000000	51.214337 
2742.000000	51.194143 
2741.000000	51.171064 
2740.000000	51.145625 
2739.000000	51.118588 
2738.000000	51.091122 
2737.000000	51.064467 
2736.000000	51.040029 
2735.000000	51.019144 
2734.000000	51.003193 
2733.000000	50.993084 
2732.000000	50.989389 
2731.000000	50.991845 
2730.000000	50.999569 
2729.000000	51.011061 
2728.000000	51.024317 
2727.000000	51.037073 
2726.000000	51.047205 
2725.000000	51.053118 
2724.000000	51.053690 
2723.000000	51.048421 
2722.000000	51.037311 
2721.000000	51.020956 
2720.000000	51.000261 
2719.000000	50.976419 
2718.000000	50.950670 
2717.000000	50.924420 
2716.000000	50.899124 
2715.000000	50.876116 
2714.000000	50.856637 
2713.000000	50.841426 
2712.000000	50.830674 
2711.000000	50.823879 
2710.000000	50.819921 
2709.000000	50.817298 
2708.000000	50.814485 
2707.000000	50.810289 
2706.000000	50.804114 
2705.000000	50.796079 
2704.000000	50.786828 
2703.000000	50.777363 
2702.000000	50.768709 
2701.000000	50.761699 
2700.000000	50.756669 
2699.000000	50.753402 
2698.000000	50.751209 
2697.000000	50.749135 
2696.000000	50.746273 
2695.000000	50.741672 
2694.000000	50.734567 
2693.000000	50.724315 
2692.000000	50.710511 
2691.000000	50.692868 
2690.000000	50.671124 
2689.000000	50.645375 
2688.000000	50.616288 
2687.000000	50.584983 
2686.000000	50.553011 
2685.000000	50.522303 
2684.000000	50.494599 
2683.000000	50.471329 
2682.000000	50.453376 
2681.000000	50.441002 
2680.000000	50.433754 
2679.000000	50.430655 
2678.000000	50.430417 
2677.000000	50.431871 
2676.000000	50.434041 
2675.000000	50.436019 
2674.000000	50.437116 
2673.000000	50.436806 
2672.000000	50.434708 
2671.000000	50.430417 
2670.000000	50.423526 
2669.000000	50.413966 
2668.000000	50.401711 
2667.000000	50.387120 
2666.000000	50.370478 
2665.000000	50.352096 
2664.000000	50.332188 
2663.000000	50.310826 
2662.000000	50.288176 
2661.000000	50.264716 
2660.000000	50.241446 
2659.000000	50.219583 
2658.000000	50.200676 
2657.000000	50.186085 
2656.000000	50.176548 
2655.000000	50.171780 
2654.000000	50.170350 
2653.000000	50.169920 
2652.000000	50.167369 
2651.000000	50.159907 
2650.000000	50.145411 
2649.000000	50.123381 
2648.000000	50.094819 
2647.000000	50.062489 
2646.000000	50.029993 
2645.000000	50.001502 
2644.000000	49.980425 
2643.000000	49.969100 
2642.000000	49.968290 
2641.000000	49.976921 
2640.000000	49.992537 
2639.000000	50.011682 
2638.000000	50.030469 
2637.000000	50.045132 
2636.000000	50.052690 
2635.000000	50.051259 
2634.000000	50.040173 
2633.000000	50.020051 
2632.000000	49.992513 
2631.000000	49.959731 
2630.000000	49.924015 
2629.000000	49.887490 
2628.000000	49.851775 
2627.000000	49.818015 
2626.000000	49.786758 
2625.000000	49.758291 
2624.000000	49.732708 
2623.000000	49.710035 
2622.000000	49.690628 
2621.000000	49.674558 
2620.000000	49.662208 
2619.000000	49.653863 
2618.000000	49.649620 
2617.000000	49.649167 
2616.000000	49.651670 
2615.000000	49.655795 
2614.000000	49.659848 
2613.000000	49.661827 
2612.000000	49.659967 
2611.000000	49.652886 
2610.000000	49.639892 
2609.000000	49.621200 
2608.000000	49.598097 
2607.000000	49.572610 
2606.000000	49.547243 
2605.000000	49.524331 
2604.000000	49.505615 
2603.000000	49.491786 
2602.000000	49.482512 
2601.000000	49.476432 
2600.000000	49.471640 
2599.000000	49.466228 
2598.000000	49.458765 
2597.000000	49.448537 
2596.000000	49.435472 
2595.000000	49.420189 
2594.000000	49.403452 
2593.000000	49.386119 
2592.000000	49.368643 
2591.000000	49.351048 
2590.000000	49.333143 
2589.000000	49.314498 
2588.000000	49.294877 
2587.000000	49.274277 
2586.000000	49.253106 
2585.000000	49.232149 
2584.000000	49.212336 
2583.000000	49.194717 
2582.000000	49.180126 
2581.000000	49.169301 
2580.000000	49.162817 
2579.000000	49.161076 
2578.000000	49.164056 
2577.000000	49.171304 
2576.000000	49.181795 
2575.000000	49.193906 
2574.000000	49.205708 
2573.000000	49.215102 
2572.000000	49.220299 
2571.000000	49.220132 
2570.000000	49.214363 
2569.000000	49.203538 
2568.000000	49.188923 
2567.000000	49.172210 
2566.000000	49.154901 
2565.000000	49.138259 
2564.000000	49.123001 
2563.000000	49.109387 
2562.000000	49.097013 
2561.000000	49.085474 
2560.000000	49.074268 
2559.000000	49.063253 
2558.000000	49.052643 
2557.000000	49.042940 
2556.000000	49.034738 
2555.000000	49.028396 
2554.000000	49.023938 
2553.000000	49.020814 
2552.000000	49.017977 
2551.000000	49.014115 
2550.000000	49.008011 
2549.000000	48.998832 
2548.000000	48.986315 
2547.000000	48.970937 
2546.000000	48.953676 
2545.000000	48.935890 
2544.000000	48.918700 
2543.000000	48.902869 
2542.000000	48.888659 
2541.000000	48.875617 
2540.000000	48.862767 
2539.000000	48.848962 
2538.000000	48.833179 
2537.000000	48.814916 
2536.000000	48.794102 
2535.000000	48.771476 
2534.000000	48.747920 
2533.000000	48.724913 
2532.000000	48.703813 
2531.000000	48.685884 
2530.000000	48.672080 
2529.000000	48.662877 
2528.000000	48.658323 
2527.000000	48.657727 
2526.000000	48.659873 
2525.000000	48.663043 
2524.000000	48.665380 
2523.000000	48.665404 
2522.000000	48.662090 
2521.000000	48.655200 
2520.000000	48.645138 
2519.000000	48.632788 
2518.000000	48.618984 
2517.000000	48.604202 
2516.000000	48.588180 
2515.000000	48.570036 
2514.000000	48.548531 
2513.000000	48.522591 
2512.000000	48.491740 
2511.000000	48.456501 
2510.000000	48.418641 
2509.000000	48.380804 
2508.000000	48.346138 
2507.000000	48.317456 
2506.000000	48.296499 
2505.000000	48.283648 
2504.000000	48.277688 
2503.000000	48.276305 
2502.000000	48.276543 
2501.000000	48.275637 
2500.000000	48.271608 
2499.000000	48.263406 
2498.000000	48.251128 
2497.000000	48.235750 
2496.000000	48.218655 
2495.000000	48.201203 
2494.000000	48.184227 
2493.000000	48.167991 
2492.000000	48.152065 
2491.000000	48.135590 
2490.000000	48.117685 
2489.000000	48.097705 
2488.000000	48.075675 
2487.000000	48.052215 
2486.000000	48.028302 
2485.000000	48.005390 
2484.000000	47.984647 
2483.000000	47.966814 
2482.000000	47.952032 
2481.000000	47.939729 
2480.000000	47.928977 
2479.000000	47.918796 
2478.000000	47.908425 
2477.000000	47.897696 
2476.000000	47.887039 
2475.000000	47.877502 
2474.000000	47.870469 
2473.000000	47.867250 
2472.000000	47.868704 
2471.000000	47.874975 
2470.000000	47.885274 
2469.000000	47.898340 
2468.000000	47.912549 
2467.000000	47.926259 
2466.000000	47.937965 
2465.000000	47.946572 
2464.000000	47.951054 
2463.000000	47.950959 
2462.000000	47.945785 
2461.000000	47.934818 
2460.000000	47.916984 
2459.000000	47.891759 
2458.000000	47.858786 
2457.000000	47.818160 
2456.000000	47.770762 
2455.000000	47.718620 
2454.000000	47.664833 
2453.000000	47.612905 
2452.000000	47.566723 
2451.000000	47.529745 
2450.000000	47.504472 
2449.000000	47.491812 
2448.000000	47.490906 
2447.000000	47.498869 
2446.000000	47.511410 
2445.000000	47.523474 
2444.000000	47.529935 
2443.000000	47.526502 
2442.000000	47.510862 
2441.000000	47.483348 
2440.000000	47.446489 
2439.000000	47.405099 
2438.000000	47.365522 
2437.000000	47.334694 
2436.000000	47.318387 
2435.000000	47.320461 
2434.000000	47.342276 
2433.000000	47.382426 
2432.000000	47.436690 
2431.000000	47.499346 
2430.000000	47.563886 
2429.000000	47.624301 
2428.000000	47.675895 
2427.000000	47.715711 
2426.000000	47.742700 
2425.000000	47.757196 
2424.000000	47.760748 
2423.000000	47.754931 
2422.000000	47.741127 
2421.000000	47.720003 
2420.000000	47.692060 
2419.000000	47.656941 
2418.000000	47.614288 
2417.000000	47.563838 
2416.000000	47.506213 
2415.000000	47.442412 
2414.000000	47.374320 
2413.000000	47.304058 
2412.000000	47.234225 
2411.000000	47.167468 
2410.000000	47.106313 
2409.000000	47.052860 
2408.000000	47.008705 
2407.000000	46.974825 
2406.000000	46.951580 
2405.000000	46.938419 
2404.000000	46.934127 
2403.000000	46.936488 
2402.000000	46.943116 
2401.000000	46.950793 
2400.000000	46.956777 
2399.000000	46.958994 
2398.000000	46.956276 
2397.000000	46.948218 
2396.000000	46.935701 
2395.000000	46.920537 
2394.000000	46.904993 
2393.000000	46.890997 
2392.000000	46.880173 
2391.000000	46.873402 
2390.000000	46.870660 
2389.000000	46.871042 
2388.000000	46.873140 
2387.000000	46.875262 
2386.000000	46.875810 
2385.000000	46.873593 
2384.000000	46.867680 
2383.000000	46.857595 
2382.000000	46.843457 
2381.000000	46.825957 
2380.000000	46.806120 
2379.000000	46.785259 
2378.000000	46.765089 
2377.000000	46.747303 
2376.000000	46.732997 
2375.000000	46.722602 
2374.000000	46.715927 
2373.000000	46.711707 
2372.000000	46.708106 
2371.000000	46.702694 
2370.000000	46.693110 
2369.000000	46.677255 
2368.000000	46.653771 
2367.000000	46.621966 
2366.000000	46.582007 
2365.000000	46.534657 
2364.000000	46.481251 
2363.000000	46.423435 
2362.000000	46.363186 
2361.000000	46.302771 
2360.000000	46.244668 
2359.000000	46.191692 
2358.000000	46.146535 
2357.000000	46.111440 
2356.000000	46.088123 
2355.000000	46.077013 
2354.000000	46.077585 
2353.000000	46.088051 
2352.000000	46.106243 
2351.000000	46.129322 
2350.000000	46.154642 
2349.000000	46.179819 
2348.000000	46.203136 
2347.000000	46.223330 
2346.000000	46.239662 
2345.000000	46.251606 
2344.000000	46.258759 
2343.000000	46.260929 
2342.000000	46.257925 
2341.000000	46.249842 
2340.000000	46.237063 
2339.000000	46.220421 
2338.000000	46.200966 
2337.000000	46.179842 
2336.000000	46.158218 
2335.000000	46.137070 
2334.000000	46.117019 
2333.000000	46.098351 
2332.000000	46.081233 
2331.000000	46.065711 
2330.000000	46.051788 
2329.000000	46.039414 
2328.000000	46.028590 
2327.000000	46.019196 
2326.000000	46.010899 
2325.000000	46.003103 
2324.000000	45.995020 
2323.000000	45.985889 
2322.000000	45.975184 
2321.000000	45.962667 
2320.000000	45.948457 
2319.000000	45.933079 
2318.000000	45.917344 
2317.000000	45.902061 
2316.000000	45.887732 
2315.000000	45.874691 
2314.000000	45.863127 
2313.000000	45.852875 
2312.000000	45.843553 
2311.000000	45.834732 
2310.000000	45.825910 
2309.000000	45.816421 
2308.000000	45.805525 
2307.000000	45.792579 
2306.000000	45.777058 
2305.000000	45.758438 
2304.000000	45.736646 
2303.000000	45.711874 
2302.000000	45.684719 
2301.000000	45.656132 
2300.000000	45.627164 
2299.000000	45.598888 
2298.000000	45.572209 
2297.000000	45.547795 
2296.000000	45.526313 
2295.000000	45.508313 
2294.000000	45.494246 
2293.000000	45.484542 
2292.000000	45.479488 
2291.000000	45.478773 
2290.000000	45.481681 
2289.000000	45.486855 
2288.000000	45.492553 
2287.000000	45.496821 
2286.000000	45.497894 
2285.000000	45.494651 
2284.000000	45.486521 
2283.000000	45.473480 
2282.000000	45.456051 
2281.000000	45.435023 
2280.000000	45.411229 
2279.000000	45.385289 
2278.000000	45.357751 
2277.000000	45.329117 
2276.000000	45.299959 
2275.000000	45.271182 
2274.000000	45.243906 
2273.000000	45.219349 
2272.000000	45.198369 
2271.000000	45.181441 
2270.000000	45.168185 
2269.000000	45.157718 
2268.000000	45.148611 
2267.000000	45.139551 
2266.000000	45.129537 
2265.000000	45.118284 
2264.000000	45.106220 
2263.000000	45.094442 
2262.000000	45.084381 
2261.000000	45.077443 
2260.000000	45.074725 
2259.000000	45.076537 
2258.000000	45.082449 
2257.000000	45.091199 
2256.000000	45.100879 
2255.000000	45.109248 
2254.000000	45.113968 
2253.000000	45.112848 
2252.000000	45.104360 
2251.000000	45.087695 
2250.000000	45.063328 
2249.000000	45.032453 
2248.000000	44.997262 
2247.000000	44.960546 
2246.000000	44.925165 
2245.000000	44.893527 
2244.000000	44.867062 
2243.000000	44.846272 
2242.000000	44.830584 
2241.000000	44.818687 
2240.000000	44.809031 
2239.000000	44.800305 
2238.000000	44.791841 
2237.000000	44.783616 
2236.000000	44.776177 
2235.000000	44.770240 
2234.000000	44.766116 
2233.000000	44.763541 
2232.000000	44.761419 
2231.000000	44.758057 
2230.000000	44.751787 
2229.000000	44.741511 
2228.000000	44.727206 
2227.000000	44.709992 
2226.000000	44.692015 
2225.000000	44.675970 
2224.000000	44.664144 
2223.000000	44.657802 
2222.000000	44.657039 
2221.000000	44.660496 
2220.000000	44.665813 
2219.000000	44.670057 
2218.000000	44.670605 
2217.000000	44.665598 
2216.000000	44.654464 
2215.000000	44.637846 
2214.000000	44.617390 
2213.000000	44.595360 
2212.000000	44.574141 
2211.000000	44.555544 
2210.000000	44.540810 
2209.000000	44.530177 
2208.000000	44.523143 
2207.000000	44.518470 
2206.000000	44.514775 
2205.000000	44.510602 
2204.000000	44.504666 
2203.000000	44.496202 
2202.000000	44.484972 
2201.000000	44.471502 
2200.000000	44.456553 
2199.000000	44.441127 
2198.000000	44.426012 
2197.000000	44.411730 
2196.000000	44.398260 
2195.000000	44.385027 
2194.000000	44.371080 
2193.000000	44.355297 
2192.000000	44.336795 
2191.000000	44.315075 
2190.000000	44.289994 
2189.000000	44.262194 
2188.000000	44.232702 
2187.000000	44.202923 
2186.000000	44.174194 
2185.000000	44.147586 
2184.000000	44.123506 
2183.000000	44.101572 
2182.000000	44.080829 
2181.000000	44.059777 
2180.000000	44.037151 
2179.000000	44.011974 
2178.000000	43.984222 
2177.000000	43.954539 
2176.000000	43.924736 
2175.000000	43.896937 
2174.000000	43.873572 
2173.000000	43.856430 
2172.000000	43.846368 
2171.000000	43.843245 
2170.000000	43.845844 
2169.000000	43.852281 
2168.000000	43.860530 
2167.000000	43.868851 
2166.000000	43.876147 
2165.000000	43.881773 
2164.000000	43.885517 
2163.000000	43.887352 
2162.000000	43.887090 
2161.000000	43.884444 
2160.000000	43.879008 
2159.000000	43.870329 
2158.000000	43.858671 
2157.000000	43.844246 
2156.000000	43.827676 
2155.000000	43.809366 
2154.000000	43.789672 
2153.000000	43.768310 
2152.000000	43.744444 
2151.000000	43.716907 
2150.000000	43.684983 
2149.000000	43.648624 
2148.000000	43.608975 
2147.000000	43.568372 
2146.000000	43.530058 
2145.000000	43.497371 
2144.000000	43.472957 
2143.000000	43.457937 
2142.000000	43.451786 
2141.000000	43.452239 
2140.000000	43.456101 
2139.000000	43.459916 
2138.000000	43.460822 
2137.000000	43.457126 
2136.000000	43.448638 
2135.000000	43.436002 
2134.000000	43.420767 
2133.000000	43.404436 
2132.000000	43.388390 
2131.000000	43.373274 
2130.000000	43.359136 
2129.000000	43.345880 
2128.000000	43.333315 
2127.000000	43.321681 
2126.000000	43.311309 
2125.000000	43.302702 
2124.000000	43.296051 
2123.000000	43.291139 
2122.000000	43.287014 
2121.000000	43.282222 
2120.000000	43.275213 
2119.000000	43.264532 
2118.000000	43.249368 
2117.000000	43.229794 
2116.000000	43.206667 
2115.000000	43.181657 
2114.000000	43.156552 
2113.000000	43.132901 
2112.000000	43.111848 
2111.000000	43.093800 
2110.000000	43.078541 
2109.000000	43.065476 
2108.000000	43.053817 
2107.000000	43.042969 
2106.000000	43.032574 
2105.000000	43.022680 
2104.000000	43.013262 
2103.000000	43.004536 
2102.000000	42.996740 
2101.000000	42.990159 
2100.000000	42.984938 
2099.000000	42.980837 
2098.000000	42.977452 
2097.000000	42.973971 
2096.000000	42.969417 
2095.000000	42.962813 
2094.000000	42.953276 
2093.000000	42.940258 
2092.000000	42.923688 
2091.000000	42.903780 
2090.000000	42.881178 
2089.000000	42.856645 
2088.000000	42.831134 
2087.000000	42.805862 
2086.000000	42.782139 
2085.000000	42.761373 
2084.000000	42.744421 
2083.000000	42.732000 
2082.000000	42.723846 
2081.000000	42.719030 
2080.000000	42.715668 
2079.000000	42.711162 
2078.000000	42.702722 
2077.000000	42.687845 
2076.000000	42.665386 
2075.000000	42.635726 
2074.000000	42.601203 
2073.000000	42.565584 
2072.000000	42.533469 
2071.000000	42.509055 
2070.000000	42.495465 
2069.000000	42.493677 
2068.000000	42.502713 
2067.000000	42.519783 
2066.000000	42.540979 
2065.000000	42.562031 
2064.000000	42.578887 
2063.000000	42.588353 
2062.000000	42.588329 
2061.000000	42.578101 
2060.000000	42.558002 
2059.000000	42.529392 
2058.000000	42.494463 
2057.000000	42.455863 
2056.000000	42.416477 
2055.000000	42.378973 
2054.000000	42.345738 
2053.000000	42.318224 
2052.000000	42.296934 
2051.000000	42.281150 
2050.000000	42.269396 
2049.000000	42.259621 
2048.000000	42.249846 
2047.000000	42.238593 
2046.000000	42.225193 
2045.000000	42.209839 
2044.000000	42.193293 
2043.000000	42.176699 
2042.000000	42.161059 
2041.000000	42.147350 
2040.000000	42.136263 
2039.000000	42.128229 
2038.000000	42.123413 
2037.000000	42.121863 
2036.000000	42.123365 
2035.000000	42.127156 
2034.000000	42.132043 
2033.000000	42.136454 
2032.000000	42.138695 
2031.000000	42.137002 
2030.000000	42.130160 
2029.000000	42.117834 
2028.000000	42.100691 
2027.000000	42.080616 
2026.000000	42.060017 
2025.000000	42.041277 
2024.000000	42.026185 
2023.000000	42.015647 
2022.000000	42.009401 
2021.000000	42.006158 
2020.000000	42.003941 
2019.000000	42.000699 
2018.000000	41.994524 
2017.000000	41.984176 
2016.000000	41.969060 
2015.000000	41.949033 
2014.000000	41.924381 
2013.000000	41.895771 
2012.000000	41.863870 
2011.000000	41.829514 
2010.000000	41.793656 
2009.000000	41.757535 
2008.000000	41.722583 
2007.000000	41.690230 
2006.000000	41.661596 
2005.000000	41.637659 
2004.000000	41.618609 
2003.000000	41.604423 
2002.000000	41.594767 
2001.000000	41.589498 
2000.000000	41.588377 
1999.000000	41.591238 
1998.000000	41.597795 
1997.000000	41.607427 
1996.000000	41.618824 
1995.000000	41.630268 
1994.000000	41.639471 
1993.000000	41.644096 
1992.000000	41.642332 
1991.000000	41.632819 
1990.000000	41.615271 
1989.000000	41.590118 
1988.000000	41.558480 
1987.000000	41.521859 
1986.000000	41.481828 
1985.000000	41.439795 
1984.000000	41.397070 
1983.000000	41.355204 
1982.000000	41.315770 
1981.000000	41.280817 
1980.000000	41.252326 
1979.000000	41.231703 
1978.000000	41.219520 
1977.000000	41.214847 
1976.000000	41.215777 
1975.000000	41.219401 
1974.000000	41.222691 
1973.000000	41.223168 
1972.000000	41.219496 
1971.000000	41.211509 
1970.000000	41.200280 
1969.000000	41.187334 
1968.000000	41.174340 
1967.000000	41.162228 
1966.000000	41.150927 
1965.000000	41.139459 
1964.000000	41.126155 
1963.000000	41.109228 
1962.000000	41.087388 
1961.000000	41.060328 
1960.000000	41.028904 
1959.000000	40.995001 
1958.000000	40.961146 
1957.000000	40.929818 
1956.000000	40.903139 
1955.000000	40.882301 
1954.000000	40.867757 
1953.000000	40.858864 
1952.000000	40.854167 
1951.000000	40.851688 
1950.000000	40.849375 
1949.000000	40.845394 
1948.000000	40.838313 
1947.000000	40.827560 
1946.000000	40.813159 
1945.000000	40.795922 
1944.000000	40.777087 
1943.000000	40.758323 
1942.000000	40.741157 
1941.000000	40.726971 
1940.000000	40.716743 
1939.000000	40.710926 
1938.000000	40.709352 
1937.000000	40.711236 
1936.000000	40.715289 
1935.000000	40.719938 
1934.000000	40.723490 
1933.000000	40.724325 
1932.000000	40.721082 
1931.000000	40.712881 
1930.000000	40.699481 
1929.000000	40.681409 
1928.000000	40.659928 
1927.000000	40.636825 
1926.000000	40.614056 
1925.000000	40.593385 
1924.000000	40.575933 
1923.000000	40.562081 
1922.000000	40.551185 
1921.000000	40.542054 
1920.000000	40.533065 
1919.000000	40.522646 
1918.000000	40.509462 
1917.000000	40.492892 
1916.000000	40.472888 
1915.000000	40.449810 
1914.000000	40.424442 
1913.000000	40.397715 
1912.000000	40.370512 
1911.000000	40.343642 
1910.000000	40.317630 
1909.000000	40.292906 
1908.000000	40.269637 
1907.000000	40.247941 
1906.000000	40.227794 
1905.000000	40.209007 
1904.000000	40.191268 
1903.000000	40.174198 
1902.000000	40.157341 
1901.000000	40.140485 
1900.000000	40.123701 
1899.000000	40.107321 
1898.000000	40.091609 
1897.000000	40.076971 
1896.000000	40.063619 
1895.000000	40.051627 
1894.000000	40.040707 
1893.000000	40.030503 
1892.000000	40.020465 
1891.000000	40.010213 
1890.000000	39.999341 
1889.000000	39.987659 
1888.000000	39.975118 
1887.000000	39.961934 
1886.000000	39.948463 
1885.000000	39.935302 
1884.000000	39.922881 
1883.000000	39.911532 
1882.000000	39.901280 
1881.000000	39.891791 
1880.000000	39.882588 
1879.000000	39.873027 
1878.000000	39.862585 
1877.000000	39.851117 
1876.000000	39.838981 
1875.000000	39.826965 
1874.000000	39.816308 
1873.000000	39.808154 
1872.000000	39.803409 
1871.000000	39.802384 
1870.000000	39.804434 
1869.000000	39.808225 
1868.000000	39.811635 
1867.000000	39.812588 
1866.000000	39.809083 
1865.000000	39.799904 
1864.000000	39.784789 
1863.000000	39.764356 
1862.000000	39.739823 
1861.000000	39.712905 
1860.000000	39.685177 
1859.000000	39.658117 
1858.000000	39.632606 
1857.000000	39.609122 
1856.000000	39.587569 
1855.000000	39.567756 
1854.000000	39.549279 
1853.000000	39.531803 
1852.000000	39.515066 
1851.000000	39.499044 
1850.000000	39.483690 
1849.000000	39.469027 
1848.000000	39.455056 
1847.000000	39.441847 
1846.000000	39.429450 
1845.000000	39.417934 
1844.000000	39.407181 
1843.000000	39.397072 
1842.000000	39.387536 
1841.000000	39.378452 
1840.000000	39.369726 
1839.000000	39.361310 
1838.000000	39.353251 
1837.000000	39.345431 
1836.000000	39.337778 
1835.000000	39.329862 
1834.000000	39.320945 
1833.000000	39.309883 
1832.000000	39.295315 
1831.000000	39.276027 
1830.000000	39.251160 
1829.000000	39.220595 
1828.000000	39.185118 
1827.000000	39.146423 
1826.000000	39.106941 
1825.000000	39.069223 
1824.000000	39.035534 
1823.000000	39.007353 
1822.000000	38.985157 
1821.000000	38.968420 
1820.000000	38.955998 
1819.000000	38.946533 
1818.000000	38.938951 
1817.000000	38.932704 
1816.000000	38.927841 
1815.000000	38.924813 
1814.000000	38.923978 
1813.000000	38.925409 
1812.000000	38.928556 
1811.000000	38.931918 
1810.000000	38.933753 
1809.000000	38.932132 
1808.000000	38.925719 
1807.000000	38.914012 
1806.000000	38.897705 
1805.000000	38.878488 
1804.000000	38.858628 
1803.000000	38.840603 
1802.000000	38.826203 
1801.000000	38.816165 
1800.000000	38.809871 
1799.000000	38.805913 
1798.000000	38.802027 
1797.000000	38.795971 
1796.000000	38.786172 
1795.000000	38.772082 
1794.000000	38.754224 
1793.000000	38.734078 
1792.000000	38.713622 
1791.000000	38.694834 
1790.000000	38.678979 
1789.000000	38.666486 
1788.000000	38.656663 
1787.000000	38.648033 
1786.000000	38.638901 
1785.000000	38.627552 
1784.000000	38.612866 
1783.000000	38.594675 
1782.000000	38.573861 
1781.000000	38.551950 
1780.000000	38.530802 
1779.000000	38.512134 
1778.000000	38.497209 
1777.000000	38.486456 
1776.000000	38.479471 
1775.000000	38.475131 
1774.000000	38.471984 
1773.000000	38.468599 
1772.000000	38.463854 
1771.000000	38.457298 
1770.000000	38.449001 
1769.000000	38.439488 
1768.000000	38.429284 
1767.000000	38.418865 
1766.000000	38.408374 
1765.000000	38.397455 
1764.000000	38.385224 
1763.000000	38.370752 
1762.000000	38.353204 
1761.000000	38.332104 
1760.000000	38.307523 
1759.000000	38.280248 
1758.000000	38.251256 
1757.000000	38.221931 
1756.000000	38.193583 
1755.000000	38.166975 
1754.000000	38.142800 
1753.000000	38.121104 
1752.000000	38.101959 
1751.000000	38.085412 
1750.000000	38.071727 
1749.000000	38.061189 
1748.000000	38.054013 
1747.000000	38.050174 
1746.000000	38.048863 
1745.000000	38.048410 
1744.000000	38.046383 
1743.000000	38.040018 
1742.000000	38.026666 
1741.000000	38.004446 
1740.000000	37.972974 
1739.000000	37.933611 
1738.000000	37.889242 
1737.000000	37.843966 
1736.000000	37.802004 
1735.000000	37.767004 
1734.000000	37.741255 
1733.000000	37.725281 
1732.000000	37.717866 
1731.000000	37.716221 
1730.000000	37.717223 
1729.000000	37.717580 
1728.000000	37.714672 
1727.000000	37.706780 
1726.000000	37.693238 
1725.000000	37.674164 
1724.000000	37.650227 
1723.000000	37.622404 
1722.000000	37.591743 
1721.000000	37.559270 
1720.000000	37.526249 
1719.000000	37.493920 
1718.000000	37.463712 
1717.000000	37.436938 
1716.000000	37.414741 
1715.000000	37.397575 
1714.000000	37.385296 
1713.000000	37.377047 
1712.000000	37.371683 
1711.000000	37.367868 
1710.000000	37.364530 
1709.000000	37.361121 
1708.000000	37.357831 
1707.000000	37.355327 
1706.000000	37.354636 
1705.000000	37.356519 
1704.000000	37.361025 
1703.000000	37.367677 
1702.000000	37.375187 
1701.000000	37.381601 
1700.000000	37.384676 
1699.000000	37.382578 
1698.000000	37.374043 
1697.000000	37.358736 
1696.000000	37.337136 
1695.000000	37.310600 
1694.000000	37.281036 
1693.000000	37.250423 
1692.000000	37.220740 
1691.000000	37.193608 
1690.000000	37.170052 
1689.000000	37.150549 
1688.000000	37.135124 
1687.000000	37.123441 
1686.000000	37.114977 
1685.000000	37.109351 
1684.000000	37.106108 
1683.000000	37.104868 
1682.000000	37.105321 
1681.000000	37.107300 
1680.000000	37.110304 
1679.000000	37.113547 
1678.000000	37.116122 
1677.000000	37.116813 
1676.000000	37.114405 
1675.000000	37.107753 
1674.000000	37.096428 
1673.000000	37.080478 
1672.000000	37.060618 
1671.000000	37.038207 
1670.000000	37.014913 
1669.000000	36.992454 
1668.000000	36.972308 
1667.000000	36.955451 
1666.000000	36.942386 
1665.000000	36.933159 
1664.000000	36.927437 
1663.000000	36.924362 
1662.000000	36.922717 
1661.000000	36.920976 
1660.000000	36.917543 
1659.000000	36.910462 
1658.000000	36.898016 
1657.000000	36.878705 
1656.000000	36.851906 
1655.000000	36.818075 
1654.000000	36.779046 
1653.000000	36.737775 
1652.000000	36.697840 
1651.000000	36.662864 
1650.000000	36.635732 
1649.000000	36.617898 
1648.000000	36.609196 
1647.000000	36.607956 
1646.000000	36.611628 
1645.000000	36.617064 
1644.000000	36.621689 
1643.000000	36.623692 
1642.000000	36.622786 
1641.000000	36.619496 
1640.000000	36.615490 
1639.000000	36.612391 
1638.000000	36.611700 
1637.000000	36.614108 
1636.000000	36.619544 
1635.000000	36.626911 
1634.000000	36.634564 
1633.000000	36.640524 
1632.000000	36.642789 
1631.000000	36.639595 
1630.000000	36.629462 
1629.000000	36.611771 
1628.000000	36.586499 
1627.000000	36.554431 
1626.000000	36.517286 
1625.000000	36.477255 
1624.000000	36.436963 
1623.000000	36.398911 
1622.000000	36.365318 
1621.000000	36.337590 
1620.000000	36.316156 
1619.000000	36.300587 
1618.000000	36.289596 
1617.000000	36.281609 
1616.000000	36.274838 
1615.000000	36.268067 
1614.000000	36.260414 
1613.000000	36.251711 
1612.000000	36.242008 
1611.000000	36.231541 
1610.000000	36.220335 
1609.000000	36.208200 
1608.000000	36.194705 
1607.000000	36.179327 
1606.000000	36.161732 
1605.000000	36.141848 
1604.000000	36.120271 
1603.000000	36.097955 
1602.000000	36.075949 
1601.000000	36.055493 
1600.000000	36.037468 
1599.000000	36.022114 
1598.000000	36.009144 
1597.000000	35.997819 
1596.000000	35.987186 
1595.000000	35.976409 
1594.000000	35.964965 
1593.000000	35.952806 
1592.000000	35.940480 
1591.000000	35.928797 
1590.000000	35.918831 
1589.000000	35.911345 
1588.000000	35.906600 
1587.000000	35.904550 
1586.000000	35.904383 
1585.000000	35.904908 
1584.000000	35.904502 
1583.000000	35.901570 
1582.000000	35.894632 
1581.000000	35.882711 
1580.000000	35.865449 
1579.000000	35.843110 
1578.000000	35.816740 
1577.000000	35.787963 
1576.000000	35.758781 
1575.000000	35.731363 
1574.000000	35.707569 
1573.000000	35.688638 
1572.000000	35.675096 
1571.000000	35.666441 
1570.000000	35.661172 
1569.000000	35.657238 
1568.000000	35.652208 
1567.000000	35.643982 
1566.000000	35.631179 
1565.000000	35.613322 
1564.000000	35.591101 
1563.000000	35.566282 
1562.000000	35.541200 
1561.000000	35.518240 
1560.000000	35.499238 
1559.000000	35.485076 
1558.000000	35.475492 
1557.000000	35.469055 
1556.000000	35.463738 
1555.000000	35.457420 
1554.000000	35.448551 
1553.000000	35.436415 
1552.000000	35.421276 
1551.000000	35.404133 
1550.000000	35.386300 
1549.000000	35.368871 
1548.000000	35.352349 
1547.000000	35.336494 
1546.000000	35.320425 
1545.000000	35.303163 
1544.000000	35.283803 
1543.000000	35.261893 
1542.000000	35.237669 
1541.000000	35.212087 
1540.000000	35.186672 
1539.000000	35.162806 
1538.000000	35.141634 
1537.000000	35.123825 
1536.000000	35.109472 
1535.000000	35.098123 
1534.000000	35.088896 
1533.000000	35.080933 
1532.000000	35.073113 
1531.000000	35.064482 
1530.000000	35.054063 
1529.000000	35.041141 
1528.000000	35.025286 
1527.000000	35.006451 
1526.000000	34.985089 
1525.000000	34.962129 
1524.000000	34.938788 
1523.000000	34.916377 
1522.000000	34.895920 
1521.000000	34.877920 
1520.000000	34.862422 
1519.000000	34.849238 
1518.000000	34.837794 
1517.000000	34.827923 
1516.000000	34.819674 
1515.000000	34.813833 
1514.000000	34.811401 
1513.000000	34.813594 
1512.000000	34.821009 
1511.000000	34.833621 
1510.000000	34.850192 
1509.000000	34.868502 
1508.000000	34.885549 
1507.000000	34.898233 
1506.000000	34.903907 
1505.000000	34.900927 
1504.000000	34.888982 
1503.000000	34.869027 
1502.000000	34.842991 
1501.000000	34.813308 
1500.000000	34.782457 
1499.000000	34.752368 
1498.000000	34.724164 
1497.000000	34.698057 
1496.000000	34.673666 
1495.000000	34.650182 
1494.000000	34.626770 
1493.000000	34.602832 
1492.000000	34.578204 
1491.000000	34.553122 
1490.000000	34.528303 
1489.000000	34.504413 
1488.000000	34.482216 
1487.000000	34.462141 
1486.000000	34.444618 
1485.000000	34.429883 
1484.000000	34.418106 
1483.000000	34.409284 
1482.000000	34.403085 
1481.000000	34.398770 
1480.000000	34.395074 
1479.000000	34.390211 
1478.000000	34.382200 
1477.000000	34.369182 
1476.000000	34.349775 
1475.000000	34.323573 
1474.000000	34.291052 
1473.000000	34.253644 
1472.000000	34.213542 
1471.000000	34.173107 
1470.000000	34.134817 
1469.000000	34.100723 
1468.000000	34.072351 
1467.000000	34.050726 
1466.000000	34.036231 
1465.000000	34.028816 
1464.000000	34.027981 
1463.000000	34.032893 
1462.000000	34.042286 
1461.000000	34.054708 
1460.000000	34.068179 
1459.000000	34.080767 
1458.000000	34.090471 
1457.000000	34.095621 
1456.000000	34.095287 
1455.000000	34.089112 
1454.000000	34.077715 
1453.000000	34.062361 
1452.000000	34.044885 
1451.000000	34.027123 
1450.000000	34.010648 
1449.000000	33.996415 
1448.000000	33.984732 
1447.000000	33.975243 
1446.000000	33.967161 
1445.000000	33.959412 
1444.000000	33.951044 
1443.000000	33.941102 
1442.000000	33.928823 
1441.000000	33.913707 
1440.000000	33.895373 
1439.000000	33.873558 
1438.000000	33.848285 
1437.000000	33.819746 
1436.000000	33.788585 
1435.000000	33.755874 
1434.000000	33.723068 
1433.000000	33.691644 
1432.000000	33.662962 
1431.000000	33.637785 
1430.000000	33.616542 
1429.000000	33.598661 
1428.000000	33.583307 
1427.000000	33.569741 
1426.000000	33.557629 
1425.000000	33.546996 
1424.000000	33.538556 
1423.000000	33.533167 
1422.000000	33.531761 
1421.000000	33.534598 
1420.000000	33.541297 
1419.000000	33.550667 
1418.000000	33.560967 
1417.000000	33.570241 
1416.000000	33.576774 
1415.000000	33.579301 
1414.000000	33.577251 
1413.000000	33.570575 
1412.000000	33.559632 
1411.000000	33.544778 
1410.000000	33.526372 
1409.000000	33.504390 
1408.000000	33.479070 
1407.000000	33.450722 
1406.000000	33.420062 
1405.000000	33.388161 
1404.000000	33.356189 
1403.000000	33.325123 
1402.000000	33.295702 
1401.000000	33.268380 
1400.000000	33.243131 
1399.000000	33.220052 
1398.000000	33.199071 
1397.000000	33.180570 
1396.000000	33.165216 
1395.000000	33.153748 
1394.000000	33.146882 
1393.000000	33.144879 
1392.000000	33.147525 
1391.000000	33.153891 
1390.000000	33.162403 
1389.000000	33.171129 
1388.000000	33.178091 
1387.000000	33.181571 
1386.000000	33.180427 
1385.000000	33.174228 
1384.000000	33.163094 
1383.000000	33.147644 
1382.000000	33.128666 
1381.000000	33.107137 
1380.000000	33.083820 
1379.000000	33.059430 
1378.000000	33.034324 
1377.000000	33.008813 
1376.000000	32.982802 
1375.000000	32.956409 
1374.000000	32.929563 
1373.000000	32.902169 
1372.000000	32.874345 
1371.000000	32.846379 
1370.000000	32.818818 
1369.000000	32.792210 
1368.000000	32.767415 
1367.000000	32.745194 
1366.000000	32.726240 
1365.000000	32.711076 
1364.000000	32.699751 
1363.000000	32.691860 
1362.000000	32.686781 
1361.000000	32.683634 
1360.000000	32.681488 
1359.000000	32.679653 
1358.000000	32.677745 
1357.000000	32.675623 
1356.000000	32.673525 
1355.000000	32.671475 
1354.000000	32.669425 
1353.000000	32.666850 
1352.000000	32.663011 
1351.000000	32.656931 
1350.000000	32.647776 
1349.000000	32.635378 
1348.000000	32.620143 
1347.000000	32.603287 
1346.000000	32.586550 
1345.000000	32.571673 
1344.000000	32.560324 
1343.000000	32.553029 
1342.000000	32.549118 
1341.000000	32.546901 
1340.000000	32.544016 
1339.000000	32.537937 
1338.000000	32.526540 
1337.000000	32.508802 
1336.000000	32.485008 
1335.000000	32.456612 
1334.000000	32.425880 
1333.000000	32.395410 
1332.000000	32.367563 
1331.000000	32.344269 
1330.000000	32.326459 
1329.000000	32.314324 
1328.000000	32.307028 
1327.000000	32.303142 
1326.000000	32.300662 
1325.000000	32.297348 
1324.000000	32.291078 
1323.000000	32.280206 
1322.000000	32.264089 
1321.000000	32.242918 
1320.000000	32.218170 
1319.000000	32.192087 
1318.000000	32.167363 
1317.000000	32.146596 
1316.000000	32.131600 
1315.000000	32.123017 
1314.000000	32.120132 
1313.000000	32.121014 
1312.000000	32.123064 
1311.000000	32.123684 
1310.000000	32.120990 
1309.000000	32.114076 
1308.000000	32.103133 
1307.000000	32.089066 
1306.000000	32.073116 
1305.000000	32.056355 
1304.000000	32.039380 
1303.000000	32.022190 
1302.000000	32.004308 
1301.000000	31.985330 
1300.000000	31.965065 
1299.000000	31.943964 
1298.000000	31.923246 
1297.000000	31.904482 
1296.000000	31.889414 
1295.000000	31.879138 
1294.000000	31.874036 
1293.000000	31.873011 
1292.000000	31.873941 
1291.000000	31.873822 
1290.000000	31.869530 
1289.000000	31.858539 
1288.000000	31.839323 
1287.000000	31.812214 
1286.000000	31.778955 
1285.000000	31.742906 
1284.000000	31.708073 
1283.000000	31.678438 
1282.000000	31.657004 
1281.000000	31.645274 
1280.000000	31.642961 
1279.000000	31.647992 
1278.000000	31.657075 
1277.000000	31.666445 
1276.000000	31.672954 
1275.000000	31.674170 
1274.000000	31.669211 
1273.000000	31.658458 
1272.000000	31.643509 
1271.000000	31.626296 
1270.000000	31.608963 
1269.000000	31.593251 
1268.000000	31.580424 
1267.000000	31.571221 
1266.000000	31.565928 
1265.000000	31.564688 
1264.000000	31.567335 
1263.000000	31.573677 
1262.000000	31.583070 
1261.000000	31.594562 
1260.000000	31.606507 
1259.000000	31.616783 
1258.000000	31.622815 
1257.000000	31.622171 
1256.000000	31.612801 
1255.000000	31.593704 
1254.000000	31.564927 
1253.000000	31.527805 
1252.000000	31.484746 
1251.000000	31.438779 
1250.000000	31.393027 
1249.000000	31.350183 
1248.000000	31.312298 
1247.000000	31.280350 
1246.000000	31.254673 
1245.000000	31.234812 
1244.000000	31.219959 
1243.000000	31.208944 
1242.000000	31.200551 
1241.000000	31.193685 
1240.000000	31.187105 
1239.000000	31.179809 
1238.000000	31.170868 
1237.000000	31.159663 
1236.000000	31.145811 
1235.000000	31.129503 
1234.000000	31.111550 
1233.000000	31.093215 
1232.000000	31.075716 
1231.000000	31.060504 
1230.000000	31.048560 
1229.000000	31.040430 
1228.000000	31.035923 
1227.000000	31.034326 
1226.000000	31.034445 
1225.000000	31.034946 
1224.000000	31.034469 
1223.000000	31.031489 
1222.000000	31.024551 
1221.000000	31.012368 
1220.000000	30.994224 
1219.000000	30.969882 
1218.000000	30.939960 
1217.000000	30.906152 
1216.000000	30.870747 
1215.000000	30.836462 
1214.000000	30.805706 
1213.000000	30.780506 
1212.000000	30.761551 
1211.000000	30.748414 
1210.000000	30.739378 
1209.000000	30.731940 
1208.000000	30.723166 
1207.000000	30.710554 
1206.000000	30.692505 
1205.000000	30.668497 
1204.000000	30.639433 
1203.000000	30.607295 
1202.000000	30.574941 
1201.000000	30.545282 
1200.000000	30.521178 
1199.000000	30.504798 
1198.000000	30.497384 
1197.000000	30.498909 
1196.000000	30.508184 
1195.000000	30.522894 
1194.000000	30.539870 
1193.000000	30.555725 
1192.000000	30.567216 
1191.000000	30.572152 
1190.000000	30.569410 
1189.000000	30.559182 
1188.000000	30.542850 
1187.000000	30.522513 
1186.000000	30.500841 
1185.000000	30.480051 
1184.000000	30.461835 
1183.000000	30.446839 
1182.000000	30.435156 
1181.000000	30.425906 
1180.000000	30.418157 
1179.000000	30.410718 
1178.000000	30.402803 
1177.000000	30.394077 
1176.000000	30.384564 
1175.000000	30.374622 
1174.000000	30.364561 
1173.000000	30.354619 
1172.000000	30.344676 
1171.000000	30.334472 
1170.000000	30.323553 
1169.000000	30.311346 
1168.000000	30.297303 
1167.000000	30.281257 
1166.000000	30.263161 
1165.000000	30.243396 
1164.000000	30.222487 
1163.000000	30.201053 
1162.000000	30.179786 
1161.000000	30.159640 
1160.000000	30.141448 
1159.000000	30.125975 
1158.000000	30.113577 
1157.000000	30.104374 
1156.000000	30.097866 
1155.000000	30.093264 
1154.000000	30.089378 
1153.000000	30.084943 
1152.000000	30.078840 
1151.000000	30.070114 
1150.000000	30.058383 
1149.000000	30.043816 
1148.000000	30.026936 
1147.000000	30.008530 
1146.000000	29.989695 
1145.000000	29.971694 
1144.000000	29.955673 
1143.000000	29.942679 
1142.000000	29.933643 
1141.000000	29.929208 
1140.000000	29.929471 
1139.000000	29.933714 
1138.000000	29.940676 
1137.000000	29.948353 
1136.000000	29.954528 
1135.000000	29.956841 
1134.000000	29.953312 
1133.000000	29.942750 
1132.000000	29.925251 
1131.000000	29.901909 
1130.000000	29.874634 
1129.000000	29.845643 
1128.000000	29.817080 
1127.000000	29.790043 
1126.000000	29.764747 
1125.000000	29.740047 
1124.000000	29.714202 
1123.000000	29.685425 
1122.000000	29.652476 
1121.000000	29.615068 
1120.000000	29.574131 
1119.000000	29.531168 
1118.000000	29.487919 
1117.000000	29.445576 
1116.000000	29.404568 
1115.000000	29.364323 
1114.000000	29.323959 
1113.000000	29.282498 
1112.000000	29.240179 
1111.000000	29.198193 
1110.000000	29.159641 
1109.000000	29.128122 
1108.000000	29.107713 
1107.000000	29.101562 
1106.000000	29.111361 
1105.000000	29.136085 
1104.000000	29.172253 
1103.000000	29.214549 
1102.000000	29.256558 
1101.000000	29.292035 
1100.000000	29.315876 
1099.000000	29.324960 
1098.000000	29.318642 
1097.000000	29.298758 
1096.000000	29.268908 
1095.000000	29.233789 
1094.000000	29.198288 
1093.000000	29.166531 
1092.000000	29.141139 
1091.000000	29.122829 
1090.000000	29.110670 
1089.000000	29.102706 
1088.000000	29.096674 
1087.000000	29.090714 
1086.000000	29.083967 
1085.000000	29.076409 
1084.000000	29.068160 
1083.000000	29.059171 
1082.000000	29.049038 
1081.000000	29.036712 
1080.000000	29.020214 
1079.000000	28.997731 
1078.000000	28.968167 
1077.000000	28.931903 
1076.000000	28.891229 
1075.000000	28.849935 
1074.000000	28.812456 
1073.000000	28.782725 
1072.000000	28.763222 
1071.000000	28.754138 
1070.000000	28.753209 
1069.000000	28.756451 
1068.000000	28.759360 
1067.000000	28.757619 
1066.000000	28.748178 
1065.000000	28.729391 
1064.000000	28.701090 
1063.000000	28.664135 
1062.000000	28.620409 
1061.000000	28.572106 
1060.000000	28.522443 
1059.000000	28.475475 
1058.000000	28.436326 
1057.000000	28.410887 
1056.000000	28.404378 
1055.000000	28.420948 
1054.000000	28.461027 
1053.000000	28.520274 
1052.000000	28.589725 
1051.000000	28.656578 
1050.000000	28.707695 
1049.000000	28.732538 
1048.000000	28.725838 
1047.000000	28.689074 
1046.000000	28.629803 
1045.000000	28.559851 
1044.000000	28.491711 
1043.000000	28.435397 
1042.000000	28.396606 
1041.000000	28.376030 
1040.000000	28.370022 
1039.000000	28.372573 
1038.000000	28.377151 
1037.000000	28.378820 
1036.000000	28.375077 
1035.000000	28.366518 
1034.000000	28.355693 
1033.000000	28.346681 
1032.000000	28.343296 
1031.000000	28.348565 
1030.000000	28.363943 
1029.000000	28.388857 
1028.000000	28.422021 
1027.000000	28.460049 
1026.000000	28.499031 
1025.000000	28.533673 
1024.000000	28.558611 
1023.000000	28.568339 
1022.000000	28.558206 
1021.000000	28.524899 
1020.000000	28.467750 
1019.000000	28.388547 
1018.000000	28.291940 
1017.000000	28.184461 
1016.000000	28.073668 
1015.000000	27.966928 
1014.000000	27.870273 
1013.000000	27.788090 
1012.000000	27.723002 
1011.000000	27.676320 
1010.000000	27.648639 
1009.000000	27.640271 
1008.000000	27.651143 
1007.000000	27.680540 
1006.000000	27.726650 
1005.000000	27.784967 
1004.000000	27.849316 
1003.000000	27.912092 
1002.000000	27.965927 
1001.000000	28.004550 
1000.000000	28.024458 
999.000000	 28.025627 
998.000000	 28.011226 
997.000000	 27.987074 
996.000000	 27.959942 
995.000000	 27.936267 
994.000000	 27.920222 
993.000000	 27.913212 
992.000000	 27.913737 
991.000000	 27.918767 
990.000000	 27.924537 
989.000000	 27.928066 
988.000000	 27.928018 
987.000000	 27.925086 
986.000000	 27.921605 
985.000000	 27.920627 
984.000000	 27.924180 
983.000000	 27.932214 
982.000000	 27.942800 
981.000000	 27.952098 
980.000000	 27.954530 
979.000000	 27.944445 
978.000000	 27.917981 
977.000000	 27.874517 
976.000000	 27.817153 
975.000000	 27.752447 
974.000000	 27.689146 
973.000000	 27.635836 
972.000000	 27.599644 
971.000000	 27.583622 
970.000000	 27.586078 
969.000000	 27.600479 
968.000000	 27.617645 
967.000000	 27.626967 
966.000000	 27.619218 
965.000000	 27.588367 
964.000000	 27.532839 
963.000000	 27.455830 
962.000000	 27.364110 
961.000000	 27.267217 
960.000000	 27.175283 
959.000000	 27.097964 
958.000000	 27.042603 
957.000000	 27.014875 
956.000000	 27.018165 
955.000000	 27.053427 
954.000000	 27.118754 
953.000000	 27.209234 
952.000000	 27.316927 
951.000000	 27.430820 
950.000000	 27.538132 
949.000000	 27.626085 
948.000000	 27.683877 
947.000000	 27.704644 
946.000000	 27.686429 
945.000000	 27.632832 
944.000000	 27.551507 
943.000000	 27.453517 
942.000000	 27.350091 
941.000000	 27.251458 
940.000000	 27.164506 
939.000000	 27.093005 
938.000000	 27.037000 
937.000000	 26.994538 
936.000000	 26.962089 
935.000000	 26.936101 
934.000000	 26.913642 
933.000000	 26.892828 
932.000000	 26.872372 
931.000000	 26.851463 
930.000000	 26.829528 
929.000000	 26.805973 
928.000000	 26.780629 
927.000000	 26.753568 
926.000000	 26.724886 
925.000000	 26.694774 
924.000000	 26.663494 
923.000000	 26.631379 
922.000000	 26.599240 
921.000000	 26.567959 
920.000000	 26.538348 
919.000000	 26.510715 
918.000000	 26.485371 
917.000000	 26.461815 
916.000000	 26.438975 
915.000000	 26.415276 
914.000000	 26.389217 
913.000000	 26.359772 
912.000000	 26.326799 
911.000000	 26.290845 
910.000000	 26.252722 
909.000000	 26.213932 
908.000000	 26.176238 
907.000000	 26.141262 
906.000000	 26.110029 
905.000000	 26.083445 
904.000000	 26.062297 
903.000000	 26.047682 
902.000000	 26.041030 
901.000000	 26.043725 
900.000000	 26.056623 
899.000000	 26.079320 
898.000000	 26.109862 
897.000000	 26.144289 
896.000000	 26.177477 
895.000000	 26.203942 
894.000000	 26.219105 
893.000000	 26.220631 
892.000000	 26.208496 
891.000000	 26.185297 
890.000000	 26.155400 
889.000000	 26.124024 
888.000000	 26.096129 
887.000000	 26.075387 
886.000000	 26.063728 
885.000000	 26.061248 
884.000000	 26.066446 
883.000000	 26.076936 
882.000000	 26.089859 
881.000000	 26.102471 
880.000000	 26.112246 
879.000000	 26.117205 
878.000000	 26.115679 
877.000000	 26.106405 
876.000000	 26.088643 
875.000000	 26.062178 
874.000000	 26.027798 
873.000000	 25.986957 
872.000000	 25.942277 
871.000000	 25.896883 
870.000000	 25.853991 
869.000000	 25.816369 
868.000000	 25.785994 
867.000000	 25.763607 
866.000000	 25.748777 
865.000000	 25.739765 
864.000000	 25.734305 
863.000000	 25.729560 
862.000000	 25.722694 
861.000000	 25.711345 
860.000000	 25.694131 
859.000000	 25.670528 
858.000000	 25.640892 
857.000000	 25.606155 
856.000000	 25.567531 
855.000000	 25.526475 
854.000000	 25.484538 
853.000000	 25.443267 
852.000000	 25.404047 
851.000000	 25.367856 
850.000000	 25.335025 
849.000000	 25.304937 
848.000000	 25.276255 
847.000000	 25.246500 
846.000000	 25.213122 
845.000000	 25.174260 
844.000000	 25.129699 
843.000000	 25.081014 
842.000000	 25.031948 
841.000000	 24.987435 
840.000000	 24.952626 
839.000000	 24.931693 
838.000000	 24.926209 
837.000000	 24.934434 
836.000000	 24.951577 
835.000000	 24.970531 
834.000000	 24.983763 
833.000000	 24.984931 
832.000000	 24.970579 
831.000000	 24.940681 
830.000000	 24.898958 
829.000000	 24.851489 
828.000000	 24.805164 
827.000000	 24.766087 
826.000000	 24.737787 
825.000000	 24.720525 
824.000000	 24.711608 
823.000000	 24.706315 
822.000000	 24.699091 
821.000000	 24.685072 
820.000000	 24.661135 
819.000000	 24.626874 
818.000000	 24.583745 
817.000000	 24.535298 
816.000000	 24.485754 
815.000000	 24.439811 
814.000000	 24.401664 
813.000000	 24.374341 
812.000000	 24.359822 
811.000000	 24.357914 
810.000000	 24.366474 
809.000000	 24.381327 
808.000000	 24.396848 
807.000000	 24.407434 
806.000000	 24.408507 
805.000000	 24.397850 
804.000000	 24.375844 
803.000000	 24.345469 
802.000000	 24.311566 
801.000000	 24.279260 
800.000000	 24.252533 
799.000000	 24.233365 
798.000000	 24.221348 
797.000000	 24.214243 
796.000000	 24.208879 
795.000000	 24.202179 
794.000000	 24.192357 
793.000000	 24.179482 
792.000000	 24.165463 
791.000000	 24.153113 
790.000000	 24.145388 
789.000000	 24.143910 
788.000000	 24.148416 
787.000000	 24.156832 
786.000000	 24.165296 
785.000000	 24.169611 
784.000000	 24.165701 
783.000000	 24.150967 
782.000000	 24.124193 
781.000000	 24.086284 
780.000000	 24.039459 
779.000000	 23.986864 
778.000000	 23.931813 
777.000000	 23.877239 
776.000000	 23.825597 
775.000000	 23.778963 
774.000000	 23.738813 
773.000000	 23.706388 
772.000000	 23.682451 
771.000000	 23.667359 
770.000000	 23.660755 
769.000000	 23.661327 
768.000000	 23.667097 
767.000000	 23.675346 
766.000000	 23.682975 
765.000000	 23.686742 
764.000000	 23.683404 
763.000000	 23.670697 
762.000000	 23.647189 
761.000000	 23.612761 
760.000000	 23.569202 
759.000000	 23.519730 
758.000000	 23.468780 
757.000000	 23.421144 
756.000000	 23.380923 
755.000000	 23.350620 
754.000000	 23.330903 
753.000000	 23.320102 
752.000000	 23.314642 
751.000000	 23.310208 
750.000000	 23.302626 
749.000000	 23.289203 
748.000000	 23.269152 
747.000000	 23.243618 
746.000000	 23.215079 
745.000000	 23.186087 
744.000000	 23.158431 
743.000000	 23.132371 
742.000000	 23.106527 
741.000000	 23.079109 
740.000000	 23.048877 
739.000000	 23.015999 
738.000000	 22.982525 
737.000000	 22.952342 
736.000000	 22.929835 
735.000000	 22.918438 
734.000000	 22.919750 
733.000000	 22.932505 
732.000000	 22.953414 
731.000000	 22.977471 
730.000000	 22.999835 
729.000000	 23.016881 
728.000000	 23.027420 
727.000000	 23.032999 
726.000000	 23.036503 
725.000000	 23.041319 
724.000000	 23.049259 
723.000000	 23.059868 
722.000000	 23.069405 
721.000000	 23.071980 
720.000000	 23.060536 
719.000000	 23.029518 
718.000000	 22.976136 
717.000000	 22.901725 
716.000000	 22.811627 
715.000000	 22.714257 
714.000000	 22.619152 
713.000000	 22.534871 
712.000000	 22.467112 
711.000000	 22.417712 
710.000000	 22.384929 
709.000000	 22.364425 
708.000000	 22.350358 
707.000000	 22.337794 
706.000000	 22.323679 
705.000000	 22.307825 
704.000000	 22.291564 
703.000000	 22.277665 
702.000000	 22.268199 
701.000000	 22.264194 
700.000000	 22.264337 
699.000000	 22.265839 
698.000000	 22.265076 
697.000000	 22.258853 
696.000000	 22.245502 
695.000000	 22.224879 
694.000000	 22.198963 
693.000000	 22.170567 
692.000000	 22.142767 
691.000000	 22.117877 
690.000000	 22.096800 
689.000000	 22.078704 
688.000000	 22.061467 
687.000000	 22.042179 
686.000000	 22.017931 
685.000000	 21.986293 
684.000000	 21.945810 
683.000000	 21.896100 
682.000000	 21.837878 
681.000000	 21.772670 
680.000000	 21.702766 
679.000000	 21.630835 
678.000000	 21.560049 
677.000000	 21.493673 
676.000000	 21.434831 
675.000000	 21.385836 
674.000000	 21.348261 
673.000000	 21.322250 
672.000000	 21.307110 
671.000000	 21.301269 
670.000000	 21.302843 
669.000000	 21.309709 
668.000000	 21.319842 
667.000000	 21.331143 
666.000000	 21.341419 
665.000000	 21.348357 
664.000000	 21.349406 
663.000000	 21.341943 
662.000000	 21.323704 
661.000000	 21.293020 
660.000000	 21.248841 
659.000000	 21.190905 
658.000000	 21.119904 
657.000000	 21.037673 
656.000000	 20.947027 
655.000000	 20.851874 
654.000000	 20.756649 
653.000000	 20.666265 
652.000000	 20.585894 
651.000000	 20.520448 
650.000000	 20.473527 
649.000000	 20.447063 
648.000000	 20.440530 
647.000000	 20.451331 
646.000000	 20.474219 
645.000000	 20.503258 
644.000000	 20.531773 
643.000000	 20.554804 
642.000000	 20.568847 
641.000000	 20.573520 
640.000000	 20.570707 
639.000000	 20.564198 
638.000000	 20.558285 
637.000000	 20.556855 
636.000000	 20.562314 
635.000000	 20.574998 
634.000000	 20.592832 
633.000000	 20.611643 
632.000000	 20.625734 
631.000000	 20.629167 
630.000000	 20.616698 
629.000000	 20.584487 
628.000000	 20.530557 
627.000000	 20.455503 
626.000000	 20.362067 
625.000000	 20.254659 
624.000000	 20.138692 
623.000000	 20.020842 
622.000000	 19.907832 
621.000000	 19.805598 
620.000000	 19.718599 
619.000000	 19.649934 
618.000000	 19.600391 
617.000000	 19.568634 
616.000000	 19.551253 
615.000000	 19.542670 
614.000000	 19.536828 
613.000000	 19.527769 
612.000000	 19.510936 
611.000000	 19.483542 
610.000000	 19.446039 
609.000000	 19.401788 
608.000000	 19.356107 
607.000000	 19.314646 
606.000000	 19.282412 
605.000000	 19.262242 
604.000000	 19.253587 
603.000000	 19.253063 
602.000000	 19.255542 
601.000000	 19.256067 
600.000000	 19.251060 
599.000000	 19.239997 
598.000000	 19.225549 
597.000000	 19.212841 
596.000000	 19.207787 
595.000000	 19.214630 
594.000000	 19.234395 
593.000000	 19.263696 
592.000000	 19.295835 
591.000000	 19.321608 
590.000000	 19.331932 
589.000000	 19.320130 
588.000000	 19.284343 
587.000000	 19.227170 
586.000000	 19.155502 
585.000000	 19.077730 
584.000000	 19.001817 
583.000000	 18.932342 
582.000000	 18.869781 
581.000000	 18.810224 
580.000000	 18.747353 
579.000000	 18.674516 
578.000000	 18.587279 
577.000000	 18.485474 
576.000000	 18.373489 
575.000000	 18.258643 
574.000000	 18.149638 
573.000000	 18.053960 
572.000000	 17.976593 
571.000000	 17.918610 
570.000000	 17.878031 
569.000000	 17.850160 
568.000000	 17.829680 
567.000000	 17.812538 
566.000000	 17.796182 
565.000000	 17.779326 
564.000000	 17.761754 
563.000000	 17.742943 
562.000000	 17.721772 
561.000000	 17.695403 
560.000000	 17.661094 
559.000000	 17.616605 
558.000000	 17.561554 
557.000000	 17.497968 
556.000000	 17.430281 
555.000000	 17.364764 
554.000000	 17.308402 
553.000000	 17.267632 
552.000000	 17.247772 
551.000000	 17.251896 
550.000000	 17.281293 
549.000000	 17.334794 
548.000000	 17.408251 
547.000000	 17.494392 
546.000000	 17.583870 
545.000000	 17.665624 
544.000000	 17.727780 
543.000000	 17.759633 
542.000000	 17.753911 
541.000000	 17.707848 
540.000000	 17.624354 
539.000000	 17.510938 
538.000000	 17.379760 
537.000000	 17.243909 
536.000000	 17.115950 
535.000000	 17.004537 
534.000000	 16.914105 
533.000000	 16.844201 
532.000000	 16.791081 
531.000000	 16.749262 
530.000000	 16.713523 
529.000000	 16.680049 
528.000000	 16.647148 
527.000000	 16.615009 
526.000000	 16.584825 
525.000000	 16.559147 
524.000000	 16.540884 
523.000000	 16.532731 
522.000000	 16.536188 
521.000000	 16.551494 
520.000000	 16.576933 
519.000000	 16.608858 
518.000000	 16.641783 
517.000000	 16.670012 
516.000000	 16.687583 
515.000000	 16.689229 
514.000000	 16.671109 
513.000000	 16.632294 
512.000000	 16.574287 
511.000000	 16.500806 
510.000000	 16.417860 
509.000000	 16.332697 
508.000000	 16.252779 
507.000000	 16.184997 
506.000000	 16.134214 
505.000000	 16.102981 
504.000000	 16.090416 
503.000000	 16.093134 
502.000000	 16.104030 
501.000000	 16.113638 
500.000000	 16.112136 
499.000000	 16.091299 
498.000000	 16.046500 
497.000000	 15.977835 
496.000000	 15.890908 
495.000000	 15.794920 
494.000000	 15.700054 
493.000000	 15.614151 
492.000000	 15.541076 
491.000000	 15.479469 
490.000000	 15.423822 
489.000000	 15.366029 
488.000000	 15.298366 
487.000000	 15.215802 
486.000000	 15.118503 
485.000000	 15.010905 
484.000000	 14.900350 
483.000000	 14.794731 
482.000000	 14.699888 
481.000000	 14.618396 
480.000000	 14.548206 
479.000000	 14.485549 
478.000000	 14.426374 
477.000000	 14.369249 
476.000000	 14.315843 
475.000000	 14.271879 
474.000000	 14.245557 
473.000000	 14.244771 
472.000000	 14.274263 
471.000000	 14.335441 
470.000000	 14.425396 
469.000000	 14.537501 
468.000000	 14.662027 
467.000000	 14.787602 
466.000000	 14.901828 
465.000000	 14.993739 
464.000000	 15.053653 
463.000000	 15.074062 
462.000000	 15.050125 
461.000000	 14.981651 
460.000000	 14.872360 
459.000000	 14.730143 
458.000000	 14.565706 
457.000000	 14.394378 
456.000000	 14.230394 
455.000000	 14.086174 
454.000000	 13.968229 
453.000000	 13.878560 
452.000000	 13.811326 
451.000000	 13.755154 
450.000000	 13.695120 
449.000000	 13.617396 
448.000000	 13.510441 
447.000000	 13.367533 
446.000000	 13.190317 
445.000000	 12.989211 
444.000000	 12.781453 
443.000000	 12.588310 
442.000000	 12.431764 
441.000000	 12.329912 
440.000000	 12.293744 
439.000000	 12.324953 
438.000000	 12.411236 
437.000000	 12.531995 
436.000000	 12.666535 
435.000000	 12.798118 
434.000000	 12.909054 
433.000000	 12.991619 
432.000000	 13.051772 
431.000000	 13.103985 
430.000000	 13.163876 
429.000000	 13.244557 
428.000000	 13.349914 
427.000000	 13.475799 
426.000000	 13.611245 
425.000000	 13.743519 
424.000000	 13.858509 
423.000000	 13.955879 
422.000000	 14.055681 
421.000000	 14.179444 
420.000000	 14.338397 
419.000000	 14.548707 
418.000000	 14.825701 
417.000000	 15.164971 
416.000000	 15.537333 
415.000000	 15.903735 
414.000000	 16.209721 
413.000000	 16.398882 
412.000000	 16.407537 
411.000000	 16.174817 
410.000000	 15.644860 
409.000000	 14.781713 
408.000000	 13.580179 
407.000000	 12.066078 
406.000000	 10.314393 
405.000000	 8.455395  
404.000000	 6.655335  
403.000000	 5.081939  
402.000000	 3.889918  
401.000000	 3.180098  
400.000000	 3.008866  
399.000000	 3.329610  
398.000000	 4.105114  
397.000000	 5.306839  
396.000000	 6.965637  
395.000000	 9.135842  
394.000000	 11.915063 
393.000000	 15.380859 
392.000000	 19.535779 
391.000000	 24.252676 
390.000000	 29.233169 
389.000000	 34.023499 
388.000000	 38.123559 
387.000000	 41.062617 
386.000000	 42.488884 
385.000000	 42.235875 
384.000000	 40.378737 
383.000000	 37.206816 
382.000000	 33.194160 
381.000000	 28.864479 
380.000000	 24.804234 
379.000000	 21.429634 
378.000000	 18.878889 
377.000000	 17.027735 
376.000000	 15.659713 
375.000000	 14.443373 
374.000000	 13.050317 
373.000000	 11.223411 
372.000000	 8.913278  
371.000000	 6.128430  
370.000000	 2.845668  

