PE IR       SPECTRUM    SPECTRUM    ASCII       PEDS        1.60        
  -1
C-9AE4~1.ASC
17/03/27
16:08:27.00
17/03/27
16:08:27.00
tln
$C-4040-8_t0021$<tbV0>[-10.4,-10.4,8.0,0.0,27,1,0]
370.000000
64









2002,4.07    
MIRTGS : RIGHTBACK : INTERNAL 2
MIR : ON : INTERNAL 2
OPTKBR

0.200000
8
8.000000
FILLER
RATIO
SPECTRUM
UNLOCKED 256

DOUBLE
64
COMBINED
1
0
0


1.000000
RATIO


1
0
TRUE
51149
0
LEFT NOT FITTED RIGHT NOT FITTED 0
NONE
NONE
15600
12.000000
4.427000
51148
TRUE
1 0 8 72 0 0 0 0 

15798.010000






#HDR
-1
-1
#GR
CM-1
%T
0.00002384185791015625
0.0
5000.000000
-1.000000
4631
8
75.708389
20.654153
#DATA
5000.000000	63.943910 
4999.000000	63.802218 
4998.000000	63.678979 
4997.000000	63.588356 
4996.000000	63.541913 
4995.000000	63.546895 
4994.000000	63.603782 
4993.000000	63.704729 
4992.000000	63.835287 
4991.000000	63.977003 
4990.000000	64.109635 
4989.000000	64.214015 
4988.000000	64.276075 
4987.000000	64.288759 
4986.000000	64.253282 
4985.000000	64.177727 
4984.000000	64.075827 
4983.000000	63.963723 
4982.000000	63.856768 
4981.000000	63.766622 
4980.000000	63.699293 
4979.000000	63.655209 
4978.000000	63.629937 
4977.000000	63.617491 
4976.000000	63.614034 
4975.000000	63.619494 
4974.000000	63.637638 
4973.000000	63.673734 
4972.000000	63.732504 
4971.000000	63.813495 
4970.000000	63.909983 
4969.000000	64.007067 
4968.000000	64.083313 
4967.000000	64.115643 
4966.000000	64.086246 
4965.000000	63.986682 
4964.000000	63.820862 
4963.000000	63.605904 
4962.000000	63.369250 
4961.000000	63.142561 
4960.000000	62.954807 
4959.000000	62.825894 
4958.000000	62.762689 
4957.000000	62.759804 
4956.000000	62.802004 
4955.000000	62.868595 
4954.000000	62.938284 
4953.000000	62.990975 
4952.000000	63.011527 
4951.000000	62.989664 
4950.000000	62.922096 
4949.000000	62.810015 
4948.000000	62.661075 
4947.000000	62.487769 
4946.000000	62.308192 
4945.000000	62.142610 
4944.000000	62.012982 
4943.000000	61.939072 
4942.000000	61.936187 
4941.000000	62.012052 
4940.000000	62.164926 
4939.000000	62.383246 
4938.000000	62.645745 
4937.000000	62.923836 
4936.000000	63.185691 
4935.000000	63.400983 
4934.000000	63.545632 
4933.000000	63.604927 
4932.000000	63.577580 
4931.000000	63.475441 
4930.000000	63.322019 
4929.000000	63.147878 
4928.000000	62.986803 
4927.000000	62.869215 
4926.000000	62.817263 
4925.000000	62.840557 
4924.000000	62.935447 
4923.000000	63.086509 
4922.000000	63.270378 
4921.000000	63.461518 
4920.000000	63.635945 
4919.000000	63.777661 
4918.000000	63.879108 
4917.000000	63.943314 
4916.000000	63.979911 
4915.000000	64.002799 
4914.000000	64.024734 
4913.000000	64.055395 
4912.000000	64.099788 
4911.000000	64.158082 
4910.000000	64.228343 
4909.000000	64.306259 
4908.000000	64.388680 
4907.000000	64.471626 
4906.000000	64.551830 
4905.000000	64.623785 
4904.000000	64.680075 
4903.000000	64.712166 
4902.000000	64.712095 
4901.000000	64.674687 
4900.000000	64.599418 
4899.000000	64.491295 
4898.000000	64.360666 
4897.000000	64.221858 
4896.000000	64.090394 
4895.000000	63.979387 
4894.000000	63.897585 
4893.000000	63.847875 
4892.000000	63.828158 
4891.000000	63.833475 
4890.000000	63.857364 
4889.000000	63.893246 
4888.000000	63.935542 
4887.000000	63.980197 
4886.000000	64.023780 
4885.000000	64.061260 
4884.000000	64.087724 
4883.000000	64.097738 
4882.000000	64.087939 
4881.000000	64.057683 
4880.000000	64.010977 
4879.000000	63.956356 
4878.000000	63.905787 
4877.000000	63.872265 
4876.000000	63.866829 
4875.000000	63.895988 
4874.000000	63.959622 
4873.000000	64.050889 
4872.000000	64.158010 
4871.000000	64.266657 
4870.000000	64.363312 
4869.000000	64.437270 
4868.000000	64.482188 
4867.000000	64.496326 
4866.000000	64.481997 
4865.000000	64.444589 
4864.000000	64.391040 
4863.000000	64.328551 
4862.000000	64.264774 
4861.000000	64.205789 
4860.000000	64.156675 
4859.000000	64.120244 
4858.000000	64.097595 
4857.000000	64.088273 
4856.000000	64.090609 
4855.000000	64.102339 
4854.000000	64.120435 
4853.000000	64.142751 
4852.000000	64.167857 
4851.000000	64.195036 
4850.000000	64.223599 
4849.000000	64.252567 
4848.000000	64.280366 
4847.000000	64.304494 
4846.000000	64.322042 
4845.000000	64.330840 
4844.000000	64.329648 
4843.000000	64.319419 
4842.000000	64.302325 
4841.000000	64.281725 
4840.000000	64.260458 
4839.000000	64.239859 
4838.000000	64.219617 
4837.000000	64.198470 
4836.000000	64.174795 
4835.000000	64.147734 
4834.000000	64.117574 
4833.000000	64.086842 
4832.000000	64.058542 
4831.000000	64.036226 
4830.000000	64.021539 
4829.000000	64.013361 
4828.000000	64.007711 
4827.000000	63.998675 
4826.000000	63.979911 
4825.000000	63.946413 
4824.000000	63.896727 
4823.000000	63.833880 
4822.000000	63.764381 
4821.000000	63.696622 
4820.000000	63.638854 
4819.000000	63.597297 
4818.000000	63.574290 
4817.000000	63.568162 
4816.000000	63.574147 
4815.000000	63.585782 
4814.000000	63.596773 
4813.000000	63.602495 
4812.000000	63.600468 
4811.000000	63.590621 
4810.000000	63.574314 
4809.000000	63.553690 
4808.000000	63.530611 
4807.000000	63.506555 
4806.000000	63.482046 
4805.000000	63.457798 
4804.000000	63.435029 
4803.000000	63.416147 
4802.000000	63.404130 
4801.000000	63.402915 
4800.000000	63.415622 
4799.000000	63.445162 
4798.000000	63.492918 
4797.000000	63.559198 
4796.000000	63.642406 
4795.000000	63.739824 
4794.000000	63.847589 
4793.000000	63.960886 
4792.000000	64.073967 
4791.000000	64.179992 
4790.000000	64.271211 
4789.000000	64.340138 
4788.000000	64.380288 
4787.000000	64.387369 
4786.000000	64.360499 
4785.000000	64.303684 
4784.000000	64.225459 
4783.000000	64.138078 
4782.000000	64.055109 
4781.000000	63.990235 
4780.000000	63.953208 
4779.000000	63.948965 
4778.000000	63.975358 
4777.000000	64.025068 
4776.000000	64.085555 
4775.000000	64.142346 
4774.000000	64.181685 
4773.000000	64.193224 
4772.000000	64.172530 
4771.000000	64.121341 
4770.000000	64.047288 
4769.000000	63.961434 
4768.000000	63.876461 
4767.000000	63.803887 
4766.000000	63.751721 
4765.000000	63.723206 
4764.000000	63.717651 
4763.000000	63.731360 
4762.000000	63.758277 
4761.000000	63.792347 
4760.000000	63.828706 
4759.000000	63.865327 
4758.000000	63.901209 
4757.000000	63.937520 
4756.000000	63.976144 
4755.000000	64.019274 
4754.000000	64.068269 
4753.000000	64.123153 
4752.000000	64.182209 
4751.000000	64.241957 
4750.000000	64.298772 
4749.000000	64.348244 
4748.000000	64.386177 
4747.000000	64.408993 
4746.000000	64.415097 
4745.000000	64.404082 
4744.000000	64.376831 
4743.000000	64.335083 
4742.000000	64.281439 
4741.000000	64.218354 
4740.000000	64.148187 
4739.000000	64.073038 
4738.000000	63.994979 
4737.000000	63.915848 
4736.000000	63.837838 
4735.000000	63.763523 
4734.000000	63.696169 
4733.000000	63.638925 
4732.000000	63.595128 
4731.000000	63.566803 
4730.000000	63.555526 
4729.000000	63.561534 
4728.000000	63.584852 
4727.000000	63.623404 
4726.000000	63.675045 
4725.000000	63.736939 
4724.000000	63.806414 
4723.000000	63.880038 
4722.000000	63.954758 
4721.000000	64.027953 
4720.000000	64.097571 
4719.000000	64.161705 
4718.000000	64.218878 
4717.000000	64.267945 
4716.000000	64.308071 
4715.000000	64.338827 
4714.000000	64.360117 
4713.000000	64.372324 
4712.000000	64.376378 
4711.000000	64.373779 
4710.000000	64.366173 
4709.000000	64.354801 
4708.000000	64.341378 
4707.000000	64.327049 
4706.000000	64.312338 
4705.000000	64.296865 
4704.000000	64.280152 
4703.000000	64.261245 
4702.000000	64.239144 
4701.000000	64.212751 
4700.000000	64.181303 
4699.000000	64.144539 
4698.000000	64.102363 
4697.000000	64.055633 
4696.000000	64.005541 
4695.000000	63.954854 
4694.000000	63.907694 
4693.000000	63.869071 
4692.000000	63.843607 
4691.000000	63.834738 
4690.000000	63.843846 
4689.000000	63.869142 
4688.000000	63.905715 
4687.000000	63.947200 
4686.000000	63.987183 
4685.000000	64.020705 
4684.000000	64.045453 
4683.000000	64.062333 
4682.000000	64.074873 
4681.000000	64.087677 
4680.000000	64.104700 
4679.000000	64.127993 
4678.000000	64.156699 
4677.000000	64.187526 
4676.000000	64.215350 
4675.000000	64.235329 
4674.000000	64.243602 
4673.000000	64.239501 
4672.000000	64.224433 
4671.000000	64.201259 
4670.000000	64.173412 
4669.000000	64.143729 
4668.000000	64.113950 
4667.000000	64.084362 
4666.000000	64.054608 
4665.000000	64.024901 
4664.000000	63.995885 
4663.000000	63.968968 
4662.000000	63.946056 
4661.000000	63.929224 
4660.000000	63.919591 
4659.000000	63.916897 
4658.000000	63.919234 
4657.000000	63.923430 
4656.000000	63.925623 
4655.000000	63.922238 
4654.000000	63.910722 
4653.000000	63.890266 
4652.000000	63.861918 
4651.000000	63.828754 
4650.000000	63.794755 
4649.000000	63.764524 
4648.000000	63.742184 
4647.000000	63.731241 
4646.000000	63.733315 
4645.000000	63.748717 
4644.000000	63.776564 
4643.000000	63.814783 
4642.000000	63.860177 
4641.000000	63.909482 
4640.000000	63.959646 
4639.000000	64.008474 
4638.000000	64.054727 
4637.000000	64.097905 
4636.000000	64.138031 
4635.000000	64.175224 
4634.000000	64.209508 
4633.000000	64.240479 
4632.000000	64.267182 
4631.000000	64.288401 
4630.000000	64.302992 
4629.000000	64.310574 
4628.000000	64.311647 
4627.000000	64.308309 
4626.000000	64.303517 
4625.000000	64.301133 
4624.000000	64.304018 
4623.000000	64.314079 
4622.000000	64.330148 
4621.000000	64.348435 
4620.000000	64.362359 
4619.000000	64.364027 
4618.000000	64.346241 
4617.000000	64.304113 
4616.000000	64.237523 
4615.000000	64.151287 
4614.000000	64.055514 
4613.000000	63.963556 
4612.000000	63.889265 
4611.000000	63.843894 
4610.000000	63.833093 
4609.000000	63.855671 
4608.000000	63.903212 
4607.000000	63.961982 
4606.000000	64.016580 
4605.000000	64.053606 
4604.000000	64.064407 
4603.000000	64.046835 
4602.000000	64.005732 
4601.000000	63.951063 
4600.000000	63.894796 
4599.000000	63.847565 
4598.000000	63.816189 
4597.000000	63.802194 
4596.000000	63.802695 
4595.000000	63.811349 
4594.000000	63.821196 
4593.000000	63.826274 
4592.000000	63.823914 
4591.000000	63.814663 
4590.000000	63.801026 
4589.000000	63.787055 
4588.000000	63.775753 
4587.000000	63.769388 
4586.000000	63.768482 
4585.000000	63.772368 
4584.000000	63.779997 
4583.000000	63.789844 
4582.000000	63.800644 
4581.000000	63.810586 
4580.000000	63.817429 
4579.000000	63.817834 
4578.000000	63.807892 
4577.000000	63.783931 
4576.000000	63.743853 
4575.000000	63.688683 
4574.000000	63.623476 
4573.000000	63.556551 
4572.000000	63.498544 
4571.000000	63.460302 
4570.000000	63.450217 
4569.000000	63.472151 
4568.000000	63.524484 
4567.000000	63.599777 
4566.000000	63.686895 
4565.000000	63.773536 
4564.000000	63.848853 
4563.000000	63.906264 
4562.000000	63.943314 
4561.000000	63.961648 
4560.000000	63.964724 
4559.000000	63.955807 
4558.000000	63.936471 
4557.000000	63.906288 
4556.000000	63.863849 
4555.000000	63.808441 
4554.000000	63.741588 
4553.000000	63.668394 
4552.000000	63.596320 
4551.000000	63.533973 
4550.000000	63.488030 
4549.000000	63.461875 
4548.000000	63.454079 
4547.000000	63.459396 
4546.000000	63.470125 
4545.000000	63.479042 
4544.000000	63.482213 
4543.000000	63.479542 
4542.000000	63.475060 
4541.000000	63.474249 
4540.000000	63.480663 
4539.000000	63.494682 
4538.000000	63.511490 
4537.000000	63.523530 
4536.000000	63.522386 
4535.000000	63.502621 
4534.000000	63.464617 
4533.000000	63.414454 
4532.000000	63.363385 
4531.000000	63.323688 
4530.000000	63.305091 
4529.000000	63.312220 
4528.000000	63.343310 
4527.000000	63.390660 
4526.000000	63.442945 
4525.000000	63.488292 
4524.000000	63.517427 
4523.000000	63.525342 
4522.000000	63.512134 
4521.000000	63.482141 
4520.000000	63.442254 
4519.000000	63.399267 
4518.000000	63.358473 
4517.000000	63.322067 
4516.000000	63.290238 
4515.000000	63.262033 
4514.000000	63.237619 
4513.000000	63.219547 
4512.000000	63.212776 
4511.000000	63.224101 
4510.000000	63.259387 
4509.000000	63.320517 
4508.000000	63.404226 
4507.000000	63.501620 
4506.000000	63.599348 
4505.000000	63.682889 
4504.000000	63.738822 
4503.000000	63.758611 
4502.000000	63.738870 
4501.000000	63.682126 
4500.000000	63.595008 
4499.000000	63.487148 
4498.000000	63.367843 
4497.000000	63.244795 
4496.000000	63.123726 
4495.000000	63.008737 
4494.000000	62.903213 
4493.000000	62.810516 
4492.000000	62.734532 
4491.000000	62.679386 
4490.000000	62.645983 
4489.000000	62.634181 
4488.000000	62.640309 
4487.000000	62.661671 
4486.000000	62.696433 
4485.000000	62.745308 
4484.000000	62.814164 
4483.000000	62.907552 
4482.000000	63.023352 
4481.000000	63.153433 
4480.000000	63.283610 
4479.000000	63.396644 
4478.000000	63.474535 
4477.000000	63.506221 
4476.000000	63.492465 
4475.000000	63.443875 
4474.000000	63.378620 
4473.000000	63.316679 
4472.000000	63.274097 
4471.000000	63.260698 
4470.000000	63.278913 
4469.000000	63.322854 
4468.000000	63.381409 
4467.000000	63.447070 
4466.000000	63.518095 
4465.000000	63.595628 
4464.000000	63.683867 
4463.000000	63.785004 
4462.000000	63.901591 
4461.000000	64.027380 
4460.000000	64.159727 
4459.000000	64.299941 
4458.000000	64.461779 
4457.000000	64.667677 
4456.000000	64.947676 
4455.000000	65.331387 
4454.000000	65.837168 
4453.000000	66.462445 
4452.000000	67.179656 
4451.000000	67.939901 
4450.000000	68.677425 
4449.000000	69.326090 
4448.000000	69.824481 
4447.000000	70.131611 
4446.000000	70.224165 
4445.000000	70.102190 
4444.000000	69.774508 
4443.000000	69.256472 
4442.000000	68.564891 
4441.000000	67.719721 
4440.000000	66.748499 
4439.000000	65.689992 
4438.000000	64.601707 
4437.000000	63.553667 
4436.000000	62.620329 
4435.000000	61.867284 
4434.000000	61.333775 
4433.000000	61.029338 
4432.000000	60.927700 
4431.000000	60.979533 
4430.000000	61.115384 
4429.000000	61.270928 
4428.000000	61.393904 
4427.000000	61.459875 
4426.000000	61.463499 
4425.000000	61.424612 
4424.000000	61.371636 
4423.000000	61.335968 
4422.000000	61.335802 
4421.000000	61.377906 
4420.000000	61.455726 
4419.000000	61.554980 
4418.000000	61.660003 
4417.000000	61.759614 
4416.000000	61.851382 
4415.000000	61.939692 
4414.000000	62.033772 
4413.000000	62.141609 
4412.000000	62.265872 
4411.000000	62.404799 
4410.000000	62.550377 
4409.000000	62.685060 
4408.000000	62.787413 
4407.000000	62.846827 
4406.000000	62.860512 
4405.000000	62.828254 
4404.000000	62.756347 
4403.000000	62.662243 
4402.000000	62.565469 
4401.000000	62.478899 
4400.000000	62.411117 
4399.000000	62.367010 
4398.000000	62.346982 
4397.000000	62.348127 
4396.000000	62.367963 
4395.000000	62.404298 
4394.000000	62.460589 
4393.000000	62.546110 
4392.000000	62.668752 
4391.000000	62.830376 
4390.000000	63.022518 
4389.000000	63.227057 
4388.000000	63.413310 
4387.000000	63.548541 
4386.000000	63.612627 
4385.000000	63.611125 
4384.000000	63.574314 
4383.000000	63.560748 
4382.000000	63.646006 
4381.000000	63.910555 
4380.000000	64.413595 
4379.000000	65.183472 
4378.000000	66.208219 
4377.000000	67.435145 
4376.000000	68.780827 
4375.000000	70.141863 
4374.000000	71.419072 
4373.000000	72.521972 
4372.000000	73.389816 
4371.000000	73.982310 
4370.000000	74.286746 
4369.000000	74.304127 
4368.000000	74.053168 
4367.000000	73.557472 
4366.000000	72.852396 
4365.000000	71.978068 
4364.000000	70.987844 
4363.000000	69.936561 
4362.000000	68.882155 
4361.000000	67.874932 
4360.000000	66.955852 
4359.000000	66.151690 
4358.000000	65.476799 
4357.000000	64.930248 
4356.000000	64.503574 
4355.000000	64.183044 
4354.000000	63.957881 
4353.000000	63.812780 
4352.000000	63.737535 
4351.000000	63.720345 
4350.000000	63.752937 
4349.000000	63.818335 
4348.000000	63.900279 
4347.000000	63.981032 
4346.000000	64.045071 
4345.000000	64.075922 
4344.000000	64.063286 
4343.000000	64.006567 
4342.000000	63.910698 
4341.000000	63.783001 
4340.000000	63.634586 
4339.000000	63.478755 
4338.000000	63.327884 
4337.000000	63.192391 
4336.000000	63.077640 
4335.000000	62.983727 
4334.000000	62.908363 
4333.000000	62.849354 
4332.000000	62.801122 
4331.000000	62.757968 
4330.000000	62.718987 
4329.000000	62.688231 
4328.000000	62.669563 
4327.000000	62.667226 
4326.000000	62.686562 
4325.000000	62.730216 
4324.000000	62.794566 
4323.000000	62.870645 
4322.000000	62.946224 
4321.000000	63.007354 
4320.000000	63.041257 
4319.000000	63.039612 
4318.000000	63.000822 
4317.000000	62.930488 
4316.000000	62.840151 
4315.000000	62.744712 
4314.000000	62.658786 
4313.000000	62.594056 
4312.000000	62.556958 
4311.000000	62.548470 
4310.000000	62.565135 
4309.000000	62.600660 
4308.000000	62.647867 
4307.000000	62.701153 
4306.000000	62.757205 
4305.000000	62.813735 
4304.000000	62.869191 
4303.000000	62.921476 
4302.000000	62.968111 
4301.000000	63.006138 
4300.000000	63.033056 
4299.000000	63.048577 
4298.000000	63.054394 
4297.000000	63.054656 
4296.000000	63.054299 
4295.000000	63.058328 
4294.000000	63.069510 
4293.000000	63.087725 
4292.000000	63.109469 
4291.000000	63.128876 
4290.000000	63.139772 
4289.000000	63.137769 
4288.000000	63.121581 
4287.000000	63.093876 
4286.000000	63.060545 
4285.000000	63.029146 
4284.000000	63.006949 
4283.000000	62.998938 
4282.000000	63.006663 
4281.000000	63.027930 
4280.000000	63.057923 
4279.000000	63.090586 
4278.000000	63.120126 
4277.000000	63.142442 
4276.000000	63.155364 
4275.000000	63.159084 
4274.000000	63.155579 
4273.000000	63.147926 
4272.000000	63.139152 
4271.000000	63.131666 
4270.000000	63.127207 
4269.000000	63.126111 
4268.000000	63.127923 
4267.000000	63.130998 
4266.000000	63.133430 
4265.000000	63.132786 
4264.000000	63.126587 
4263.000000	63.112998 
4262.000000	63.091206 
4261.000000	63.061904 
4260.000000	63.027238 
4259.000000	62.990427 
4258.000000	62.955427 
4257.000000	62.925577 
4256.000000	62.903022 
4255.000000	62.888312 
4254.000000	62.880158 
4253.000000	62.876033 
4252.000000	62.872910 
4251.000000	62.868237 
4250.000000	62.860608 
4249.000000	62.850332 
4248.000000	62.839555 
4247.000000	62.831330 
4246.000000	62.828636 
4245.000000	62.833619 
4244.000000	62.846231 
4243.000000	62.864041 
4242.000000	62.882709 
4241.000000	62.897062 
4240.000000	62.902259 
4239.000000	62.894916 
4238.000000	62.874174 
4237.000000	62.841987 
4236.000000	62.802577 
4235.000000	62.761282 
4234.000000	62.723231 
4233.000000	62.692093 
4232.000000	62.669444 
4231.000000	62.654852 
4230.000000	62.646293 
4229.000000	62.641096 
4228.000000	62.637352 
4227.000000	62.634515 
4226.000000	62.633776 
4225.000000	62.637519 
4224.000000	62.648677 
4223.000000	62.670016 
4222.000000	62.702655 
4221.000000	62.746047 
4220.000000	62.798190 
4219.000000	62.856268 
4218.000000	62.916755 
4217.000000	62.976431 
4216.000000	63.032960 
4215.000000	63.084936 
4214.000000	63.131475 
4213.000000	63.172030 
4212.000000	63.206338 
4211.000000	63.233637 
4210.000000	63.253569 
4209.000000	63.264942 
4208.000000	63.266754 
4207.000000	63.257718 
4206.000000	63.237452 
4205.000000	63.205814 
4204.000000	63.163423 
4203.000000	63.111877 
4202.000000	63.053989 
4201.000000	62.992978 
4200.000000	62.931823 
4199.000000	62.873482 
4198.000000	62.820339 
4197.000000	62.773251 
4196.000000	62.731337 
4195.000000	62.692356 
4194.000000	62.652921 
4193.000000	62.608790 
4192.000000	62.556314 
4191.000000	62.492752 
4190.000000	62.418079 
4189.000000	62.334752 
4188.000000	62.248516 
4187.000000	62.166404 
4186.000000	62.096977 
4185.000000	62.047815 
4184.000000	62.024807 
4183.000000	62.029767 
4182.000000	62.061405 
4181.000000	62.114739 
4180.000000	62.183260 
4179.000000	62.258934 
4178.000000	62.335824 
4177.000000	62.410163 
4176.000000	62.481737 
4175.000000	62.552762 
4174.000000	62.627124 
4173.000000	62.708401 
4172.000000	62.798810 
4171.000000	62.897872 
4170.000000	63.002228 
4169.000000	63.105654 
4168.000000	63.201427 
4167.000000	63.283276 
4166.000000	63.346505 
4165.000000	63.388872 
4164.000000	63.411450 
4163.000000	63.417744 
4162.000000	63.413023 
4161.000000	63.402509 
4160.000000	63.391661 
4159.000000	63.383483 
4158.000000	63.379335 
4157.000000	63.377904 
4156.000000	63.376855 
4155.000000	63.372707 
4154.000000	63.362360 
4153.000000	63.343739 
4152.000000	63.316535 
4151.000000	63.282847 
4150.000000	63.246822 
4149.000000	63.214015 
4148.000000	63.189959 
4147.000000	63.179659 
4146.000000	63.186335 
4145.000000	63.210439 
4144.000000	63.249301 
4143.000000	63.298249 
4142.000000	63.351488 
4141.000000	63.402390 
4140.000000	63.444995 
4139.000000	63.475155 
4138.000000	63.491177 
4137.000000	63.493037 
4136.000000	63.482642 
4135.000000	63.463306 
4134.000000	63.438963 
4133.000000	63.413381 
4132.000000	63.389372 
4131.000000	63.368940 
4130.000000	63.352465 
4129.000000	63.339638 
4128.000000	63.329172 
4127.000000	63.319420 
4126.000000	63.308811 
4125.000000	63.296699 
4124.000000	63.283371 
4123.000000	63.269877 
4122.000000	63.258194 
4121.000000	63.250446 
4120.000000	63.247752 
4119.000000	63.249564 
4118.000000	63.253617 
4117.000000	63.256263 
4116.000000	63.252782 
4115.000000	63.238692 
4114.000000	63.211059 
4113.000000	63.169264 
4112.000000	63.115596 
4111.000000	63.054966 
4110.000000	62.993717 
4109.000000	62.938594 
4108.000000	62.895417 
4107.000000	62.867951 
4106.000000	62.857270 
4105.000000	62.861967 
4104.000000	62.878632 
4103.000000	62.903237 
4102.000000	62.931776 
4101.000000	62.961530 
4100.000000	62.990903 
4099.000000	63.020253 
4098.000000	63.050556 
4097.000000	63.083839 
4096.000000	63.121986 
4095.000000	63.166499 
4094.000000	63.217544 
4093.000000	63.274097 
4092.000000	63.333892 
4091.000000	63.393521 
4090.000000	63.448834 
4089.000000	63.495564 
4088.000000	63.530015 
4087.000000	63.549828 
4086.000000	63.554430 
4085.000000	63.545250 
4084.000000	63.525605 
4083.000000	63.500332 
4082.000000	63.474774 
4081.000000	63.453745 
4080.000000	63.440680 
4079.000000	63.437414 
4078.000000	63.443922 
4077.000000	63.458752 
4076.000000	63.479399 
4075.000000	63.503241 
4074.000000	63.527369 
4073.000000	63.548970 
4072.000000	63.565301 
4071.000000	63.573718 
4070.000000	63.571977 
4069.000000	63.558530 
4068.000000	63.532876 
4067.000000	63.495969 
4066.000000	63.450336 
4065.000000	63.399934 
4064.000000	63.349485 
4063.000000	63.303709 
4062.000000	63.266563 
4061.000000	63.240575 
4060.000000	63.226246 
4059.000000	63.222193 
4058.000000	63.225746 
4057.000000	63.233590 
4056.000000	63.242101 
4055.000000	63.248538 
4054.000000	63.250803 
4053.000000	63.248419 
4052.000000	63.241457 
4051.000000	63.231229 
4050.000000	63.219356 
4049.000000	63.208222 
4048.000000	63.200473 
4047.000000	63.198566 
4046.000000	63.204431 
4045.000000	63.219237 
4044.000000	63.242936 
4043.000000	63.274359 
4042.000000	63.311195 
4041.000000	63.350319 
4040.000000	63.388395 
4039.000000	63.422369 
4038.000000	63.449954 
4037.000000	63.470077 
4036.000000	63.482880 
4035.000000	63.489413 
4034.000000	63.491034 
4033.000000	63.489174 
4032.000000	63.484787 
4031.000000	63.478255 
4030.000000	63.469195 
4029.000000	63.457179 
4028.000000	63.442134 
4027.000000	63.425159 
4026.000000	63.408541 
4025.000000	63.395261 
4024.000000	63.388919 
4023.000000	63.392853 
4022.000000	63.409161 
4021.000000	63.437962 
4020.000000	63.477015 
4019.000000	63.522148 
4018.000000	63.567709 
4017.000000	63.607716 
4016.000000	63.636779 
4015.000000	63.651299 
4014.000000	63.649916 
4013.000000	63.633704 
4012.000000	63.605976 
4011.000000	63.571667 
4010.000000	63.536095 
4009.000000	63.504028 
4008.000000	63.479113 
4007.000000	63.463139 
4006.000000	63.455724 
4005.000000	63.454389 
4004.000000	63.455176 
4003.000000	63.453292 
4002.000000	63.443922 
4001.000000	63.423633 
4000.000000	63.390636 
3999.000000	63.345766 
3998.000000	63.292026 
3997.000000	63.234519 
3996.000000	63.178992 
3995.000000	63.131165 
3994.000000	63.095474 
3993.000000	63.074660 
3992.000000	63.069033 
3991.000000	63.076829 
3990.000000	63.094496 
3989.000000	63.117694 
3988.000000	63.142490 
3987.000000	63.165307 
3986.000000	63.183283 
3985.000000	63.194680 
3984.000000	63.198590 
3983.000000	63.194799 
3982.000000	63.183641 
3981.000000	63.165807 
3980.000000	63.142514 
3979.000000	63.115692 
3978.000000	63.087964 
3977.000000	63.061833 
3976.000000	63.039755 
3975.000000	63.023686 
3974.000000	63.015055 
3973.000000	63.014674 
3972.000000	63.022756 
3971.000000	63.039064 
3970.000000	63.062977 
3969.000000	63.093519 
3968.000000	63.128876 
3967.000000	63.166832 
3966.000000	63.203859 
3965.000000	63.235592 
3964.000000	63.256883 
3963.000000	63.263154 
3962.000000	63.251090 
3961.000000	63.219809 
3960.000000	63.171362 
3959.000000	63.110899 
3958.000000	63.045740 
3957.000000	62.984251 
3956.000000	62.934350 
3955.000000	62.902092 
3954.000000	62.890863 
3953.000000	62.901043 
3952.000000	62.930107 
3951.000000	62.973213 
3950.000000	63.024091 
3949.000000	63.076043 
3948.000000	63.122510 
3947.000000	63.158369 
3946.000000	63.179683 
3945.000000	63.184952 
3944.000000	63.174724 
3943.000000	63.151812 
3942.000000	63.120651 
3941.000000	63.086438 
3940.000000	63.054728 
3939.000000	63.029670 
3938.000000	63.013648 
3937.000000	63.006591 
3936.000000	63.006353 
3935.000000	63.009929 
3934.000000	63.014411 
3933.000000	63.018083 
3932.000000	63.021016 
3931.000000	63.024830 
3930.000000	63.032031 
3929.000000	63.044452 
3928.000000	63.062334 
3927.000000	63.083529 
3926.000000	63.103842 
3925.000000	63.117814 
3924.000000	63.120317 
3923.000000	63.108134 
3922.000000	63.081121 
3921.000000	63.042616 
3920.000000	62.998986 
3919.000000	62.958025 
3918.000000	62.927579 
3917.000000	62.912821 
3916.000000	62.915897 
3915.000000	62.935352 
3914.000000	62.967038 
3913.000000	63.004946 
3912.000000	63.043189 
3911.000000	63.077354 
3910.000000	63.105416 
3909.000000	63.127470 
3908.000000	63.145065 
3907.000000	63.160157 
3906.000000	63.174128 
3905.000000	63.186836 
3904.000000	63.196563 
3903.000000	63.200283 
3902.000000	63.194608 
3901.000000	63.177061 
3900.000000	63.146948 
3899.000000	63.105702 
3898.000000	63.056898 
3897.000000	63.005471 
3896.000000	62.956595 
3895.000000	62.914848 
3894.000000	62.883210 
3893.000000	62.862586 
3892.000000	62.852382 
3891.000000	62.850213 
3890.000000	62.853097 
3889.000000	62.857532 
3888.000000	62.859582 
3887.000000	62.856030 
3886.000000	62.844371 
3885.000000	62.823963 
3884.000000	62.795352 
3883.000000	62.761330 
3882.000000	62.725877 
3881.000000	62.693929 
3880.000000	62.670421 
3879.000000	62.658691 
3878.000000	62.659978 
3877.000000	62.672638 
3876.000000	62.692761 
3875.000000	62.715077 
3874.000000	62.734293 
3873.000000	62.746787 
3872.000000	62.751388 
3871.000000	62.749767 
3870.000000	62.745547 
3869.000000	62.742590 
3868.000000	62.744259 
3867.000000	62.751603 
3866.000000	62.764143 
3865.000000	62.779974 
3864.000000	62.797522 
3863.000000	62.816333 
3862.000000	62.837481 
3861.000000	62.863707 
3860.000000	62.897562 
3859.000000	62.940454 
3858.000000	62.991142 
3857.000000	63.045620 
3856.000000	63.097167 
3855.000000	63.137865 
3854.000000	63.160896 
3853.000000	63.162374 
3852.000000	63.142871 
3851.000000	63.107466 
3850.000000	63.064169 
3849.000000	63.021802 
3848.000000	62.987947 
3847.000000	62.967157 
3846.000000	62.960577 
3845.000000	62.965583 
3844.000000	62.977695 
3843.000000	62.991118 
3842.000000	63.000464 
3841.000000	63.001251 
3840.000000	62.990427 
3839.000000	62.966799 
3838.000000	62.930679 
3837.000000	62.883853 
3836.000000	62.829422 
3835.000000	62.770605 
3834.000000	62.710595 
3833.000000	62.651610 
3832.000000	62.595176 
3831.000000	62.541961 
3830.000000	62.492084 
3829.000000	62.445807 
3828.000000	62.403345 
3827.000000	62.366199 
3826.000000	62.336516 
3825.000000	62.317037 
3824.000000	62.309956 
3823.000000	62.316608 
3822.000000	62.336635 
3821.000000	62.367677 
3820.000000	62.405657 
3819.000000	62.445998 
3818.000000	62.484693 
3817.000000	62.519288 
3816.000000	62.549304 
3815.000000	62.575936 
3814.000000	62.601613 
3813.000000	62.628626 
3812.000000	62.658810 
3811.000000	62.693119 
3810.000000	62.731552 
3809.000000	62.773370 
3808.000000	62.817049 
3807.000000	62.861156 
3806.000000	62.903857 
3805.000000	62.943911 
3804.000000	62.979626 
3803.000000	63.009142 
3802.000000	63.030457 
3801.000000	63.041949 
3800.000000	63.042378 
3799.000000	63.031291 
3798.000000	63.009619 
3797.000000	62.979745 
3796.000000	62.945103 
3795.000000	62.909650 
3794.000000	62.877202 
3793.000000	62.850642 
3792.000000	62.831711 
3791.000000	62.820482 
3790.000000	62.815403 
3789.000000	62.813615 
3788.000000	62.811422 
3787.000000	62.805080 
3786.000000	62.791228 
3785.000000	62.768030 
3784.000000	62.735390 
3783.000000	62.695455 
3782.000000	62.652063 
3781.000000	62.610197 
3780.000000	62.574958 
3779.000000	62.550377 
3778.000000	62.538671 
3777.000000	62.539863 
3776.000000	62.551856 
3775.000000	62.570834 
3774.000000	62.592291 
3773.000000	62.612056 
3772.000000	62.627291 
3771.000000	62.636661 
3770.000000	62.640213 
3769.000000	62.638950 
3768.000000	62.634015 
3767.000000	62.626123 
3766.000000	62.615680 
3765.000000	62.602758 
3764.000000	62.587833 
3763.000000	62.572264 
3762.000000	62.558579 
3761.000000	62.550473 
3760.000000	62.552332 
3759.000000	62.567758 
3758.000000	62.599182 
3757.000000	62.646889 
3756.000000	62.708878 
3755.000000	62.781000 
3754.000000	62.857580 
3753.000000	62.932753 
3752.000000	63.000798 
3751.000000	63.057756 
3750.000000	63.100647 
3749.000000	63.127779 
3748.000000	63.138508 
3747.000000	63.133430 
3746.000000	63.114047 
3745.000000	63.083004 
3744.000000	63.044023 
3743.000000	63.002085 
3742.000000	62.962293 
3741.000000	62.929296 
3740.000000	62.906026 
3739.000000	62.893009 
3738.000000	62.888097 
3737.000000	62.886953 
3736.000000	62.883830 
3735.000000	62.873172 
3734.000000	62.850999 
3733.000000	62.816214 
3732.000000	62.770509 
3731.000000	62.718486 
3730.000000	62.666249 
3729.000000	62.620282 
3728.000000	62.585330 
3727.000000	62.564349 
3726.000000	62.557768 
3725.000000	62.564325 
3724.000000	62.581229 
3723.000000	62.605690 
3722.000000	62.635421 
3721.000000	62.668919 
3720.000000	62.704873 
3719.000000	62.742090 
3718.000000	62.778949 
3717.000000	62.812757 
3716.000000	62.839889 
3715.000000	62.855982 
3714.000000	62.856912 
3713.000000	62.840056 
3712.000000	62.805008 
3711.000000	62.754225 
3710.000000	62.692451 
3709.000000	62.626647 
3708.000000	62.564134 
3707.000000	62.510895 
3706.000000	62.470269 
3705.000000	62.442827 
3704.000000	62.426352 
3703.000000	62.416863 
3702.000000	62.410116 
3701.000000	62.402510 
3700.000000	62.392807 
3699.000000	62.381362 
3698.000000	62.370610 
3697.000000	62.363076 
3696.000000	62.361192 
3695.000000	62.365841 
3694.000000	62.376117 
3693.000000	62.389397 
3692.000000	62.402296 
3691.000000	62.411546 
3690.000000	62.414956 
3689.000000	62.411880 
3688.000000	62.403559 
3687.000000	62.392663 
3686.000000	62.382817 
3685.000000	62.377452 
3684.000000	62.379717 
3683.000000	62.391448 
3682.000000	62.413644 
3681.000000	62.445759 
3680.000000	62.485814 
3679.000000	62.530159 
3678.000000	62.574505 
3677.000000	62.613701 
3676.000000	62.642502 
3675.000000	62.656378 
3674.000000	62.652277 
3673.000000	62.629103 
3672.000000	62.587761 
3671.000000	62.531375 
3670.000000	62.464857 
3669.000000	62.394404 
3668.000000	62.326622 
3667.000000	62.267470 
3666.000000	62.221670 
3665.000000	62.191724 
3664.000000	62.177872 
3663.000000	62.178206 
3662.000000	62.189173 
3661.000000	62.206721 
3660.000000	62.227034 
3659.000000	62.247204 
3658.000000	62.265682 
3657.000000	62.282657 
3656.000000	62.299633 
3655.000000	62.318539 
3654.000000	62.340688 
3653.000000	62.366247 
3652.000000	62.393808 
3651.000000	62.420606 
3650.000000	62.442970 
3649.000000	62.457799 
3648.000000	62.463140 
3647.000000	62.458920 
3646.000000	62.446784 
3645.000000	62.429809 
3644.000000	62.411785 
3643.000000	62.396073 
3642.000000	62.385392 
3641.000000	62.381577 
3640.000000	62.385296 
3639.000000	62.396621 
3638.000000	62.414550 
3637.000000	62.437415 
3636.000000	62.462735 
3635.000000	62.487506 
3634.000000	62.507987 
3633.000000	62.520170 
3632.000000	62.520623 
3631.000000	62.506914 
3630.000000	62.478590 
3629.000000	62.437295 
3628.000000	62.386846 
3627.000000	62.332224 
3626.000000	62.278652 
3625.000000	62.230396 
3624.000000	62.190032 
3623.000000	62.158274 
3622.000000	62.134289 
3621.000000	62.116217 
3620.000000	62.102293 
3619.000000	62.091159 
3618.000000	62.081885 
3617.000000	62.073898 
3616.000000	62.066388 
3615.000000	62.058281 
3614.000000	62.047886 
3613.000000	62.033629 
3612.000000	62.014126 
3611.000000	61.988878 
3610.000000	61.958670 
3609.000000	61.925578 
3608.000000	61.892724 
3607.000000	61.863493 
3606.000000	61.841130 
3605.000000	61.827468 
3604.000000	61.822938 
3603.000000	61.826896 
3602.000000	61.838030 
3601.000000	61.854910 
3600.000000	61.876535 
3599.000000	61.902618 
3598.000000	61.933302 
3597.000000	61.968803 
3596.000000	62.008976 
3595.000000	62.052583 
3594.000000	62.097287 
3593.000000	62.140107 
3592.000000	62.177586 
3591.000000	62.206029 
3590.000000	62.222599 
3589.000000	62.226128 
3588.000000	62.217164 
3587.000000	62.198162 
3586.000000	62.172842 
3585.000000	62.145805 
3584.000000	62.121129 
3583.000000	62.101578 
3582.000000	62.087917 
3581.000000	62.079048 
3580.000000	62.072229 
3579.000000	62.064075 
3578.000000	62.051177 
3577.000000	62.031388 
3576.000000	62.004184 
3575.000000	61.970973 
3574.000000	61.934518 
3573.000000	61.898350 
3572.000000	61.865735 
3571.000000	61.839437 
3570.000000	61.820602 
3569.000000	61.809635 
3568.000000	61.806201 
3567.000000	61.810016 
3566.000000	61.820769 
3565.000000	61.838555 
3564.000000	61.863255 
3563.000000	61.894583 
3562.000000	61.931157 
3561.000000	61.970663 
3560.000000	62.010097 
3559.000000	62.046074 
3558.000000	62.075591 
3557.000000	62.096190 
3556.000000	62.106657 
3555.000000	62.106776 
3554.000000	62.097406 
3553.000000	62.079477 
3552.000000	62.053704 
3551.000000	62.020564 
3550.000000	61.980366 
3549.000000	61.933565 
3548.000000	61.881017 
3547.000000	61.824774 
3546.000000	61.767697 
3545.000000	61.713123 
3544.000000	61.664414 
3543.000000	61.623954 
3542.000000	61.593127 
3541.000000	61.571907 
3540.000000	61.559510 
3539.000000	61.554265 
3538.000000	61.554789 
3537.000000	61.559653 
3536.000000	61.568236 
3535.000000	61.579895 
3534.000000	61.594605 
3533.000000	61.612105 
3532.000000	61.632037 
3531.000000	61.653399 
3530.000000	61.674904 
3529.000000	61.695003 
3528.000000	61.712169 
3527.000000	61.725234 
3526.000000	61.733984 
3525.000000	61.739087 
3524.000000	61.742043 
3523.000000	61.744594 
3522.000000	61.748051 
3521.000000	61.752700 
3520.000000	61.757755 
3519.000000	61.761403 
3518.000000	61.761164 
3517.000000	61.754393 
3516.000000	61.739635 
3515.000000	61.716723 
3514.000000	61.686730 
3513.000000	61.652255 
3512.000000	61.616706 
3511.000000	61.584019 
3510.000000	61.557912 
3509.000000	61.541461 
3508.000000	61.536526 
3507.000000	61.543464 
3506.000000	61.561226 
3505.000000	61.587381 
3504.000000	61.618351 
3503.000000	61.649990 
3502.000000	61.678361 
3501.000000	61.700248 
3500.000000	61.713576 
3499.000000	61.717724 
3498.000000	61.713504 
3497.000000	61.702799 
3496.000000	61.688232 
3495.000000	61.672735 
3494.000000	61.658859 
3493.000000	61.648559 
3492.000000	61.642980 
3491.000000	61.642456 
3490.000000	61.646461 
3489.000000	61.653876 
3488.000000	61.663103 
3487.000000	61.672043 
3486.000000	61.678242 
3485.000000	61.679244 
3484.000000	61.672997 
3483.000000	61.657953 
3482.000000	61.634039 
3481.000000	61.602497 
3480.000000	61.565971 
3479.000000	61.528110 
3478.000000	61.493062 
3477.000000	61.464595 
3476.000000	61.445450 
3475.000000	61.436700 
3474.000000	61.437654 
3473.000000	61.445975 
3472.000000	61.458158 
3471.000000	61.470580 
3470.000000	61.480045 
3469.000000	61.484360 
3468.000000	61.482930 
3467.000000	61.476588 
3466.000000	61.467123 
3465.000000	61.456918 
3464.000000	61.448335 
3463.000000	61.443161 
3462.000000	61.442470 
3461.000000	61.446261 
3460.000000	61.453914 
3459.000000	61.463999 
3458.000000	61.474752 
3457.000000	61.484193 
3456.000000	61.490416 
3455.000000	61.491942 
3454.000000	61.487698 
3453.000000	61.477375 
3452.000000	61.461424 
3451.000000	61.441302 
3450.000000	61.419320 
3449.000000	61.398553 
3448.000000	61.382222 
3447.000000	61.373209 
3446.000000	61.373543 
3445.000000	61.383390 
3444.000000	61.401104 
3443.000000	61.423277 
3442.000000	61.445498 
3441.000000	61.463069 
3440.000000	61.471772 
3439.000000	61.469006 
3438.000000	61.454176 
3437.000000	61.428523 
3436.000000	61.394810 
3435.000000	61.356449 
3434.000000	61.316776 
3433.000000	61.278390 
3432.000000	61.243081 
3431.000000	61.211848 
3430.000000	61.185193 
3429.000000	61.163830 
3428.000000	61.148285 
3427.000000	61.139297 
3426.000000	61.137008 
3425.000000	61.140656 
3424.000000	61.148118 
3423.000000	61.155867 
3422.000000	61.160135 
3421.000000	61.157488 
3420.000000	61.146450 
3419.000000	61.127853 
3418.000000	61.105394 
3417.000000	61.084866 
3416.000000	61.072635 
3415.000000	61.074161 
3414.000000	61.091971 
3413.000000	61.124849 
3412.000000	61.167550 
3411.000000	61.212205 
3410.000000	61.250162 
3409.000000	61.274242 
3408.000000	61.280369 
3407.000000	61.268734 
3406.000000	61.243367 
3405.000000	61.211037 
3404.000000	61.179518 
3403.000000	61.155438 
3402.000000	61.143016 
3401.000000	61.142945 
3400.000000	61.153435 
3399.000000	61.170005 
3398.000000	61.187314 
3397.000000	61.200070 
3396.000000	61.204743 
3395.000000	61.199927 
3394.000000	61.186408 
3393.000000	61.166810 
3392.000000	61.144638 
3391.000000	61.123561 
3390.000000	61.106395 
3389.000000	61.094617 
3388.000000	61.088109 
3387.000000	61.085295 
3386.000000	61.083650 
3385.000000	61.080217 
3384.000000	61.072492 
3383.000000	61.058902 
3382.000000	61.039423 
3381.000000	61.015057 
3380.000000	60.988211 
3379.000000	60.961627 
3378.000000	60.938310 
3377.000000	60.920453 
3376.000000	60.909485 
3375.000000	60.906100 
3374.000000	60.910201 
3373.000000	60.921049 
3372.000000	60.937523 
3371.000000	60.957908 
3370.000000	60.980296 
3369.000000	61.002492 
3368.000000	61.022496 
3367.000000	61.038422 
3366.000000	61.048841 
3365.000000	61.052894 
3364.000000	61.050462 
3363.000000	61.042189 
3362.000000	61.029338 
3361.000000	61.013364 
3360.000000	60.995411 
3359.000000	60.976171 
3358.000000	60.955953 
3357.000000	60.934591 
3356.000000	60.912108 
3355.000000	60.888791 
3354.000000	60.865736 
3353.000000	60.844492 
3352.000000	60.826873 
3351.000000	60.814476 
3350.000000	60.808062 
3349.000000	60.807776 
3348.000000	60.812711 
3347.000000	60.821509 
3346.000000	60.832595 
3345.000000	60.844326 
3344.000000	60.855150 
3343.000000	60.863852 
3342.000000	60.869431 
3341.000000	60.871195 
3340.000000	60.868787 
3339.000000	60.862231 
3338.000000	60.851860 
3337.000000	60.838294 
3336.000000	60.822415 
3335.000000	60.805273 
3334.000000	60.788059 
3333.000000	60.771918 
3332.000000	60.757899 
3331.000000	60.746884 
3330.000000	60.739469 
3329.000000	60.735774 
3328.000000	60.735559 
3327.000000	60.738205 
3326.000000	60.742688 
3325.000000	60.747885 
3324.000000	60.752606 
3323.000000	60.755848 
3322.000000	60.757064 
3321.000000	60.756015 
3320.000000	60.752916 
3319.000000	60.748338 
3318.000000	60.743212 
3317.000000	60.738396 
3316.000000	60.734868 
3315.000000	60.733079 
3314.000000	60.733366 
3313.000000	60.735678 
3312.000000	60.739707 
3311.000000	60.744905 
3310.000000	60.750675 
3309.000000	60.756325 
3308.000000	60.761165 
3307.000000	60.764622 
3306.000000	60.765981 
3305.000000	60.764384 
3304.000000	60.759115 
3303.000000	60.749745 
3302.000000	60.735964 
3301.000000	60.717892 
3300.000000	60.696244 
3299.000000	60.672354 
3298.000000	60.647988 
3297.000000	60.625004 
3296.000000	60.605192 
3295.000000	60.589718 
3294.000000	60.578989 
3293.000000	60.572457 
3292.000000	60.568618 
3291.000000	60.565209 
3290.000000	60.560202 
3289.000000	60.552000 
3288.000000	60.539937 
3287.000000	60.524678 
3286.000000	60.508060 
3285.000000	60.492968 
3284.000000	60.482501 
3283.000000	60.479378 
3282.000000	60.485386 
3281.000000	60.501003 
3280.000000	60.525178 
3279.000000	60.555720 
3278.000000	60.589575 
3277.000000	60.623598 
3276.000000	60.654950 
3275.000000	60.681581 
3274.000000	60.702157 
3273.000000	60.716199 
3272.000000	60.723495 
3271.000000	60.724043 
3270.000000	60.717463 
3269.000000	60.703659 
3268.000000	60.682153 
3267.000000	60.653185 
3266.000000	60.617375 
3265.000000	60.576605 
3264.000000	60.533571 
3263.000000	60.491704 
3262.000000	60.454583 
3261.000000	60.425305 
3260.000000	60.405874 
3259.000000	60.396718 
3258.000000	60.396933 
3257.000000	60.404300 
3256.000000	60.416078 
3255.000000	60.429573 
3254.000000	60.442852 
3253.000000	60.454916 
3252.000000	60.465693 
3251.000000	60.475683 
3250.000000	60.485458 
3249.000000	60.495162 
3248.000000	60.504174 
3247.000000	60.511302 
3246.000000	60.514879 
3245.000000	60.513234 
3244.000000	60.505485 
3243.000000	60.491466 
3242.000000	60.472512 
3241.000000	60.450530 
3240.000000	60.428023 
3239.000000	60.407257 
3238.000000	60.389804 
3237.000000	60.376143 
3236.000000	60.365772 
3235.000000	60.357403 
3234.000000	60.349583 
3233.000000	60.341262 
3232.000000	60.332250 
3231.000000	60.323333 
3230.000000	60.316061 
3229.000000	60.312390 
3228.000000	60.313844 
3227.000000	60.321187 
3226.000000	60.333871 
3225.000000	60.350179 
3224.000000	60.367441 
3223.000000	60.382699 
3222.000000	60.393428 
3221.000000	60.398173 
3220.000000	60.397005 
3219.000000	60.391497 
3218.000000	60.384130 
3217.000000	60.377573 
3216.000000	60.374164 
3215.000000	60.375142 
3214.000000	60.380315 
3213.000000	60.388159 
3212.000000	60.395979 
3211.000000	60.401105 
3210.000000	60.400700 
3209.000000	60.392951 
3208.000000	60.377001 
3207.000000	60.353112 
3206.000000	60.322713 
3205.000000	60.287952 
3204.000000	60.251379 
3203.000000	60.215497 
3202.000000	60.182666 
3201.000000	60.154795 
3200.000000	60.133194 
3199.000000	60.118556 
3198.000000	60.110926 
3197.000000	60.109829 
3196.000000	60.114169 
3195.000000	60.122728 
3194.000000	60.134172 
3193.000000	60.147500 
3192.000000	60.161805 
3191.000000	60.176658 
3190.000000	60.191869 
3189.000000	60.207390 
3188.000000	60.223031 
3187.000000	60.238337 
3186.000000	60.252451 
3185.000000	60.263776 
3184.000000	60.270833 
3183.000000	60.271477 
3182.000000	60.264062 
3181.000000	60.247063 
3180.000000	60.220026 
3179.000000	60.183501 
3178.000000	60.139369 
3177.000000	60.090756 
3176.000000	60.041666 
3175.000000	59.996485 
3174.000000	59.959483 
3173.000000	59.934067 
3172.000000	59.922170 
3171.000000	59.924125 
3170.000000	59.938669 
3169.000000	59.962987 
3168.000000	59.993529 
3167.000000	60.026311 
3166.000000	60.057902 
3165.000000	60.085439 
3164.000000	60.107278 
3163.000000	60.122799 
3162.000000	60.132336 
3161.000000	60.136580 
3160.000000	60.136437 
3159.000000	60.133004 
3158.000000	60.127186 
3157.000000	60.120081 
3156.000000	60.112333 
3155.000000	60.104703 
3154.000000	60.097646 
3153.000000	60.091853 
3152.000000	60.087466 
3151.000000	60.084176 
3150.000000	60.081076 
3149.000000	60.077047 
3148.000000	60.070252 
3147.000000	60.058736 
3146.000000	60.040831 
3145.000000	60.015773 
3144.000000	59.983897 
3143.000000	59.946846 
3142.000000	59.907341 
3141.000000	59.868669 
3140.000000	59.834051 
3139.000000	59.805870 
3138.000000	59.784865 
3137.000000	59.770274 
3136.000000	59.760141 
3135.000000	59.752249 
3134.000000	59.744215 
3133.000000	59.735202 
3132.000000	59.725999 
3131.000000	59.719467 
3130.000000	59.719181 
3129.000000	59.729051 
3128.000000	59.751772 
3127.000000	59.788346 
3126.000000	59.837126 
3125.000000	59.894347 
3124.000000	59.954857 
3123.000000	60.013055 
3122.000000	60.064148 
3121.000000	60.104560 
3120.000000	60.132265 
3119.000000	60.146617 
3118.000000	60.148024 
3117.000000	60.137343 
3116.000000	60.115194 
3115.000000	60.082483 
3114.000000	60.039854 
3113.000000	59.988570 
3112.000000	59.930205 
3111.000000	59.867572 
3110.000000	59.804081 
3109.000000	59.743452 
3108.000000	59.689140 
3107.000000	59.643840 
3106.000000	59.608983 
3105.000000	59.584474 
3104.000000	59.568810 
3103.000000	59.559535 
3102.000000	59.553956 
3101.000000	59.549641 
3100.000000	59.545040 
3099.000000	59.539389 
3098.000000	59.533262 
3097.000000	59.527802 
3096.000000	59.524464 
3095.000000	59.524393 
3094.000000	59.528112 
3093.000000	59.535264 
3092.000000	59.544420 
3091.000000	59.553432 
3090.000000	59.560108 
3089.000000	59.562706 
3088.000000	59.560370 
3087.000000	59.553265 
3086.000000	59.542751 
3085.000000	59.531188 
3084.000000	59.521532 
3083.000000	59.516644 
3082.000000	59.518647 
3081.000000	59.528470 
3080.000000	59.546065 
3079.000000	59.569931 
3078.000000	59.597325 
3077.000000	59.624910 
3076.000000	59.649372 
3075.000000	59.668135 
3074.000000	59.679651 
3073.000000	59.683775 
3072.000000	59.681653 
3071.000000	59.675431 
3070.000000	59.667587 
3069.000000	59.660315 
3068.000000	59.655070 
3067.000000	59.652066 
3066.000000	59.650564 
3065.000000	59.648776 
3064.000000	59.644746 
3063.000000	59.636759 
3062.000000	59.623837 
3061.000000	59.605979 
3060.000000	59.584164 
3059.000000	59.560441 
3058.000000	59.537196 
3057.000000	59.516763 
3056.000000	59.500956 
3055.000000	59.490561 
3054.000000	59.485507 
3053.000000	59.484815 
3052.000000	59.486770 
3051.000000	59.489560 
3050.000000	59.491181 
3049.000000	59.490013 
3048.000000	59.485054 
3047.000000	59.476065 
3046.000000	59.463548 
3045.000000	59.448289 
3044.000000	59.431719 
3043.000000	59.415483 
3042.000000	59.401226 
3041.000000	59.390187 
3040.000000	59.382891 
3039.000000	59.379267 
3038.000000	59.378266 
3037.000000	59.378027 
3036.000000	59.376120 
3035.000000	59.370303 
3034.000000	59.358668 
3033.000000	59.340453 
3032.000000	59.316301 
3031.000000	59.288668 
3030.000000	59.261083 
3029.000000	59.237742 
3028.000000	59.222507 
3027.000000	59.218025 
3026.000000	59.225082 
3025.000000	59.242367 
3024.000000	59.266567 
3023.000000	59.292960 
3022.000000	59.316635 
3021.000000	59.333324 
3020.000000	59.340357 
3019.000000	59.336996 
3018.000000	59.324622 
3017.000000	59.306049 
3016.000000	59.284639 
3015.000000	59.263563 
3014.000000	59.244799 
3013.000000	59.228658 
3012.000000	59.213972 
3011.000000	59.198260 
3010.000000	59.178805 
3009.000000	59.153151 
3008.000000	59.120178 
3007.000000	59.080290 
3006.000000	59.035754 
3005.000000	58.990240 
3004.000000	58.948373 
3003.000000	58.914518 
3002.000000	58.892297 
3001.000000	58.883404 
3000.000000	58.887648 
2999.000000	58.902692 
2998.000000	58.925032 
2997.000000	58.950543 
2996.000000	58.975505 
2995.000000	58.997082 
2994.000000	59.013724 
2993.000000	59.025168 
2992.000000	59.032034 
2991.000000	59.035277 
2990.000000	59.035778 
2989.000000	59.034204 
2988.000000	59.030723 
2987.000000	59.025120 
2986.000000	59.017086 
2985.000000	59.006476 
2984.000000	58.993315 
2983.000000	58.977961 
2982.000000	58.960723 
2981.000000	58.942031 
2980.000000	58.922028 
2979.000000	58.901262 
2978.000000	58.880305 
2977.000000	58.860206 
2976.000000	58.842539 
2975.000000	58.828902 
2974.000000	58.820533 
2973.000000	58.817744 
2972.000000	58.819842 
2971.000000	58.825016 
2970.000000	58.830523 
2969.000000	58.833551 
2968.000000	58.831739 
2967.000000	58.823919 
2966.000000	58.810186 
2965.000000	58.792066 
2964.000000	58.771824 
2963.000000	58.751845 
2962.000000	58.733892 
2961.000000	58.718729 
2960.000000	58.705782 
2959.000000	58.693671 
2958.000000	58.680891 
2957.000000	58.666229 
2956.000000	58.649420 
2955.000000	58.631181 
2954.000000	58.613157 
2953.000000	58.597230 
2952.000000	58.585166 
2951.000000	58.578085 
2950.000000	58.576345 
2949.000000	58.579397 
2948.000000	58.585977 
2947.000000	58.594417 
2946.000000	58.603143 
2945.000000	58.610916 
2944.000000	58.617353 
2943.000000	58.622813 
2942.000000	58.628535 
2941.000000	58.635997 
2940.000000	58.646488 
2939.000000	58.660602 
2938.000000	58.677744 
2937.000000	58.696174 
2936.000000	58.713006 
2935.000000	58.724856 
2934.000000	58.728480 
2933.000000	58.721733 
2932.000000	58.703780 
2931.000000	58.675384 
2930.000000	58.638834 
2929.000000	58.597421 
2928.000000	58.554577 
2927.000000	58.513307 
2926.000000	58.475589 
2925.000000	58.442425 
2924.000000	58.413743 
2923.000000	58.389043 
2922.000000	58.367800 
2921.000000	58.349776 
2920.000000	58.335113 
2919.000000	58.324122 
2918.000000	58.316683 
2917.000000	58.312630 
2916.000000	58.310770 
2915.000000	58.309960 
2914.000000	58.308243 
2913.000000	58.304452 
2912.000000	58.297896 
2911.000000	58.289217 
2910.000000	58.279967 
2909.000000	58.272647 
2908.000000	58.270049 
2907.000000	58.274459 
2906.000000	58.286714 
2905.000000	58.305907 
2904.000000	58.329200 
2903.000000	58.352422 
2902.000000	58.371114 
2901.000000	58.381390 
2900.000000	58.381080 
2899.000000	58.370399 
2898.000000	58.351898 
2897.000000	58.329439 
2896.000000	58.307266 
2895.000000	58.289122 
2894.000000	58.277034 
2893.000000	58.271217 
2892.000000	58.270025 
2891.000000	58.270978 
2890.000000	58.271408 
2889.000000	58.269667 
2888.000000	58.265399 
2887.000000	58.259391 
2886.000000	58.253121 
2885.000000	58.247685 
2884.000000	58.243393 
2883.000000	58.239197 
2882.000000	58.233404 
2881.000000	58.224153 
2880.000000	58.210492 
2879.000000	58.192992 
2878.000000	58.173871 
2877.000000	58.156728 
2876.000000	58.145737 
2875.000000	58.144474 
2874.000000	58.155107 
2873.000000	58.177685 
2872.000000	58.210110 
2871.000000	58.248233 
2870.000000	58.286833 
2869.000000	58.320188 
2868.000000	58.343243 
2867.000000	58.352231 
2866.000000	58.344888 
2865.000000	58.320879 
2864.000000	58.281731 
2863.000000	58.230614 
2862.000000	58.172202 
2861.000000	58.111596 
2860.000000	58.054542 
2859.000000	58.005619 
2858.000000	57.968235 
2857.000000	57.943630 
2856.000000	57.931113 
2855.000000	57.928419 
2854.000000	57.932400 
2853.000000	57.940125 
2852.000000	57.949376 
2851.000000	57.959175 
2850.000000	57.969689 
2849.000000	57.981801 
2848.000000	57.996463 
2847.000000	58.014392 
2846.000000	58.035635 
2845.000000	58.059430 
2844.000000	58.084249 
2843.000000	58.108544 
2842.000000	58.130526 
2841.000000	58.149075 
2840.000000	58.163237 
2839.000000	58.172607 
2838.000000	58.177113 
2837.000000	58.176445 
2836.000000	58.170342 
2835.000000	58.158874 
2834.000000	58.142280 
2833.000000	58.121585 
2832.000000	58.098292 
2831.000000	58.074355 
2830.000000	58.051967 
2829.000000	58.033347 
2828.000000	58.020210 
2827.000000	58.013534 
2826.000000	58.013200 
2825.000000	58.018302 
2824.000000	58.027076 
2823.000000	58.037281 
2822.000000	58.046555 
2821.000000	58.052921 
2820.000000	58.055138 
2819.000000	58.053040 
2818.000000	58.047366 
2817.000000	58.039426 
2816.000000	58.030819 
2815.000000	58.022713 
2814.000000	58.015561 
2813.000000	58.008956 
2812.000000	58.001852 
2811.000000	57.992792 
2810.000000	57.980322 
2809.000000	57.963657 
2808.000000	57.942914 
2807.000000	57.919263 
2806.000000	57.894515 
2805.000000	57.870745 
2804.000000	57.849884 
2803.000000	57.833123 
2802.000000	57.820653 
2801.000000	57.811594 
2800.000000	57.804393 
2799.000000	57.797479 
2798.000000	57.789587 
2797.000000	57.780194 
2796.000000	57.769536 
2795.000000	57.758617 
2794.000000	57.748889 
2793.000000	57.741808 
2792.000000	57.738542 
2791.000000	57.739496 
2790.000000	57.744288 
2789.000000	57.751774 
2788.000000	57.760357 
2787.000000	57.768321 
2786.000000	57.774114 
2785.000000	57.776641 
2784.000000	57.775044 
2783.000000	57.769179 
2782.000000	57.758927 
2781.000000	57.744216 
2780.000000	57.725000 
2779.000000	57.701325 
2778.000000	57.673835 
2777.000000	57.643604 
2776.000000	57.612681 
2775.000000	57.583951 
2774.000000	57.560801 
2773.000000	57.546401 
2772.000000	57.543182 
2771.000000	57.552027 
2770.000000	57.571840 
2769.000000	57.599592 
2768.000000	57.630825 
2767.000000	57.660317 
2766.000000	57.683444 
2765.000000	57.696914 
2764.000000	57.699465 
2763.000000	57.691979 
2762.000000	57.677078 
2761.000000	57.658243 
2760.000000	57.639145 
2759.000000	57.622551 
2758.000000	57.610177 
2757.000000	57.602381 
2756.000000	57.598519 
2755.000000	57.597303 
2754.000000	57.597470 
2753.000000	57.597875 
2752.000000	57.597875 
2751.000000	57.597303 
2750.000000	57.596325 
2749.000000	57.595276 
2748.000000	57.594370 
2747.000000	57.593512 
2746.000000	57.592463 
2745.000000	57.590603 
2744.000000	57.587385 
2743.000000	57.582211 
2742.000000	57.574605 
2741.000000	57.564306 
2740.000000	57.551264 
2739.000000	57.535743 
2738.000000	57.518458 
2737.000000	57.500290 
2736.000000	57.482409 
2735.000000	57.466030 
2734.000000	57.452130 
2733.000000	57.441353 
2732.000000	57.433795 
2731.000000	57.429099 
2730.000000	57.426285 
2729.000000	57.424187 
2728.000000	57.421517 
2727.000000	57.417011 
2726.000000	57.409739 
2725.000000	57.399249 
2724.000000	57.385706 
2723.000000	57.369780 
2722.000000	57.352447 
2721.000000	57.334876 
2720.000000	57.317948 
2719.000000	57.302165 
2718.000000	57.287621 
2717.000000	57.273983 
2716.000000	57.260847 
2715.000000	57.247877 
2714.000000	57.235145 
2713.000000	57.223343 
2712.000000	57.213497 
2711.000000	57.206988 
2710.000000	57.204985 
2709.000000	57.208251 
2708.000000	57.216620 
2707.000000	57.229089 
2706.000000	57.243895 
2705.000000	57.258677 
2704.000000	57.271170 
2703.000000	57.279539 
2702.000000	57.282781 
2701.000000	57.280802 
2700.000000	57.274270 
2699.000000	57.264232 
2698.000000	57.252001 
2697.000000	57.238602 
2696.000000	57.224893 
2695.000000	57.211136 
2694.000000	57.197451 
2693.000000	57.183790 
2692.000000	57.170176 
2691.000000	57.156753 
2690.000000	57.144069 
2689.000000	57.132816 
2688.000000	57.123708 
2687.000000	57.117342 
2686.000000	57.114005 
2685.000000	57.113504 
2684.000000	57.114911 
2683.000000	57.116889 
2682.000000	57.117724 
2681.000000	57.115650 
2680.000000	57.109236 
2679.000000	57.097554 
2678.000000	57.080245 
2677.000000	57.057905 
2676.000000	57.031583 
2675.000000	57.002782 
2674.000000	56.972956 
2673.000000	56.943583 
2672.000000	56.915783 
2671.000000	56.890177 
2670.000000	56.867194 
2669.000000	56.847143 
2668.000000	56.830310 
2667.000000	56.816911 
2666.000000	56.807255 
2665.000000	56.801462 
2664.000000	56.799530 
2663.000000	56.801033 
2662.000000	56.805443 
2661.000000	56.812024 
2660.000000	56.819987 
2659.000000	56.828713 
2658.000000	56.837463 
2657.000000	56.845402 
2656.000000	56.851649 
2655.000000	56.855082 
2654.000000	56.854581 
2653.000000	56.849098 
2652.000000	56.837821 
2651.000000	56.820678 
2650.000000	56.798362 
2649.000000	56.772327 
2648.000000	56.744766 
2647.000000	56.718158 
2646.000000	56.694817 
2645.000000	56.676411 
2644.000000	56.663894 
2643.000000	56.657099 
2642.000000	56.654739 
2641.000000	56.655001 
2640.000000	56.655859 
2639.000000	56.655454 
2638.000000	56.652665 
2637.000000	56.647181 
2636.000000	56.639432 
2635.000000	56.630635 
2634.000000	56.622314 
2633.000000	56.616067 
2632.000000	56.613039 
2631.000000	56.613683 
2630.000000	56.617569 
2629.000000	56.623435 
2628.000000	56.629276 
2627.000000	56.632900 
2626.000000	56.632137 
2625.000000	56.625509 
2624.000000	56.612443 
2623.000000	56.593346 
2622.000000	56.569838 
2621.000000	56.544256 
2620.000000	56.519341 
2619.000000	56.498074 
2618.000000	56.482529 
2617.000000	56.474041 
2616.000000	56.472492 
2615.000000	56.476473 
2614.000000	56.483340 
2613.000000	56.490039 
2612.000000	56.493639 
2611.000000	56.491875 
2610.000000	56.483840 
2609.000000	56.469821 
2608.000000	56.451320 
2607.000000	56.430387 
2606.000000	56.409096 
2605.000000	56.389164 
2604.000000	56.371402 
2603.000000	56.355786 
2602.000000	56.341958 
2601.000000	56.329488 
2600.000000	56.318306 
2599.000000	56.308722 
2598.000000	56.301522 
2597.000000	56.297397 
2596.000000	56.296277 
2595.000000	56.297135 
2594.000000	56.297850 
2593.000000	56.295657 
2592.000000	56.287884 
2591.000000	56.272649 
2590.000000	56.249833 
2589.000000	56.221008 
2588.000000	56.189179 
2587.000000	56.158232 
2586.000000	56.131887 
2585.000000	56.112790 
2584.000000	56.101822 
2583.000000	56.098294 
2582.000000	56.099915 
2581.000000	56.104040 
2580.000000	56.108427 
2579.000000	56.111621 
2578.000000	56.113409 
2577.000000	56.114339 
2576.000000	56.115269 
2575.000000	56.116938 
2574.000000	56.119418 
2573.000000	56.122159 
2572.000000	56.124258 
2571.000000	56.124901 
2570.000000	56.123685 
2569.000000	56.120657 
2568.000000	56.116485 
2567.000000	56.111979 
2566.000000	56.107878 
2565.000000	56.104660 
2564.000000	56.102323 
2563.000000	56.100559 
2562.000000	56.098604 
2561.000000	56.095719 
2560.000000	56.091070 
2559.000000	56.084156 
2558.000000	56.074404 
2557.000000	56.061410 
2556.000000	56.044745 
2555.000000	56.024265 
2554.000000	56.000185 
2553.000000	55.973219 
2552.000000	55.944752 
2551.000000	55.916762 
2550.000000	55.891609 
2549.000000	55.871462 
2548.000000	55.857753 
2547.000000	55.850934 
2546.000000	55.850076 
2545.000000	55.853295 
2544.000000	55.857968 
2543.000000	55.861401 
2542.000000	55.861425 
2541.000000	55.856657 
2540.000000	55.846786 
2539.000000	55.832600 
2538.000000	55.815362 
2537.000000	55.796623 
2536.000000	55.777645 
2535.000000	55.759453 
2534.000000	55.742597 
2533.000000	55.727362 
2532.000000	55.714035 
2531.000000	55.702996 
2530.000000	55.694961 
2529.000000	55.690598 
2528.000000	55.690336 
2527.000000	55.694055 
2526.000000	55.701065 
2525.000000	55.710029 
2524.000000	55.719184 
2523.000000	55.726766 
2522.000000	55.731487 
2521.000000	55.732774 
2520.000000	55.730986 
2519.000000	55.727028 
2518.000000	55.722093 
2517.000000	55.717229 
2516.000000	55.713248 
2515.000000	55.710434 
2514.000000	55.708789 
2513.000000	55.708146 
2512.000000	55.708384 
2511.000000	55.709576 
2510.000000	55.711770 
2509.000000	55.715084 
2508.000000	55.718898 
2507.000000	55.722117 
2506.000000	55.722618 
2505.000000	55.718207 
2504.000000	55.706357 
2503.000000	55.685162 
2502.000000	55.653977 
2501.000000	55.613875 
2500.000000	55.567359 
2499.000000	55.518198 
2498.000000	55.470752 
2497.000000	55.429100 
2496.000000	55.396413 
2495.000000	55.374145 
2494.000000	55.362105 
2493.000000	55.358505 
2492.000000	55.360388 
2491.000000	55.364370 
2490.000000	55.367040 
2489.000000	55.366039 
2488.000000	55.360007 
2487.000000	55.349421 
2486.000000	55.335402 
2485.000000	55.320262 
2484.000000	55.306529 
2483.000000	55.296516 
2482.000000	55.291819 
2481.000000	55.293107 
2480.000000	55.300021 
2479.000000	55.311250 
2478.000000	55.325055 
2477.000000	55.339479 
2476.000000	55.352973 
2475.000000	55.364370 
2474.000000	55.373287 
2473.000000	55.379915 
2472.000000	55.384802 
2471.000000	55.388760 
2470.000000	55.392384 
2469.000000	55.396127 
2468.000000	55.400013 
2467.000000	55.403804 
2466.000000	55.406832 
2465.000000	55.408430 
2464.000000	55.407571 
2463.000000	55.403423 
2462.000000	55.395245 
2461.000000	55.382513 
2460.000000	55.365252 
2459.000000	55.343842 
2458.000000	55.319356 
2457.000000	55.293393 
2456.000000	55.267858 
2455.000000	55.244684 
2454.000000	55.225443 
2453.000000	55.211019 
2452.000000	55.201554 
2451.000000	55.196285 
2450.000000	55.193996 
2449.000000	55.193185 
2448.000000	55.192446 
2447.000000	55.190777 
2446.000000	55.187654 
2445.000000	55.182862 
2444.000000	55.176162 
2443.000000	55.167031 
2442.000000	55.154371 
2441.000000	55.136799 
2440.000000	55.112838 
2439.000000	55.081677 
2438.000000	55.043697 
2437.000000	55.000877 
2436.000000	54.956746 
2435.000000	54.915571 
2434.000000	54.881334 
2433.000000	54.856824 
2432.000000	54.842710 
2431.000000	54.837656 
2430.000000	54.838323 
2429.000000	54.840874 
2428.000000	54.841542 
2427.000000	54.838204 
2426.000000	54.830527 
2425.000000	54.820275 
2424.000000	54.810261 
2423.000000	54.803490 
2422.000000	54.801893 
2421.000000	54.805874 
2420.000000	54.813933 
2419.000000	54.823350 
2418.000000	54.830837 
2417.000000	54.833650 
2416.000000	54.830479 
2415.000000	54.821586 
2414.000000	54.808521 
2413.000000	54.793620 
2412.000000	54.779243 
2411.000000	54.767227 
2410.000000	54.758501 
2409.000000	54.753303 
2408.000000	54.750943 
2407.000000	54.750633 
2406.000000	54.751253 
2405.000000	54.752087 
2404.000000	54.752564 
2403.000000	54.752039 
2402.000000	54.749965 
2401.000000	54.745697 
2400.000000	54.738879 
2399.000000	54.729318 
2398.000000	54.717540 
2397.000000	54.704689 
2396.000000	54.692435 
2395.000000	54.682755 
2394.000000	54.677486 
2393.000000	54.677700 
2392.000000	54.683470 
2391.000000	54.693603 
2390.000000	54.706025 
2389.000000	54.717946 
2388.000000	54.726481 
2387.000000	54.729104 
2386.000000	54.723906 
2385.000000	54.710173 
2384.000000	54.688119 
2383.000000	54.659175 
2382.000000	54.625320 
2381.000000	54.589128 
2380.000000	54.553294 
2379.000000	54.520487 
2378.000000	54.493021 
2377.000000	54.472541 
2376.000000	54.459714 
2375.000000	54.454350 
2374.000000	54.455184 
2373.000000	54.460263 
2372.000000	54.467153 
2371.000000	54.473662 
2370.000000	54.478049 
2369.000000	54.479551 
2368.000000	54.478287 
2367.000000	54.475188 
2366.000000	54.471635 
2365.000000	54.468703 
2364.000000	54.467058 
2363.000000	54.466414 
2362.000000	54.465699 
2361.000000	54.463362 
2360.000000	54.457664 
2359.000000	54.447436 
2358.000000	54.432153 
2357.000000	54.412269 
2356.000000	54.388904 
2355.000000	54.363656 
2354.000000	54.338121 
2353.000000	54.313588 
2352.000000	54.290866 
2351.000000	54.270243 
2350.000000	54.251766 
2349.000000	54.235339 
2348.000000	54.221081 
2347.000000	54.209184 
2346.000000	54.200100 
2345.000000	54.194235 
2344.000000	54.191946 
2343.000000	54.192948 
2342.000000	54.196667 
2341.000000	54.202151 
2340.000000	54.208350 
2339.000000	54.214143 
2338.000000	54.218649 
2337.000000	54.221320 
2336.000000	54.221892 
2335.000000	54.220390 
2334.000000	54.216957 
2333.000000	54.211544 
2332.000000	54.204297 
2331.000000	54.195189 
2330.000000	54.184460 
2329.000000	54.172229 
2328.000000	54.159021 
2327.000000	54.145121 
2326.000000	54.130721 
2325.000000	54.115533 
2324.000000	54.099059 
2323.000000	54.080247 
2322.000000	54.057931 
2321.000000	54.030990 
2320.000000	53.999018 
2319.000000	53.962421 
2318.000000	53.922486 
2317.000000	53.881359 
2316.000000	53.841614 
2315.000000	53.806114 
2314.000000	53.777241 
2313.000000	53.756809 
2312.000000	53.745508 
2311.000000	53.743124 
2310.000000	53.748726 
2309.000000	53.760719 
2308.000000	53.777241 
2307.000000	53.796291 
2306.000000	53.815984 
2305.000000	53.834509 
2304.000000	53.850293 
2303.000000	53.862071 
2302.000000	53.869032 
2301.000000	53.870844 
2300.000000	53.867626 
2299.000000	53.859949 
2298.000000	53.848624 
2297.000000	53.834819 
2296.000000	53.819489 
2295.000000	53.803753 
2294.000000	53.788185 
2293.000000	53.773188 
2292.000000	53.758621 
2291.000000	53.743982 
2290.000000	53.728485 
2289.000000	53.711366 
2288.000000	53.692030 
2287.000000	53.670406 
2286.000000	53.647041 
2285.000000	53.623127 
2284.000000	53.600645 
2283.000000	53.581595 
2282.000000	53.567981 
2281.000000	53.561139 
2280.000000	53.561353 
2279.000000	53.567886 
2278.000000	53.578639 
2277.000000	53.590822 
2276.000000	53.601670 
2275.000000	53.608894 
2274.000000	53.610992 
2273.000000	53.607630 
2272.000000	53.599619 
2271.000000	53.588414 
2270.000000	53.575658 
2269.000000	53.562736 
2268.000000	53.550457 
2267.000000	53.538966 
2266.000000	53.527903 
2265.000000	53.516554 
2264.000000	53.504109 
2263.000000	53.489899 
2262.000000	53.473949 
2261.000000	53.456759 
2260.000000	53.439116 
2259.000000	53.422164 
2258.000000	53.407073 
2257.000000	53.394603 
2256.000000	53.385066 
2255.000000	53.378105 
2254.000000	53.372812 
2253.000000	53.367686 
2252.000000	53.361010 
2251.000000	53.351235 
2250.000000	53.337168 
2249.000000	53.318381 
2248.000000	53.295493 
2247.000000	53.269767 
2246.000000	53.243041 
2245.000000	53.217291 
2244.000000	53.194165 
2243.000000	53.174543 
2242.000000	53.158736 
2241.000000	53.146409 
2240.000000	53.136825 
2239.000000	53.129267 
2238.000000	53.123354 
2237.000000	53.118968 
2236.000000	53.116250 
2235.000000	53.115463 
2234.000000	53.116607 
2233.000000	53.119182 
2232.000000	53.122258 
2231.000000	53.124523 
2230.000000	53.124713 
2229.000000	53.121852 
2228.000000	53.115677 
2227.000000	53.106737 
2226.000000	53.096055 
2225.000000	53.084802 
2224.000000	53.074145 
2223.000000	53.064751 
2222.000000	53.056597 
2221.000000	53.049159 
2220.000000	53.041648 
2219.000000	53.033208 
2218.000000	53.023219 
2217.000000	53.011536 
2216.000000	52.998518 
2215.000000	52.984905 
2214.000000	52.971339 
2213.000000	52.958703 
2212.000000	52.947425 
2211.000000	52.938008 
2210.000000	52.930593 
2209.000000	52.925252 
2208.000000	52.921819 
2207.000000	52.920079 
2206.000000	52.919745 
2205.000000	52.920293 
2204.000000	52.921009 
2203.000000	52.921271 
2202.000000	52.920603 
2201.000000	52.919030 
2200.000000	52.916741 
2199.000000	52.914452 
2198.000000	52.912902 
2197.000000	52.912616 
2196.000000	52.913427 
2195.000000	52.914524 
2194.000000	52.914357 
2193.000000	52.910923 
2192.000000	52.902507 
2191.000000	52.887916 
2190.000000	52.867221 
2189.000000	52.841734 
2188.000000	52.813792 
2187.000000	52.786111 
2186.000000	52.761244 
2185.000000	52.740907 
2184.000000	52.725625 
2183.000000	52.714729 
2182.000000	52.706551 
2181.000000	52.699208 
2180.000000	52.690935 
2179.000000	52.680492 
2178.000000	52.667307 
2177.000000	52.651453 
2176.000000	52.633404 
2175.000000	52.613925 
2174.000000	52.593588 
2173.000000	52.572774 
2172.000000	52.551937 
2171.000000	52.531385 
2170.000000	52.511644 
2169.000000	52.493214 
2168.000000	52.476477 
2167.000000	52.461671 
2166.000000	52.448391 
2165.000000	52.436184 
2164.000000	52.424287 
2163.000000	52.412486 
2162.000000	52.400708 
2161.000000	52.389931 
2160.000000	52.381491 
2159.000000	52.377176 
2158.000000	52.378487 
2157.000000	52.386260 
2156.000000	52.400135 
2155.000000	52.418470 
2154.000000	52.438521 
2153.000000	52.456784 
2152.000000	52.469563 
2151.000000	52.473855 
2150.000000	52.467942 
2149.000000	52.451658 
2148.000000	52.426338 
2147.000000	52.394700 
2146.000000	52.360129 
2145.000000	52.326083 
2144.000000	52.295279 
2143.000000	52.269577 
2142.000000	52.249479 
2141.000000	52.234196 
2140.000000	52.222132 
2139.000000	52.211165 
2138.000000	52.199602 
2137.000000	52.186441 
2136.000000	52.171802 
2135.000000	52.156615 
2134.000000	52.142691 
2133.000000	52.131676 
2132.000000	52.124857 
2131.000000	52.122426 
2130.000000	52.123618 
2129.000000	52.126717 
2128.000000	52.129650 
2127.000000	52.130532 
2126.000000	52.128148 
2125.000000	52.122330 
2124.000000	52.114081 
2123.000000	52.105164 
2122.000000	52.097606 
2121.000000	52.092981 
2120.000000	52.092051 
2119.000000	52.094411 
2118.000000	52.098703 
2117.000000	52.102684 
2116.000000	52.104139 
2115.000000	52.101349 
2114.000000	52.093124 
2113.000000	52.079296 
2112.000000	52.060532 
2111.000000	52.038383 
2110.000000	52.014398 
2109.000000	51.990246 
2108.000000	51.967167 
2107.000000	51.945900 
2106.000000	51.926827 
2105.000000	51.909947 
2104.000000	51.894879 
2103.000000	51.881337 
2102.000000	51.869034 
2101.000000	51.858162 
2100.000000	51.848769 
2099.000000	51.841354 
2098.000000	51.836371 
2097.000000	51.834297 
2096.000000	51.835370 
2095.000000	51.839637 
2094.000000	51.846790 
2093.000000	51.856231 
2092.000000	51.867103 
2091.000000	51.878523 
2090.000000	51.889634 
2089.000000	51.899766 
2088.000000	51.908278 
2087.000000	51.914763 
2086.000000	51.918721 
2085.000000	51.919841 
2084.000000	51.917433 
2083.000000	51.910924 
2082.000000	51.899123 
2081.000000	51.881384 
2080.000000	51.856946 
2079.000000	51.825428 
2078.000000	51.786923 
2077.000000	51.742410 
2076.000000	51.693558 
2075.000000	51.642751 
2074.000000	51.593112 
2073.000000	51.547932 
2072.000000	51.510381 
2071.000000	51.482963 
2070.000000	51.467132 
2069.000000	51.462936 
2068.000000	51.468920 
2067.000000	51.482224 
2066.000000	51.499009 
2065.000000	51.514911 
2064.000000	51.525878 
2063.000000	51.529026 
2062.000000	51.522779 
2061.000000	51.507520 
2060.000000	51.485466 
2059.000000	51.460313 
2058.000000	51.436257 
2057.000000	51.417422 
2056.000000	51.406908 
2055.000000	51.406145 
2054.000000	51.414799 
2053.000000	51.430559 
2052.000000	51.450109 
2051.000000	51.469421 
2050.000000	51.484775 
2049.000000	51.493406 
2048.000000	51.494002 
2047.000000	51.486706 
2046.000000	51.472997 
2045.000000	51.455163 
2044.000000	51.435589 
2043.000000	51.416397 
2042.000000	51.399254 
2041.000000	51.384782 
2040.000000	51.372933 
2039.000000	51.363039 
2038.000000	51.354312 
2037.000000	51.345777 
2036.000000	51.336646 
2035.000000	51.326131 
2034.000000	51.313734 
2033.000000	51.299214 
2032.000000	51.282620 
2031.000000	51.264309 
2030.000000	51.244664 
2029.000000	51.224231 
2028.000000	51.203441 
2027.000000	51.182770 
2026.000000	51.162385 
2025.000000	51.142239 
2024.000000	51.122212 
2023.000000	51.102066 
2022.000000	51.081681 
2021.000000	51.061153 
2020.000000	51.040959 
2019.000000	51.021647 
2018.000000	51.004195 
2017.000000	50.989842 
2016.000000	50.979924 
2015.000000	50.975370 
2014.000000	50.976800 
2013.000000	50.984025 
2012.000000	50.996088 
2011.000000	51.011347 
2010.000000	51.027345 
2009.000000	51.041293 
2008.000000	51.050329 
2007.000000	51.052451 
2006.000000	51.046514 
2005.000000	51.032829 
2004.000000	51.013088 
2003.000000	50.990056 
2002.000000	50.967144 
2001.000000	50.947546 
2000.000000	50.933861 
1999.000000	50.927329 
1998.000000	50.927639 
1997.000000	50.933027 
1996.000000	50.940942 
1995.000000	50.948214 
1994.000000	50.951957 
1993.000000	50.949931 
1992.000000	50.940990 
1991.000000	50.925183 
1990.000000	50.903487 
1989.000000	50.877761 
1988.000000	50.850105 
1987.000000	50.822520 
1986.000000	50.796651 
1985.000000	50.773715 
1984.000000	50.754308 
1983.000000	50.738573 
1982.000000	50.726127 
1981.000000	50.716280 
1980.000000	50.708174 
1979.000000	50.700688 
1978.000000	50.692987 
1977.000000	50.684070 
1976.000000	50.673556 
1975.000000	50.661373 
1974.000000	50.648283 
1973.000000	50.635313 
1972.000000	50.623846 
1971.000000	50.615024 
1970.000000	50.609803 
1969.000000	50.608325 
1968.000000	50.610113 
1967.000000	50.613856 
1966.000000	50.617909 
1965.000000	50.620532 
1964.000000	50.620317 
1963.000000	50.616359 
1962.000000	50.608658 
1961.000000	50.597667 
1960.000000	50.584387 
1959.000000	50.569963 
1958.000000	50.555396 
1957.000000	50.541520 
1956.000000	50.528812 
1955.000000	50.517296 
1954.000000	50.506901 
1953.000000	50.497460 
1952.000000	50.488805 
1951.000000	50.480723 
1950.000000	50.472927 
1949.000000	50.465083 
1948.000000	50.456714 
1947.000000	50.447201 
1946.000000	50.435996 
1945.000000	50.422692 
1944.000000	50.407290 
1943.000000	50.390219 
1942.000000	50.372195 
1941.000000	50.354146 
1940.000000	50.337266 
1939.000000	50.322222 
1938.000000	50.309252 
1937.000000	50.298118 
1936.000000	50.288319 
1935.000000	50.279283 
1934.000000	50.270438 
1933.000000	50.261592 
1932.000000	50.253057 
1931.000000	50.245666 
1930.000000	50.240254 
1929.000000	50.237607 
1928.000000	50.238013 
1927.000000	50.241208 
1926.000000	50.246310 
1925.000000	50.251984 
1924.000000	50.256657 
1923.000000	50.258946 
1922.000000	50.257825 
1921.000000	50.252890 
1920.000000	50.244235 
1919.000000	50.232458 
1918.000000	50.218152 
1917.000000	50.201964 
1916.000000	50.183939 
1915.000000	50.164031 
1914.000000	50.141692 
1913.000000	50.116229 
1912.000000	50.086998 
1911.000000	50.053763 
1910.000000	50.017023 
1909.000000	49.977993 
1908.000000	49.938631 
1907.000000	49.901437 
1906.000000	49.869203 
1905.000000	49.844527 
1904.000000	49.829244 
1903.000000	49.824070 
1902.000000	49.828672 
1901.000000	49.841427 
1900.000000	49.859738 
1899.000000	49.880409 
1898.000000	49.900341 
1897.000000	49.917030 
1896.000000	49.928736 
1895.000000	49.934816 
1894.000000	49.935722 
1893.000000	49.932670 
1892.000000	49.927163 
1891.000000	49.920654 
1890.000000	49.914312 
1889.000000	49.908828 
1888.000000	49.904632 
1887.000000	49.901700 
1886.000000	49.899935 
1885.000000	49.899077 
1884.000000	49.899077 
1883.000000	49.899578 
1882.000000	49.900054 
1881.000000	49.899554 
1880.000000	49.896931 
1879.000000	49.890804 
1878.000000	49.879837 
1877.000000	49.863243 
1876.000000	49.841046 
1875.000000	49.813890 
1874.000000	49.782967 
1873.000000	49.749946 
1872.000000	49.716567 
1871.000000	49.684429 
1870.000000	49.654579 
1869.000000	49.627494 
1868.000000	49.603319 
1867.000000	49.582004 
1866.000000	49.563717 
1865.000000	49.548506 
1864.000000	49.536848 
1863.000000	49.529242 
1862.000000	49.526262 
1861.000000	49.527883 
1860.000000	49.533557 
1859.000000	49.542069 
1858.000000	49.551677 
1857.000000	49.560165 
1856.000000	49.565124 
1855.000000	49.564528 
1854.000000	49.556970 
1853.000000	49.541926 
1852.000000	49.519848 
1851.000000	49.492359 
1850.000000	49.461674 
1849.000000	49.430370 
1848.000000	49.400854 
1847.000000	49.374938 
1846.000000	49.353432 
1845.000000	49.336266 
1844.000000	49.322509 
1843.000000	49.310731 
1842.000000	49.299597 
1841.000000	49.288344 
1840.000000	49.276947 
1839.000000	49.266123 
1838.000000	49.257183 
1837.000000	49.251556 
1836.000000	49.249863 
1835.000000	49.252057 
1834.000000	49.256825 
1833.000000	49.262261 
1832.000000	49.265933 
1831.000000	49.265670 
1830.000000	49.260306 
1829.000000	49.249696 
1828.000000	49.234795 
1827.000000	49.217391 
1826.000000	49.199676 
1825.000000	49.183535 
1824.000000	49.170231 
1823.000000	49.160313 
1822.000000	49.153375 
1821.000000	49.148488 
1820.000000	49.144387 
1819.000000	49.140048 
1818.000000	49.134659 
1817.000000	49.127697 
1816.000000	49.119067 
1815.000000	49.108695 
1814.000000	49.096918 
1813.000000	49.084091 
1812.000000	49.070811 
1811.000000	49.057674 
1810.000000	49.045467 
1809.000000	49.034953 
1808.000000	49.026799 
1807.000000	49.021267 
1806.000000	49.018359 
1805.000000	49.017739 
1804.000000	49.018812 
1803.000000	49.020791 
1802.000000	49.023032 
1801.000000	49.025082 
1800.000000	49.026632 
1799.000000	49.027466 
1798.000000	49.027371 
1797.000000	49.026131 
1796.000000	49.023342 
1795.000000	49.018669 
1794.000000	49.011898 
1793.000000	49.002981 
1792.000000	48.992419 
1791.000000	48.980998 
1790.000000	48.969650 
1789.000000	48.959112 
1788.000000	48.949527 
1787.000000	48.940634 
1786.000000	48.931598 
1785.000000	48.921275 
1784.000000	48.908734 
1783.000000	48.893499 
1782.000000	48.875975 
1781.000000	48.857212 
1780.000000	48.838949 
1779.000000	48.822951 
1778.000000	48.810553 
1777.000000	48.802161 
1776.000000	48.797178 
1775.000000	48.794078 
1774.000000	48.790836 
1773.000000	48.785591 
1772.000000	48.777008 
1771.000000	48.764801 
1770.000000	48.749685 
1769.000000	48.733162 
1768.000000	48.716998 
1767.000000	48.702621 
1766.000000	48.690795 
1765.000000	48.681211 
1764.000000	48.672842 
1763.000000	48.664188 
1762.000000	48.653864 
1761.000000	48.640918 
1760.000000	48.625087 
1759.000000	48.606967 
1758.000000	48.587775 
1757.000000	48.568725 
1756.000000	48.551011 
1755.000000	48.535418 
1754.000000	48.522305 
1753.000000	48.511552 
1752.000000	48.502731 
1751.000000	48.495221 
1750.000000	48.488450 
1749.000000	48.481988 
1748.000000	48.475623 
1747.000000	48.469090 
1746.000000	48.462414 
1745.000000	48.455595 
1744.000000	48.449063 
1743.000000	48.443222 
1742.000000	48.438620 
1741.000000	48.435735 
1740.000000	48.434686 
1739.000000	48.435187 
1738.000000	48.436307 
1737.000000	48.436617 
1736.000000	48.434352 
1735.000000	48.427629 
1734.000000	48.415279 
1733.000000	48.396825 
1732.000000	48.372626 
1731.000000	48.343777 
1730.000000	48.312163 
1729.000000	48.280286 
1728.000000	48.250865 
1727.000000	48.226857 
1726.000000	48.210668 
1725.000000	48.204159 
1724.000000	48.208427 
1723.000000	48.223352 
1722.000000	48.247480 
1721.000000	48.277902 
1720.000000	48.310708 
1719.000000	48.341202 
1718.000000	48.364639 
1717.000000	48.377108 
1716.000000	48.376107 
1715.000000	48.361134 
1714.000000	48.333764 
1713.000000	48.297548 
1712.000000	48.257350 
1711.000000	48.218560 
1710.000000	48.186087 
1709.000000	48.164057 
1708.000000	48.154687 
1707.000000	48.158574 
1706.000000	48.174047 
1705.000000	48.197770 
1704.000000	48.224592 
1703.000000	48.248863 
1702.000000	48.264884 
1701.000000	48.267936 
1700.000000	48.254966 
1699.000000	48.225235 
1698.000000	48.180365 
1697.000000	48.124027 
1696.000000	48.061537 
1695.000000	47.998833 
1694.000000	47.941708 
1693.000000	47.895240 
1692.000000	47.862720 
1691.000000	47.845482 
1690.000000	47.842383 
1689.000000	47.850322 
1688.000000	47.864437 
1687.000000	47.879266 
1686.000000	47.889447 
1685.000000	47.890615 
1684.000000	47.880315 
1683.000000	47.858428 
1682.000000	47.827076 
1681.000000	47.790265 
1680.000000	47.752976 
1679.000000	47.720026 
1678.000000	47.695350 
1677.000000	47.680735 
1676.000000	47.675967 
1675.000000	47.678828 
1674.000000	47.686004 
1673.000000	47.693657 
1672.000000	47.698259 
1671.000000	47.697424 
1670.000000	47.689938 
1669.000000	47.676181 
1668.000000	47.657251 
1667.000000	47.635340 
1666.000000	47.612881 
1665.000000	47.592806 
1664.000000	47.577857 
1663.000000	47.571015 
1662.000000	47.574710 
1661.000000	47.590756 
1660.000000	47.619795 
1659.000000	47.660779 
1658.000000	47.710776 
1657.000000	47.764945 
1656.000000	47.817301 
1655.000000	47.861671 
1654.000000	47.892785 
1653.000000	47.907280 
1652.000000	47.903943 
1651.000000	47.884082 
1650.000000	47.850823 
1649.000000	47.808480 
1648.000000	47.761654 
1647.000000	47.714757 
1646.000000	47.670841 
1645.000000	47.632312 
1644.000000	47.600078 
1643.000000	47.574591 
1642.000000	47.555208 
1641.000000	47.540760 
1640.000000	47.529482 
1639.000000	47.519302 
1638.000000	47.507882 
1637.000000	47.492814 
1636.000000	47.472333 
1635.000000	47.445535 
1634.000000	47.412800 
1633.000000	47.375559 
1632.000000	47.336220 
1631.000000	47.297620 
1630.000000	47.262334 
1629.000000	47.232174 
1628.000000	47.208070 
1627.000000	47.190093 
1626.000000	47.177600 
1625.000000	47.169184 
1624.000000	47.163677 
1623.000000	47.159624 
1622.000000	47.155690 
1621.000000	47.150301 
1620.000000	47.141599 
1619.000000	47.127676 
1618.000000	47.106766 
1617.000000	47.077536 
1616.000000	47.039556 
1615.000000	46.993899 
1614.000000	46.943378 
1613.000000	46.891975 
1612.000000	46.844196 
1611.000000	46.804237 
1610.000000	46.775197 
1609.000000	46.758055 
1608.000000	46.751618 
1607.000000	46.752858 
1606.000000	46.757555 
1605.000000	46.761631 
1604.000000	46.762132 
1603.000000	46.757721 
1602.000000	46.748971 
1601.000000	46.737599 
1600.000000	46.726036 
1599.000000	46.716237 
1598.000000	46.709418 
1597.000000	46.705508 
1596.000000	46.703481 
1595.000000	46.702075 
1594.000000	46.699929 
1593.000000	46.696138 
1592.000000	46.690225 
1591.000000	46.682500 
1590.000000	46.673727 
1589.000000	46.664643 
1588.000000	46.656322 
1587.000000	46.649360 
1586.000000	46.644520 
1585.000000	46.642494 
1584.000000	46.644043 
1583.000000	46.649765 
1582.000000	46.659731 
1581.000000	46.673202 
1580.000000	46.688628 
1579.000000	46.703600 
1578.000000	46.715259 
1577.000000	46.720814 
1576.000000	46.718144 
1575.000000	46.706438 
1574.000000	46.685957 
1573.000000	46.658492 
1572.000000	46.626543 
1571.000000	46.593546 
1570.000000	46.563458 
1569.000000	46.540164 
1568.000000	46.527123 
1567.000000	46.526551 
1566.000000	46.539282 
1565.000000	46.564078 
1564.000000	46.597814 
1563.000000	46.635627 
1562.000000	46.671724 
1561.000000	46.700191 
1560.000000	46.715927 
1559.000000	46.715736 
1558.000000	46.698784 
1557.000000	46.666622 
1556.000000	46.622872 
1555.000000	46.572113 
1554.000000	46.518921 
1553.000000	46.467328 
1552.000000	46.420359 
1551.000000	46.380639 
1550.000000	46.350336 
1549.000000	46.331548 
1548.000000	46.325755 
1547.000000	46.333384 
1546.000000	46.353220 
1545.000000	46.381759 
1544.000000	46.413397 
1543.000000	46.441459 
1542.000000	46.459054 
1541.000000	46.461224 
1540.000000	46.445226 
1539.000000	46.411252 
1538.000000	46.362257 
1537.000000	46.303367 
1536.000000	46.240568 
1535.000000	46.179628 
1534.000000	46.125197 
1533.000000	46.080040 
1532.000000	46.045613 
1531.000000	46.022176 
1530.000000	46.009254 
1529.000000	46.006011 
1528.000000	46.011447 
1527.000000	46.024298 
1526.000000	46.042633 
1525.000000	46.063876 
1524.000000	46.084952 
1523.000000	46.102714 
1522.000000	46.114611 
1521.000000	46.119332 
1520.000000	46.116733 
1519.000000	46.108174 
1518.000000	46.096086 
1517.000000	46.083807 
1516.000000	46.074867 
1515.000000	46.072173 
1514.000000	46.077561 
1513.000000	46.091055 
1512.000000	46.111011 
1511.000000	46.134018 
1510.000000	46.155595 
1509.000000	46.170830 
1508.000000	46.175551 
1507.000000	46.166968 
1506.000000	46.144485 
1505.000000	46.109437 
1504.000000	46.064782 
1503.000000	46.014356 
1502.000000	45.962500 
1501.000000	45.913028 
1500.000000	45.868635 
1499.000000	45.830988 
1498.000000	45.800662 
1497.000000	45.777440 
1496.000000	45.760679 
1495.000000	45.749545 
1494.000000	45.743179 
1493.000000	45.740365 
1492.000000	45.739698 
1491.000000	45.739078 
1490.000000	45.736241 
1489.000000	45.728754 
1488.000000	45.714783 
1487.000000	45.693230 
1486.000000	45.664572 
1485.000000	45.630502 
1484.000000	45.593929 
1483.000000	45.558261 
1482.000000	45.527100 
1481.000000	45.503520 
1480.000000	45.489311 
1479.000000	45.484590 
1478.000000	45.487785 
1477.000000	45.495915 
1476.000000	45.505332 
1475.000000	45.512294 
1474.000000	45.513987 
1473.000000	45.509028 
1472.000000	45.498085 
1471.000000	45.483207 
1470.000000	45.467376 
1469.000000	45.453381 
1468.000000	45.443415 
1467.000000	45.438575 
1466.000000	45.438766 
1465.000000	45.442914 
1464.000000	45.449733 
1463.000000	45.457696 
1462.000000	45.465803 
1461.000000	45.473098 
1460.000000	45.478820 
1459.000000	45.481991 
1458.000000	45.481133 
1457.000000	45.474576 
1456.000000	45.460557 
1455.000000	45.438122 
1454.000000	45.407533 
1453.000000	45.370697 
1452.000000	45.331192 
1451.000000	45.293664 
1450.000000	45.262670 
1449.000000	45.241761 
1448.000000	45.232629 
1447.000000	45.235157 
1446.000000	45.247459 
1445.000000	45.266175 
1444.000000	45.287346 
1443.000000	45.306873 
1442.000000	45.321202 
1441.000000	45.327377 
1440.000000	45.323419 
1439.000000	45.308518 
1438.000000	45.283102 
1437.000000	45.248866 
1436.000000	45.208287 
1435.000000	45.164465 
1434.000000	45.120692 
1433.000000	45.079922 
1432.000000	45.044684 
1431.000000	45.016646 
1430.000000	44.996666 
1429.000000	44.984745 
1428.000000	44.980287 
1427.000000	44.982123 
1426.000000	44.988679 
1425.000000	44.998168 
1424.000000	45.008301 
1423.000000	45.016336 
1422.000000	45.019149 
1421.000000	45.013856 
1420.000000	44.997930 
1419.000000	44.969797 
1418.000000	44.929432 
1417.000000	44.878578 
1416.000000	44.820404 
1415.000000	44.759154 
1414.000000	44.699335 
1413.000000	44.645094 
1412.000000	44.599485 
1411.000000	44.564342 
1410.000000	44.539976 
1409.000000	44.525527 
1408.000000	44.519424 
1407.000000	44.519972 
1406.000000	44.525384 
1405.000000	44.534277 
1404.000000	44.545340 
1403.000000	44.557380 
1402.000000	44.568943 
1401.000000	44.578623 
1400.000000	44.584989 
1399.000000	44.587063 
1398.000000	44.584441 
1397.000000	44.577431 
1396.000000	44.567370 
1395.000000	44.556069 
1394.000000	44.545531 
1393.000000	44.537210 
1392.000000	44.531869 
1391.000000	44.529151 
1390.000000	44.527792 
1389.000000	44.525980 
1388.000000	44.521880 
1387.000000	44.514322 
1386.000000	44.503283 
1385.000000	44.489717 
1384.000000	44.475507 
1383.000000	44.462966 
1382.000000	44.454312 
1381.000000	44.450998 
1380.000000	44.452977 
1379.000000	44.459271 
1378.000000	44.467377 
1377.000000	44.474434 
1376.000000	44.477128 
1375.000000	44.472646 
1374.000000	44.459176 
1373.000000	44.436240 
1372.000000	44.404864 
1371.000000	44.367051 
1370.000000	44.325828 
1369.000000	44.284629 
1368.000000	44.246625 
1367.000000	44.214367 
1366.000000	44.189429 
1365.000000	44.172334 
1364.000000	44.162631 
1363.000000	44.158983 
1362.000000	44.159817 
1361.000000	44.163680 
1360.000000	44.169259 
1359.000000	44.175815 
1358.000000	44.182682 
1357.000000	44.189381 
1356.000000	44.195318 
1355.000000	44.199681 
1354.000000	44.201207 
1353.000000	44.198656 
1352.000000	44.190979 
1351.000000	44.177627 
1350.000000	44.158720 
1349.000000	44.135117 
1348.000000	44.108223 
1347.000000	44.079661 
1346.000000	44.050955 
1345.000000	44.023036 
1344.000000	43.996214 
1343.000000	43.970108 
1342.000000	43.944072 
1341.000000	43.917489 
1340.000000	43.889975 
1339.000000	43.861722 
1338.000000	43.833422 
1337.000000	43.806171 
1336.000000	43.781280 
1335.000000	43.759918 
1334.000000	43.743133 
1333.000000	43.731570 
1332.000000	43.725609 
1331.000000	43.725204 
1330.000000	43.730258 
1329.000000	43.740224 
1328.000000	43.754315 
1327.000000	43.771505 
1326.000000	43.790340 
1325.000000	43.809008 
1324.000000	43.825316 
1323.000000	43.837141 
1322.000000	43.842315 
1321.000000	43.839335 
1320.000000	43.827319 
1319.000000	43.806338 
1318.000000	43.777418 
1317.000000	43.742513 
1316.000000	43.703985 
1315.000000	43.664455 
1314.000000	43.626332 
1313.000000	43.591690 
1312.000000	43.561959 
1311.000000	43.537855 
1310.000000	43.519425 
1309.000000	43.506169 
1308.000000	43.496823 
1307.000000	43.489766 
1306.000000	43.483066 
1305.000000	43.474888 
1304.000000	43.463921 
1303.000000	43.449544 
1302.000000	43.432021 
1301.000000	43.412399 
1300.000000	43.392324 
1299.000000	43.373703 
1298.000000	43.358111 
1297.000000	43.346810 
1296.000000	43.340277 
1295.000000	43.338513 
1294.000000	43.340849 
1293.000000	43.346166 
1292.000000	43.353223 
1291.000000	43.360495 
1290.000000	43.366456 
1289.000000	43.369722 
1288.000000	43.368983 
1287.000000	43.363332 
1286.000000	43.352270 
1285.000000	43.336057 
1284.000000	43.315672 
1283.000000	43.292617 
1282.000000	43.268918 
1281.000000	43.246459 
1280.000000	43.226695 
1279.000000	43.210172 
1278.000000	43.196821 
1277.000000	43.185615 
1276.000000	43.175172 
1275.000000	43.164157 
1274.000000	43.151783 
1273.000000	43.138003 
1272.000000	43.123507 
1271.000000	43.109583 
1270.000000	43.097710 
1269.000000	43.089032 
1268.000000	43.084073 
1267.000000	43.082547 
1266.000000	43.083691 
1265.000000	43.086409 
1264.000000	43.089628 
1263.000000	43.092703 
1262.000000	43.095064 
1261.000000	43.096399 
1260.000000	43.096208 
1259.000000	43.093633 
1258.000000	43.087697 
1257.000000	43.077301 
1256.000000	43.061733 
1255.000000	43.040680 
1254.000000	43.014764 
1253.000000	42.985200 
1252.000000	42.953848 
1251.000000	42.922854 
1250.000000	42.894148 
1249.000000	42.869281 
1248.000000	42.849087 
1247.000000	42.833614 
1246.000000	42.822456 
1245.000000	42.814636 
1244.000000	42.809200 
1243.000000	42.805171 
1242.000000	42.801594 
1241.000000	42.797923 
1240.000000	42.793488 
1239.000000	42.787957 
1238.000000	42.780947 
1237.000000	42.772173 
1236.000000	42.761301 
1235.000000	42.747998 
1234.000000	42.731809 
1233.000000	42.712235 
1232.000000	42.688989 
1231.000000	42.662334 
1230.000000	42.633080 
1229.000000	42.602825 
1228.000000	42.573761 
1227.000000	42.548227 
1226.000000	42.528223 
1225.000000	42.515087 
1224.000000	42.508959 
1223.000000	42.508625 
1222.000000	42.511916 
1221.000000	42.515897 
1220.000000	42.517971 
1219.000000	42.516160 
1218.000000	42.509603 
1217.000000	42.498707 
1216.000000	42.484855 
1215.000000	42.469763 
1214.000000	42.454910 
1213.000000	42.441058 
1212.000000	42.428207 
1211.000000	42.415738 
1210.000000	42.402958 
1209.000000	42.389321 
1208.000000	42.374897 
1207.000000	42.360353 
1206.000000	42.346954 
1205.000000	42.336130 
1204.000000	42.328977 
1203.000000	42.326021 
1202.000000	42.327094 
1201.000000	42.331314 
1200.000000	42.337274 
1199.000000	42.343282 
1198.000000	42.347931 
1197.000000	42.350077 
1196.000000	42.348766 
1195.000000	42.343330 
1194.000000	42.333197 
1193.000000	42.318177 
1192.000000	42.298388 
1191.000000	42.274379 
1190.000000	42.247319 
1189.000000	42.218565 
1188.000000	42.189836 
1187.000000	42.162537 
1186.000000	42.137622 
1185.000000	42.115402 
1184.000000	42.095422 
1183.000000	42.076945 
1182.000000	42.059040 
1181.000000	42.041158 
1180.000000	42.023253 
1179.000000	42.006015 
1178.000000	41.990661 
1177.000000	41.978836 
1176.000000	41.972041 
1175.000000	41.971421 
1174.000000	41.977119 
1173.000000	41.988635 
1172.000000	42.004656 
1171.000000	42.023301 
1170.000000	42.042136 
1169.000000	42.058610 
1168.000000	42.070245 
1167.000000	42.074704 
1166.000000	42.070221 
1165.000000	42.055964 
1164.000000	42.032289 
1163.000000	42.000651 
1162.000000	41.963863 
1161.000000	41.925215 
1160.000000	41.888546 
1159.000000	41.857385 
1158.000000	41.834497 
1157.000000	41.821551 
1156.000000	41.818690 
1155.000000	41.824674 
1154.000000	41.836953 
1153.000000	41.852045 
1152.000000	41.865992 
1151.000000	41.875028 
1150.000000	41.875958 
1149.000000	41.866612 
1148.000000	41.846179 
1147.000000	41.815352 
1146.000000	41.776275 
1145.000000	41.732025 
1144.000000	41.686415 
1143.000000	41.643095 
1142.000000	41.605138 
1141.000000	41.574478 
1140.000000	41.551661 
1139.000000	41.536045 
1138.000000	41.526412 
1137.000000	41.521430 
1136.000000	41.519737 
1135.000000	41.520333 
1134.000000	41.522717 
1133.000000	41.526579 
1132.000000	41.531157 
1131.000000	41.535663 
1130.000000	41.538643 
1129.000000	41.538548 
1128.000000	41.534042 
1127.000000	41.524362 
1126.000000	41.509652 
1125.000000	41.491174 
1124.000000	41.471147 
1123.000000	41.452264 
1122.000000	41.437363 
1121.000000	41.428518 
1120.000000	41.426801 
1119.000000	41.432023 
1118.000000	41.442751 
1117.000000	41.456675 
1116.000000	41.470742 
1115.000000	41.482043 
1114.000000	41.487932 
1113.000000	41.486454 
1112.000000	41.476273 
1111.000000	41.456866 
1110.000000	41.428542 
1109.000000	41.392326 
1108.000000	41.349744 
1107.000000	41.303181 
1106.000000	41.255187 
1105.000000	41.208624 
1104.000000	41.166353 
1103.000000	41.130948 
1102.000000	41.104412 
1101.000000	41.087794 
1100.000000	41.081333 
1099.000000	41.084241 
1098.000000	41.095042 
1097.000000	41.111588 
1096.000000	41.131758 
1095.000000	41.153311 
1094.000000	41.174268 
1093.000000	41.192674 
1092.000000	41.206359 
1091.000000	41.212987 
1090.000000	41.210079 
1089.000000	41.195321 
1088.000000	41.167283 
1087.000000	41.125679 
1086.000000	41.072082 
1085.000000	41.009449 
1084.000000	40.942144 
1083.000000	40.875029 
1082.000000	40.812706 
1081.000000	40.758824 
1080.000000	40.715551 
1079.000000	40.683746 
1078.000000	40.662670 
1077.000000	40.650963 
1076.000000	40.646672 
1075.000000	40.648055 
1074.000000	40.653562 
1073.000000	40.662121 
1072.000000	40.672445 
1071.000000	40.683317 
1070.000000	40.693211 
1069.000000	40.700697 
1068.000000	40.704464 
1067.000000	40.703582 
1066.000000	40.697765 
1065.000000	40.687036 
1064.000000	40.671944 
1063.000000	40.653014 
1062.000000	40.630817 
1061.000000	40.606164 
1060.000000	40.579771 
1059.000000	40.552687 
1058.000000	40.525841 
1057.000000	40.500020 
1056.000000	40.475773 
1055.000000	40.453195 
1054.000000	40.432310 
1053.000000	40.412688 
1052.000000	40.394330 
1051.000000	40.377616 
1050.000000	40.363621 
1049.000000	40.353322 
1048.000000	40.347647 
1047.000000	40.347146 
1046.000000	40.351581 
1045.000000	40.359711 
1044.000000	40.369486 
1043.000000	40.378355 
1042.000000	40.384054 
1041.000000	40.385270 
1040.000000	40.381860 
1039.000000	40.374875 
1038.000000	40.366387 
1037.000000	40.358781 
1036.000000	40.353846 
1035.000000	40.352320 
1034.000000	40.353631 
1033.000000	40.356397 
1032.000000	40.358471 
1031.000000	40.358114 
1030.000000	40.354228 
1029.000000	40.347099 
1028.000000	40.338230 
1027.000000	40.330362 
1026.000000	40.326619 
1025.000000	40.329742 
1024.000000	40.341520 
1023.000000	40.361952 
1022.000000	40.389275 
1021.000000	40.420055 
1020.000000	40.450000 
1019.000000	40.474653 
1018.000000	40.490651 
1017.000000	40.495800 
1016.000000	40.489578 
1015.000000	40.472531 
1014.000000	40.446066 
1013.000000	40.411591 
1012.000000	40.370416 
1011.000000	40.323472 
1010.000000	40.271902 
1009.000000	40.217089 
1008.000000	40.161371 
1007.000000	40.107989 
1006.000000	40.060663 
1005.000000	40.023159 
1004.000000	39.998412 
1003.000000	39.987540 
1002.000000	39.989733 
1001.000000	40.001797 
1000.000000	40.019416 
999.000000	 40.037608 
998.000000	 40.052103 
997.000000	 40.059804 
996.000000	 40.059137 
995.000000	 40.050077 
994.000000	 40.033364 
993.000000	 40.009760 
992.000000	 39.979958 
991.000000	 39.944458 
990.000000	 39.903736 
989.000000	 39.858531 
988.000000	 39.810490 
987.000000	 39.762353 
986.000000	 39.717841 
985.000000	 39.681100 
984.000000	 39.655947 
983.000000	 39.645242 
982.000000	 39.650130 
981.000000	 39.669585 
980.000000	 39.700484 
979.000000	 39.737987 
978.000000	 39.776706 
977.000000	 39.811778 
976.000000	 39.839363 
975.000000	 39.857339 
974.000000	 39.865708 
973.000000	 39.865732 
972.000000	 39.859437 
971.000000	 39.848327 
970.000000	 39.833641 
969.000000	 39.814805 
968.000000	 39.790606 
967.000000	 39.758753 
966.000000	 39.717364 
965.000000	 39.665269 
964.000000	 39.603400 
963.000000	 39.534211 
962.000000	 39.461874 
961.000000	 39.391279 
960.000000	 39.327239 
959.000000	 39.273619 
958.000000	 39.232850 
957.000000	 39.205646 
956.000000	 39.191126 
955.000000	 39.187645 
954.000000	 39.193105 
953.000000	 39.205455 
952.000000	 39.222979 
951.000000	 39.243841 
950.000000	 39.266347 
949.000000	 39.288640 
948.000000	 39.308953 
947.000000	 39.325094 
946.000000	 39.335179 
945.000000	 39.338111 
944.000000	 39.333295 
943.000000	 39.321160 
942.000000	 39.302110 
941.000000	 39.277029 
940.000000	 39.246201 
939.000000	 39.209461 
938.000000	 39.166212 
937.000000	 39.116144 
936.000000	 39.059877 
935.000000	 38.999700 
934.000000	 38.939905 
933.000000	 38.886380 
932.000000	 38.845920 
931.000000	 38.824582 
930.000000	 38.826107 
929.000000	 38.850545 
928.000000	 38.893604 
927.000000	 38.947319 
926.000000	 39.000916 
925.000000	 39.043140 
924.000000	 39.064717 
923.000000	 39.060425 
922.000000	 39.030337 
921.000000	 38.979387 
920.000000	 38.916540 
919.000000	 38.851737 
918.000000	 38.793897 
917.000000	 38.748192 
916.000000	 38.715791 
915.000000	 38.693213 
914.000000	 38.674354 
913.000000	 38.652276 
912.000000	 38.621878 
911.000000	 38.581252 
910.000000	 38.532066 
909.000000	 38.479161 
908.000000	 38.428854 
907.000000	 38.387084 
906.000000	 38.357543 
905.000000	 38.340926 
904.000000	 38.334870 
903.000000	 38.335323 
902.000000	 38.337874 
901.000000	 38.339304 
900.000000	 38.338422 
899.000000	 38.335800 
898.000000	 38.333654 
897.000000	 38.333916 
896.000000	 38.338065 
895.000000	 38.346195 
894.000000	 38.357353 
893.000000	 38.369679 
892.000000	 38.381099 
891.000000	 38.390302 
890.000000	 38.396716 
889.000000	 38.400864 
888.000000	 38.404035 
887.000000	 38.407540 
886.000000	 38.412499 
885.000000	 38.419413 
884.000000	 38.427948 
883.000000	 38.436889 
882.000000	 38.444304 
881.000000	 38.448381 
880.000000	 38.447093 
879.000000	 38.438630 
878.000000	 38.421559 
877.000000	 38.395023 
876.000000	 38.358688 
875.000000	 38.312911 
874.000000	 38.259077 
873.000000	 38.199448 
872.000000	 38.137173 
871.000000	 38.075995 
870.000000	 38.019537 
869.000000	 37.971210 
868.000000	 37.933802 
867.000000	 37.908840 
866.000000	 37.896347 
865.000000	 37.894558 
864.000000	 37.900280 
863.000000	 37.909197 
862.000000	 37.916278 
861.000000	 37.917017 
860.000000	 37.908053 
859.000000	 37.888050 
858.000000	 37.857675 
857.000000	 37.819862 
856.000000	 37.778759 
855.000000	 37.739229 
854.000000	 37.705683 
853.000000	 37.681245 
852.000000	 37.667131 
851.000000	 37.662458 
850.000000	 37.664675 
849.000000	 37.669992 
848.000000	 37.674212 
847.000000	 37.673473 
846.000000	 37.664961 
845.000000	 37.647032 
844.000000	 37.619495 
843.000000	 37.583351 
842.000000	 37.540602 
841.000000	 37.493300 
840.000000	 37.443757 
839.000000	 37.394237 
838.000000	 37.347173 
837.000000	 37.304878 
836.000000	 37.269520 
835.000000	 37.243032 
834.000000	 37.226843 
833.000000	 37.221765 
832.000000	 37.227797 
831.000000	 37.243366 
830.000000	 37.265968 
829.000000	 37.292265 
828.000000	 37.318611 
827.000000	 37.341403 
826.000000	 37.358069 
825.000000	 37.367153 
824.000000	 37.368369 
823.000000	 37.362337 
822.000000	 37.349724 
821.000000	 37.331008 
820.000000	 37.306451 
819.000000	 37.276458 
818.000000	 37.242341 
817.000000	 37.206387 
816.000000	 37.172651 
815.000000	 37.145423 
814.000000	 37.128829 
813.000000	 37.124752 
812.000000	 37.132239 
811.000000	 37.147045 
810.000000	 37.161970 
809.000000	 37.168931 
808.000000	 37.160730 
807.000000	 37.133002 
806.000000	 37.085366 
805.000000	 37.021660 
804.000000	 36.949348 
803.000000	 36.877059 
802.000000	 36.812520 
801.000000	 36.760640 
800.000000	 36.722517 
799.000000	 36.695957 
798.000000	 36.676502 
797.000000	 36.659550 
796.000000	 36.641621 
795.000000	 36.621737 
794.000000	 36.601305 
793.000000	 36.583161 
792.000000	 36.570286 
791.000000	 36.564421 
790.000000	 36.565160 
789.000000	 36.569833 
788.000000	 36.574101 
787.000000	 36.572980 
786.000000	 36.562395 
785.000000	 36.540508 
784.000000	 36.508202 
783.000000	 36.469125 
782.000000	 36.428833 
781.000000	 36.393475 
780.000000	 36.368322 
779.000000	 36.356616 
778.000000	 36.358880 
777.000000	 36.373209 
776.000000	 36.395525 
775.000000	 36.420845 
774.000000	 36.444377 
773.000000	 36.462521 
772.000000	 36.473226 
771.000000	 36.475801 
770.000000	 36.470961 
769.000000	 36.460232 
768.000000	 36.445260 
767.000000	 36.427450 
766.000000	 36.407852 
765.000000	 36.386871 
764.000000	 36.364936 
763.000000	 36.342144 
762.000000	 36.318802 
761.000000	 36.294984 
760.000000	 36.270785 
759.000000	 36.246037 
758.000000	 36.220073 
757.000000	 36.192321 
756.000000	 36.162376 
755.000000	 36.130499 
754.000000	 36.097431 
753.000000	 36.064958 
752.000000	 36.035656 
751.000000	 36.012768 
750.000000	 35.999131 
749.000000	 35.996842 
748.000000	 36.006736 
747.000000	 36.027669 
746.000000	 36.056375 
745.000000	 36.087584 
744.000000	 36.114907 
743.000000	 36.131334 
742.000000	 36.130809 
741.000000	 36.109042 
740.000000	 36.064648 
739.000000	 35.999512 
738.000000	 35.918498 
737.000000	 35.828638 
736.000000	 35.737752 
735.000000	 35.653424 
734.000000	 35.580968 
733.000000	 35.523152 
732.000000	 35.479521 
731.000000	 35.447239 
730.000000	 35.421776 
729.000000	 35.398435 
728.000000	 35.373306 
727.000000	 35.343885 
726.000000	 35.309362 
725.000000	 35.270094 
724.000000	 35.227370 
723.000000	 35.181760 
722.000000	 35.133910 
721.000000	 35.084128 
720.000000	 35.033082 
719.000000	 34.981799 
718.000000	 34.932565 
717.000000	 34.888625 
716.000000	 34.853792 
715.000000	 34.831357 
714.000000	 34.823036 
713.000000	 34.828305 
712.000000	 34.843635 
711.000000	 34.863233 
710.000000	 34.880208 
709.000000	 34.888076 
708.000000	 34.882378 
707.000000	 34.861779 
706.000000	 34.827804 
705.000000	 34.784507 
704.000000	 34.737825 
703.000000	 34.693408 
702.000000	 34.655094 
701.000000	 34.623742 
700.000000	 34.598231 
699.000000	 34.574675 
698.000000	 34.547972 
697.000000	 34.513068 
696.000000	 34.466624 
695.000000	 34.408068 
694.000000	 34.339594 
693.000000	 34.266138 
692.000000	 34.194254 
691.000000	 34.130406 
690.000000	 34.079360 
689.000000	 34.043359 
688.000000	 34.021687 
687.000000	 34.011030 
686.000000	 34.006714 
685.000000	 34.003734 
684.000000	 33.998346 
683.000000	 33.988523 
682.000000	 33.974766 
681.000000	 33.959269 
680.000000	 33.945846 
679.000000	 33.938837 
678.000000	 33.942246 
677.000000	 33.958458 
676.000000	 33.987665 
675.000000	 34.027767 
674.000000	 34.074449 
673.000000	 34.121990 
672.000000	 34.164547 
671.000000	 34.197044 
670.000000	 34.216475 
669.000000	 34.222412 
668.000000	 34.216856 
667.000000	 34.203672 
666.000000	 34.187436 
665.000000	 34.172296 
664.000000	 34.160733 
663.000000	 34.153103 
662.000000	 34.147787 
661.000000	 34.142017 
660.000000	 34.132862 
659.000000	 34.118270 
658.000000	 34.098029 
657.000000	 34.073686 
656.000000	 34.047627 
655.000000	 34.022355 
654.000000	 33.998966 
653.000000	 33.977055 
652.000000	 33.955216 
651.000000	 33.931207 
650.000000	 33.902812 
649.000000	 33.868241 
648.000000	 33.827447 
647.000000	 33.781313 
646.000000	 33.731627 
645.000000	 33.680486 
644.000000	 33.630156 
643.000000	 33.582186 
642.000000	 33.536934 
641.000000	 33.493828 
640.000000	 33.451676 
639.000000	 33.408951 
638.000000	 33.364367 
637.000000	 33.317399 
636.000000	 33.268475 
635.000000	 33.219575 
634.000000	 33.173632 
633.000000	 33.134126 
632.000000	 33.103895 
631.000000	 33.084750 
630.000000	 33.076024 
629.000000	 33.073997 
628.000000	 33.072042 
627.000000	 33.061838 
626.000000	 33.035230 
625.000000	 32.985997 
624.000000	 32.911801 
623.000000	 32.815194 
622.000000	 32.703161 
621.000000	 32.585787 
620.000000	 32.473754 
619.000000	 32.375979 
618.000000	 32.298064 
617.000000	 32.241201 
616.000000	 32.203054 
615.000000	 32.178640 
614.000000	 32.163095 
613.000000	 32.152748 
612.000000	 32.146978 
611.000000	 32.147502 
610.000000	 32.157945 
609.000000	 32.181644 
608.000000	 32.219958 
607.000000	 32.270956 
606.000000	 32.329821 
605.000000	 32.389521 
604.000000	 32.442760 
603.000000	 32.483506 
602.000000	 32.509112 
601.000000	 32.520270 
600.000000	 32.520794 
599.000000	 32.515549 
598.000000	 32.509207 
597.000000	 32.503843 
596.000000	 32.498621 
595.000000	 32.489442 
594.000000	 32.470512 
593.000000	 32.436203 
592.000000	 32.383656 
591.000000	 32.313680 
590.000000	 32.230949 
589.000000	 32.143449 
588.000000	 32.061052 
587.000000	 31.992721 
586.000000	 31.944489 
585.000000	 31.917738 
584.000000	 31.909322 
583.000000	 31.911611 
582.000000	 31.914734 
581.000000	 31.908464 
580.000000	 31.884694 
579.000000	 31.838941 
578.000000	 31.771183 
577.000000	 31.685090 
576.000000	 31.586742 
575.000000	 31.482362 
574.000000	 31.377124 
573.000000	 31.273460 
572.000000	 31.171822 
571.000000	 31.071829 
570.000000	 30.974268 
569.000000	 30.881094 
568.000000	 30.797314 
567.000000	 30.729627 
566.000000	 30.685710 
565.000000	 30.670762 
564.000000	 30.686759 
563.000000	 30.730366 
562.000000	 30.793428 
561.000000	 30.863666 
560.000000	 30.927538 
559.000000	 30.972313 
558.000000	 30.989646 
557.000000	 30.976819 
556.000000	 30.937480 
555.000000	 30.880212 
554.000000	 30.816602 
553.000000	 30.758333 
552.000000	 30.714368 
551.000000	 30.689215 
550.000000	 30.682229 
549.000000	 30.687999 
548.000000	 30.698919 
547.000000	 30.706477 
546.000000	 30.703902 
545.000000	 30.686688 
544.000000	 30.653309 
543.000000	 30.604839 
542.000000	 30.543947 
541.000000	 30.474352 
540.000000	 30.398797 
539.000000	 30.320119 
538.000000	 30.240917 
537.000000	 30.164575 
536.000000	 30.095648 
535.000000	 30.039358 
534.000000	 30.001211 
533.000000	 29.985117 
532.000000	 29.991817 
531.000000	 30.018305 
530.000000	 30.057597 
529.000000	 30.099987 
528.000000	 30.134701 
527.000000	 30.152153 
526.000000	 30.145525 
525.000000	 30.111646 
524.000000	 30.051255 
523.000000	 29.967546 
522.000000	 29.865503 
521.000000	 29.751062 
520.000000	 29.630899 
519.000000	 29.511260 
518.000000	 29.398560 
517.000000	 29.300332 
516.000000	 29.223561 
515.000000	 29.174160 
514.000000	 29.154682 
513.000000	 29.162979 
512.000000	 29.192519 
511.000000	 29.231643 
510.000000	 29.268264 
509.000000	 29.290604 
508.000000	 29.292964 
507.000000	 29.276061 
506.000000	 29.248356 
505.000000	 29.222512 
504.000000	 29.212832 
503.000000	 29.230499 
502.000000	 29.280591 
501.000000	 29.360151 
500.000000	 29.457473 
499.000000	 29.554295 
498.000000	 29.630112 
497.000000	 29.666185 
496.000000	 29.648351 
495.000000	 29.569458 
494.000000	 29.430055 
493.000000	 29.238009 
492.000000	 29.006171 
491.000000	 28.751111 
490.000000	 28.491306 
489.000000	 28.245234 
488.000000	 28.030586 
487.000000	 27.861976 
486.000000	 27.749133 
485.000000	 27.697014 
484.000000	 27.703547 
483.000000	 27.762842 
482.000000	 27.865600 
481.000000	 28.000354 
480.000000	 28.154063 
479.000000	 28.311800 
478.000000	 28.457784 
477.000000	 28.574085 
476.000000	 28.642368 
475.000000	 28.645491 
474.000000	 28.570747 
473.000000	 28.413081 
472.000000	 28.177452 
471.000000	 27.878856 
470.000000	 27.540755 
469.000000	 27.191948 
468.000000	 26.861953 
467.000000	 26.576566 
466.000000	 26.353812 
465.000000	 26.201891 
464.000000	 26.119017 
463.000000	 26.094007 
462.000000	 26.110410 
461.000000	 26.150393 
460.000000	 26.198005 
459.000000	 26.238846 
458.000000	 26.263165 
457.000000	 26.264524 
456.000000	 26.239776 
455.000000	 26.185202 
454.000000	 26.099944 
453.000000	 25.985074 
452.000000	 25.846433 
451.000000	 25.694561 
450.000000	 25.545024 
449.000000	 25.416326 
448.000000	 25.325679 
447.000000	 25.285315 
446.000000	 25.297999 
445.000000	 25.356268 
444.000000	 25.442290 
443.000000	 25.532913 
442.000000	 25.604844 
441.000000	 25.642061 
440.000000	 25.640010 
439.000000	 25.608229 
438.000000	 25.565099 
437.000000	 25.535082 
436.000000	 25.543379 
435.000000	 25.608873 
434.000000	 25.736451 
433.000000	 25.917840 
432.000000	 26.134252 
431.000000	 26.361274 
430.000000	 26.577973 
429.000000	 26.767849 
428.000000	 26.917767 
427.000000	 27.024316 
426.000000	 27.097415 
425.000000	 27.148342 
424.000000	 27.181673 
423.000000	 27.200436 
422.000000	 27.207183 
421.000000	 27.203512 
420.000000	 27.188849 
419.000000	 27.177906 
418.000000	 27.200388 
417.000000	 27.267432 
416.000000	 27.364397 
415.000000	 27.473568 
414.000000	 27.566480 
413.000000	 27.597880 
412.000000	 27.511668 
411.000000	 27.255845 
410.000000	 26.791691 
409.000000	 26.104760 
408.000000	 25.220799 
407.000000	 24.171853 
406.000000	 23.043894 
405.000000	 21.964764 
404.000000	 21.108055 
403.000000	 20.654153 
402.000000	 20.766162 
401.000000	 21.556878 
400.000000	 23.041224 
399.000000	 25.098872 
398.000000	 27.520036 
397.000000	 30.027341 
396.000000	 32.369685 
395.000000	 34.358096 
394.000000	 35.963225 
393.000000	 37.311363 
392.000000	 38.684797 
391.000000	 40.432262 
390.000000	 42.944002 
389.000000	 46.501469 
388.000000	 51.222181 
387.000000	 56.931757 
386.000000	 63.099694 
385.000000	 68.908882 
384.000000	 73.399376 
383.000000	 75.708389 
382.000000	 75.352168 
381.000000	 72.307586 
380.000000	 67.172479 
379.000000	 60.863232 
378.000000	 54.362893 
377.000000	 48.482799 
376.000000	 43.610811 
375.000000	 39.800620 
374.000000	 36.916780 
373.000000	 34.723472 
372.000000	 33.174443 
371.000000	 32.233548 
370.000000	 31.862759 

