PE IR       SPECTRUM    SPECTRUM    ASCII       PEDS        1.60        
  -1
C-9B61~1.ASC
17/03/27
17:43:54.00
17/03/27
17:43:54.00
tln
$C-4040-8_t0040$<tbV0>[-2.6,-5.2,8.0,0.0,27,1,0]
370.000000
64









2002,4.07    
MIRTGS : RIGHTBACK : INTERNAL 2
MIR : ON : INTERNAL 2
OPTKBR

0.200000
8
8.000000
FILLER
RATIO
SPECTRUM
UNLOCKED 256

DOUBLE
64
COMBINED
1
0
0


1.000000
RATIO


1
0
TRUE
51149
0
LEFT NOT FITTED RIGHT NOT FITTED 0
NONE
NONE
15600
12.000000
4.427000
51148
TRUE
1 0 8 72 0 0 0 0 

15798.010000






#HDR
-1
-1
#GR
CM-1
%T
0.00002384185791015625
0.0
5000.000000
-1.000000
4631
8
67.031025
0.731563
#DATA
5000.000000	63.479280 
4999.000000	63.425827 
4998.000000	63.375735 
4997.000000	63.327860 
4996.000000	63.284182 
4995.000000	63.249588 
4994.000000	63.230967 
4993.000000	63.234448 
4992.000000	63.263177 
4991.000000	63.314890 
4990.000000	63.382005 
4989.000000	63.451957 
4988.000000	63.510918 
4987.000000	63.546991 
4986.000000	63.552951 
4985.000000	63.528180 
4984.000000	63.478064 
4983.000000	63.412332 
4982.000000	63.342165 
4981.000000	63.277363 
4980.000000	63.224458 
4979.000000	63.185977 
4978.000000	63.161635 
4977.000000	63.149428 
4976.000000	63.147783 
4975.000000	63.155674 
4974.000000	63.173437 
4973.000000	63.201212 
4972.000000	63.237142 
4971.000000	63.277292 
4970.000000	63.314294 
4969.000000	63.340520 
4968.000000	63.348841 
4967.000000	63.336372 
4966.000000	63.305211 
4965.000000	63.263201 
4964.000000	63.222122 
4963.000000	63.195085 
4962.000000	63.192749 
4961.000000	63.221025 
4960.000000	63.279438 
4959.000000	63.361501 
4958.000000	63.456320 
4957.000000	63.551640 
4956.000000	63.636541 
4955.000000	63.703656 
4954.000000	63.750171 
4953.000000	63.777184 
4952.000000	63.788437 
4951.000000	63.788819 
4950.000000	63.782334 
4949.000000	63.771247 
4948.000000	63.755202 
4947.000000	63.733744 
4946.000000	63.705301 
4945.000000	63.669300 
4944.000000	63.625597 
4943.000000	63.575148 
4942.000000	63.519716 
4941.000000	63.461565 
4940.000000	63.403201 
4939.000000	63.346958 
4938.000000	63.295078 
4937.000000	63.249516 
4936.000000	63.212347 
4935.000000	63.185095 
4934.000000	63.169217 
4933.000000	63.165259 
4932.000000	63.173055 
4931.000000	63.191318 
4930.000000	63.217496 
4929.000000	63.247942 
4928.000000	63.279032 
4927.000000	63.307738 
4926.000000	63.332962 
4925.000000	63.355541 
4924.000000	63.377809 
4923.000000	63.402271 
4922.000000	63.431119 
4921.000000	63.464641 
4920.000000	63.500261 
4919.000000	63.533282 
4918.000000	63.557767 
4917.000000	63.568425 
4916.000000	63.562178 
4915.000000	63.539338 
4914.000000	63.503694 
4913.000000	63.462114 
4912.000000	63.422846 
4911.000000	63.393974 
4910.000000	63.380742 
4909.000000	63.385748 
4908.000000	63.408303 
4907.000000	63.445806 
4906.000000	63.494610 
4905.000000	63.551354 
4904.000000	63.613724 
4903.000000	63.680624 
4902.000000	63.751578 
4901.000000	63.825035 
4900.000000	63.897585 
4899.000000	63.963961 
4898.000000	64.017271 
4897.000000	64.050769 
4896.000000	64.058661 
4895.000000	64.037799 
4894.000000	63.988280 
4893.000000	63.914155 
4892.000000	63.822627 
4891.000000	63.722658 
4890.000000	63.624072 
4889.000000	63.535785 
4888.000000	63.465428 
4887.000000	63.418269 
4886.000000	63.397765 
4885.000000	63.405370 
4884.000000	63.440608 
4883.000000	63.501095 
4882.000000	63.581657 
4881.000000	63.674855 
4880.000000	63.769769 
4879.000000	63.852691 
4878.000000	63.909173 
4877.000000	63.926482 
4876.000000	63.896894 
4875.000000	63.819813 
4874.000000	63.703227 
4873.000000	63.562822 
4872.000000	63.420486 
4871.000000	63.299965 
4870.000000	63.221478 
4869.000000	63.197541 
4868.000000	63.231110 
4867.000000	63.315176 
4866.000000	63.433480 
4865.000000	63.565659 
4864.000000	63.691639 
4863.000000	63.796472 
4862.000000	63.871812 
4861.000000	63.917613 
4860.000000	63.939023 
4859.000000	63.945889 
4858.000000	63.948202 
4857.000000	63.955092 
4856.000000	63.972282 
4855.000000	64.002561 
4854.000000	64.047265 
4853.000000	64.105057 
4852.000000	64.173650 
4851.000000	64.248609 
4850.000000	64.324545 
4849.000000	64.393711 
4848.000000	64.446783 
4847.000000	64.473652 
4846.000000	64.464950 
4845.000000	64.414215 
4844.000000	64.319109 
4843.000000	64.183068 
4842.000000	64.014625 
4841.000000	63.826060 
4840.000000	63.631653 
4839.000000	63.445210 
4838.000000	63.279008 
4837.000000	63.142156 
4836.000000	63.040924 
4835.000000	62.977886 
4834.000000	62.953424 
4833.000000	62.965846 
4832.000000	63.012385 
4831.000000	63.086819 
4830.000000	63.182616 
4829.000000	63.291597 
4828.000000	63.406014 
4827.000000	63.517689 
4826.000000	63.620138 
4825.000000	63.708353 
4824.000000	63.779711 
4823.000000	63.833761 
4822.000000	63.871598 
4821.000000	63.895392 
4820.000000	63.907504 
4819.000000	63.909816 
4818.000000	63.903784 
4817.000000	63.889956 
4816.000000	63.869190 
4815.000000	63.842105 
4814.000000	63.809633 
4813.000000	63.772511 
4812.000000	63.731861 
4811.000000	63.688898 
4810.000000	63.644647 
4809.000000	63.600397 
4808.000000	63.557815 
4807.000000	63.518953 
4806.000000	63.485646 
4805.000000	63.460230 
4804.000000	63.444757 
4803.000000	63.441324 
4802.000000	63.451576 
4801.000000	63.476324 
4800.000000	63.514828 
4799.000000	63.564753 
4798.000000	63.622307 
4797.000000	63.682222 
4796.000000	63.738298 
4795.000000	63.785004 
4794.000000	63.818407 
4793.000000	63.836979 
4792.000000	63.841986 
4791.000000	63.837385 
4790.000000	63.828396 
4789.000000	63.820815 
4788.000000	63.818502 
4787.000000	63.822531 
4786.000000	63.830137 
4785.000000	63.836145 
4784.000000	63.833522 
4783.000000	63.815951 
4782.000000	63.779187 
4781.000000	63.723325 
4780.000000	63.652062 
4779.000000	63.572072 
4778.000000	63.491654 
4777.000000	63.418483 
4776.000000	63.358712 
4775.000000	63.315653 
4774.000000	63.290119 
4773.000000	63.280844 
4772.000000	63.285708 
4771.000000	63.302397 
4770.000000	63.329315 
4769.000000	63.365268 
4768.000000	63.409900 
4767.000000	63.462924 
4766.000000	63.523244 
4765.000000	63.588404 
4764.000000	63.655281 
4763.000000	63.720059 
4762.000000	63.778805 
4761.000000	63.828182 
4760.000000	63.866114 
4759.000000	63.891935 
4758.000000	63.906645 
4757.000000	63.912129 
4756.000000	63.910913 
4755.000000	63.905119 
4754.000000	63.896918 
4753.000000	63.887000 
4752.000000	63.875198 
4751.000000	63.860392 
4750.000000	63.841414 
4749.000000	63.817501 
4748.000000	63.788962 
4747.000000	63.757491 
4746.000000	63.726139 
4745.000000	63.698339 
4744.000000	63.677239 
4743.000000	63.664722 
4742.000000	63.660836 
4741.000000	63.663697 
4740.000000	63.669943 
4739.000000	63.675475 
4738.000000	63.676619 
4737.000000	63.671112 
4736.000000	63.658761 
4735.000000	63.641166 
4734.000000	63.621520 
4733.000000	63.603734 
4732.000000	63.591742 
4731.000000	63.587903 
4730.000000	63.593077 
4729.000000	63.606977 
4728.000000	63.628077 
4727.000000	63.654422 
4726.000000	63.683652 
4725.000000	63.713645 
4724.000000	63.742160 
4723.000000	63.766932 
4722.000000	63.785672 
4721.000000	63.796114 
4720.000000	63.796353 
4719.000000	63.785219 
4718.000000	63.762950 
4717.000000	63.731217 
4716.000000	63.693714 
4715.000000	63.655734 
4714.000000	63.623762 
4713.000000	63.604140 
4712.000000	63.602066 
4711.000000	63.620162 
4710.000000	63.657212 
4709.000000	63.708233 
4708.000000	63.764858 
4707.000000	63.817024 
4706.000000	63.855075 
4705.000000	63.871979 
4704.000000	63.864660 
4703.000000	63.834905 
4702.000000	63.788819 
4701.000000	63.734769 
4700.000000	63.682246 
4699.000000	63.638591 
4698.000000	63.608026 
4697.000000	63.590431 
4696.000000	63.582515 
4695.000000	63.578963 
4694.000000	63.574385 
4693.000000	63.565015 
4692.000000	63.549876 
4691.000000	63.530683 
4690.000000	63.510942 
4689.000000	63.494753 
4688.000000	63.484978 
4687.000000	63.482761 
4686.000000	63.486957 
4685.000000	63.494825 
4684.000000	63.502812 
4683.000000	63.507723 
4682.000000	63.507604 
4681.000000	63.501691 
4680.000000	63.490557 
4679.000000	63.475918 
4678.000000	63.460564 
4677.000000	63.446331 
4676.000000	63.435196 
4675.000000	63.428688 
4674.000000	63.428544 
4673.000000	63.436079 
4672.000000	63.452816 
4671.000000	63.480424 
4670.000000	63.520002 
4669.000000	63.571763 
4668.000000	63.634204 
4667.000000	63.703179 
4666.000000	63.773322 
4665.000000	63.838481 
4664.000000	63.893389 
4663.000000	63.934683 
4662.000000	63.961529 
4661.000000	63.975763 
4660.000000	63.980364 
4659.000000	63.978290 
4658.000000	63.970804 
4657.000000	63.956665 
4656.000000	63.932180 
4655.000000	63.892292 
4654.000000	63.832640 
4653.000000	63.750982 
4652.000000	63.648772 
4651.000000	63.531398 
4650.000000	63.407659 
4649.000000	63.288378 
4648.000000	63.183188 
4647.000000	63.100266 
4646.000000	63.043308 
4645.000000	63.013792 
4644.000000	63.010573 
4643.000000	63.031935 
4642.000000	63.075470 
4641.000000	63.138747 
4640.000000	63.218426 
4639.000000	63.309884 
4638.000000	63.405895 
4637.000000	63.497924 
4636.000000	63.576698 
4635.000000	63.633656 
4634.000000	63.662600 
4633.000000	63.660192 
4632.000000	63.626933 
4631.000000	63.566684 
4630.000000	63.486433 
4629.000000	63.395476 
4628.000000	63.304471 
4627.000000	63.224315 
4626.000000	63.165068 
4625.000000	63.134932 
4624.000000	63.138818 
4623.000000	63.177895 
4622.000000	63.248586 
4621.000000	63.342499 
4620.000000	63.447809 
4619.000000	63.550424 
4618.000000	63.637518 
4617.000000	63.699197 
4616.000000	63.731169 
4615.000000	63.735151 
4614.000000	63.717865 
4613.000000	63.688826 
4612.000000	63.657832 
4611.000000	63.632464 
4610.000000	63.617181 
4609.000000	63.613080 
4608.000000	63.618350 
4607.000000	63.629961 
4606.000000	63.644099 
4605.000000	63.657665 
4604.000000	63.668107 
4603.000000	63.673686 
4602.000000	63.673591 
4601.000000	63.667678 
4600.000000	63.656401 
4599.000000	63.640618 
4598.000000	63.621830 
4597.000000	63.601613 
4596.000000	63.582253 
4595.000000	63.565421 
4594.000000	63.551640 
4593.000000	63.539981 
4592.000000	63.528203 
4591.000000	63.513183 
4590.000000	63.492059 
4589.000000	63.463044 
4588.000000	63.425874 
4587.000000	63.382411 
4586.000000	63.336062 
4585.000000	63.291311 
4584.000000	63.252234 
4583.000000	63.222575 
4582.000000	63.204932 
4581.000000	63.200569 
4580.000000	63.209342 
4579.000000	63.229274 
4578.000000	63.256859 
4577.000000	63.287162 
4576.000000	63.314771 
4575.000000	63.334417 
4574.000000	63.342142 
4573.000000	63.335871 
4572.000000	63.316202 
4571.000000	63.286900 
4570.000000	63.253736 
4569.000000	63.223719 
4568.000000	63.203048 
4567.000000	63.195514 
4566.000000	63.201999 
4565.000000	63.220143 
4564.000000	63.245654 
4563.000000	63.273525 
4562.000000	63.299655 
4561.000000	63.322472 
4560.000000	63.342332 
4559.000000	63.360977 
4558.000000	63.380265 
4557.000000	63.400983 
4556.000000	63.422369 
4555.000000	63.441872 
4554.000000	63.456439 
4553.000000	63.463521 
4552.000000	63.461875 
4551.000000	63.452029 
4550.000000	63.436198 
4549.000000	63.417601 
4548.000000	63.398790 
4547.000000	63.380599 
4546.000000	63.361883 
4545.000000	63.340139 
4544.000000	63.312888 
4543.000000	63.279438 
4542.000000	63.241457 
4541.000000	63.203668 
4540.000000	63.172817 
4539.000000	63.156270 
4538.000000	63.159537 
4537.000000	63.185262 
4536.000000	63.231897 
4535.000000	63.294100 
4534.000000	63.363981 
4533.000000	63.432121 
4532.000000	63.489770 
4531.000000	63.530206 
4530.000000	63.549494 
4529.000000	63.547706 
4528.000000	63.528442 
4527.000000	63.497948 
4526.000000	63.463473 
4525.000000	63.432574 
4524.000000	63.411450 
4523.000000	63.404417 
4522.000000	63.413023 
4521.000000	63.435959 
4520.000000	63.469243 
4519.000000	63.507032 
4518.000000	63.542747 
4517.000000	63.569831 
4516.000000	63.583254 
4515.000000	63.580298 
4514.000000	63.561391 
4513.000000	63.529658 
4512.000000	63.490796 
4511.000000	63.451838 
4510.000000	63.419771 
4509.000000	63.400554 
4508.000000	63.396954 
4507.000000	63.408994 
4506.000000	63.432526 
4505.000000	63.460516 
4504.000000	63.483762 
4503.000000	63.492608 
4502.000000	63.480138 
4501.000000	63.443851 
4500.000000	63.386392 
4499.000000	63.314890 
4498.000000	63.240027 
4497.000000	63.173556 
4496.000000	63.125991 
4495.000000	63.104271 
4494.000000	63.110566 
4493.000000	63.141775 
4492.000000	63.191032 
4491.000000	63.249158 
4490.000000	63.306021 
4489.000000	63.353157 
4488.000000	63.384509 
4487.000000	63.398122 
4486.000000	63.395452 
4485.000000	63.381385 
4484.000000	63.362646 
4483.000000	63.345718 
4482.000000	63.336133 
4481.000000	63.335585 
4480.000000	63.342952 
4479.000000	63.352441 
4478.000000	63.355708 
4477.000000	63.343095 
4476.000000	63.306474 
4475.000000	63.242006 
4474.000000	63.151550 
4473.000000	63.043570 
4472.000000	62.931680 
4471.000000	62.832403 
4470.000000	62.761759 
4469.000000	62.731933 
4468.000000	62.748646 
4467.000000	62.810063 
4466.000000	62.907481 
4465.000000	63.027501 
4464.000000	63.154935 
4463.000000	63.275766 
4462.000000	63.379597 
4461.000000	63.460469 
4460.000000	63.517069 
4459.000000	63.551497 
4458.000000	63.567662 
4457.000000	63.569569 
4456.000000	63.560605 
4455.000000	63.544225 
4454.000000	63.522791 
4453.000000	63.499569 
4452.000000	63.476896 
4451.000000	63.457322 
4450.000000	63.442373 
4449.000000	63.432741 
4448.000000	63.428449 
4447.000000	63.429117 
4446.000000	63.434290 
4445.000000	63.443660 
4444.000000	63.457369 
4443.000000	63.475680 
4442.000000	63.498473 
4441.000000	63.524794 
4440.000000	63.552427 
4439.000000	63.578224 
4438.000000	63.598990 
4437.000000	63.612103 
4436.000000	63.616394 
4435.000000	63.612127 
4434.000000	63.601922 
4433.000000	63.588857 
4432.000000	63.575005 
4431.000000	63.560509 
4430.000000	63.542580 
4429.000000	63.517165 
4428.000000	63.480997 
4427.000000	63.432669 
4426.000000	63.374876 
4425.000000	63.312363 
4424.000000	63.250780 
4423.000000	63.194847 
4422.000000	63.146710 
4421.000000	63.106131 
4420.000000	63.070821 
4419.000000	63.037729 
4418.000000	63.005137 
4417.000000	62.969541 
4416.000000	62.926936 
4415.000000	62.873005 
4414.000000	62.805342 
4413.000000	62.728404 
4412.000000	62.653517 
4411.000000	62.597107 
4410.000000	62.577080 
4409.000000	62.606477 
4408.000000	62.690496 
4407.000000	62.824440 
4406.000000	62.994551 
4405.000000	63.178253 
4404.000000	63.351774 
4403.000000	63.496303 
4402.000000	63.601136 
4401.000000	63.666367 
4400.000000	63.699102 
4399.000000	63.709759 
4398.000000	63.707995 
4397.000000	63.695907 
4396.000000	63.675332 
4395.000000	63.647222 
4394.000000	63.621497 
4393.000000	63.618993 
4392.000000	63.665986 
4391.000000	63.788628 
4390.000000	63.994216 
4389.000000	64.266824 
4388.000000	64.551091 
4387.000000	64.766550 
4386.000000	64.836263 
4385.000000	64.713621 
4384.000000	64.401173 
4383.000000	63.959074 
4382.000000	63.495779 
4381.000000	63.141465 
4380.000000	63.018751 
4379.000000	63.203310 
4378.000000	63.700318 
4377.000000	64.438533 
4376.000000	65.287375 
4375.000000	66.090035 
4374.000000	66.699075 
4373.000000	67.019653 
4372.000000	67.031025 
4371.000000	66.792106 
4370.000000	66.421270 
4369.000000	66.059827 
4368.000000	65.835881 
4367.000000	65.814542 
4366.000000	65.986013 
4365.000000	66.249823 
4364.000000	66.449928 
4363.000000	66.391563 
4362.000000	65.900754 
4361.000000	64.863276 
4360.000000	63.270068 
4359.000000	61.234211 
4358.000000	58.983778 
4357.000000	56.819748 
4356.000000	55.058765 
4355.000000	53.963732 
4354.000000	53.689980 
4353.000000	54.245805 
4352.000000	55.501413 
4351.000000	57.218670 
4350.000000	59.114837 
4349.000000	60.914826 
4348.000000	62.419009 
4347.000000	63.519334 
4346.000000	64.218640 
4345.000000	64.589571 
4344.000000	64.753365 
4343.000000	64.827585 
4342.000000	64.897155 
4341.000000	64.996957 
4340.000000	65.112400 
4339.000000	65.205955 
4338.000000	65.232825 
4337.000000	65.175294 
4336.000000	65.034508 
4335.000000	64.837288 
4334.000000	64.620208 
4333.000000	64.420676 
4332.000000	64.265251 
4331.000000	64.164948 
4330.000000	64.120960 
4329.000000	64.125418 
4328.000000	64.165806 
4327.000000	64.228200 
4326.000000	64.303660 
4325.000000	64.386129 
4324.000000	64.465975 
4323.000000	64.533233 
4322.000000	64.578199 
4321.000000	64.591598 
4320.000000	64.567184 
4319.000000	64.501476 
4318.000000	64.391875 
4317.000000	64.242100 
4316.000000	64.067983 
4315.000000	63.887047 
4314.000000	63.713932 
4313.000000	63.560438 
4312.000000	63.434171 
4311.000000	63.337302 
4310.000000	63.267850 
4309.000000	63.221096 
4308.000000	63.191699 
4307.000000	63.175153 
4306.000000	63.168931 
4305.000000	63.172316 
4304.000000	63.185787 
4303.000000	63.209366 
4302.000000	63.241481 
4301.000000	63.276648 
4300.000000	63.307452 
4299.000000	63.325500 
4298.000000	63.324785 
4297.000000	63.303756 
4296.000000	63.266301 
4295.000000	63.221812 
4294.000000	63.181781 
4293.000000	63.157129 
4292.000000	63.153958 
4291.000000	63.171744 
4290.000000	63.202977 
4289.000000	63.235306 
4288.000000	63.255238 
4287.000000	63.252496 
4286.000000	63.222599 
4285.000000	63.168096 
4284.000000	63.098812 
4283.000000	63.029170 
4282.000000	62.974739 
4281.000000	62.947964 
4280.000000	62.956047 
4279.000000	62.999224 
4278.000000	63.070583 
4277.000000	63.157749 
4276.000000	63.245987 
4275.000000	63.321471 
4274.000000	63.373994 
4273.000000	63.399004 
4272.000000	63.397336 
4271.000000	63.374614 
4270.000000	63.338780 
4269.000000	63.298106 
4268.000000	63.259291 
4267.000000	63.226103 
4266.000000	63.199710 
4265.000000	63.178706 
4264.000000	63.161230 
4263.000000	63.145518 
4262.000000	63.130855 
4261.000000	63.117980 
4260.000000	63.108921 
4259.000000	63.105940 
4258.000000	63.110423 
4257.000000	63.122224 
4256.000000	63.139104 
4255.000000	63.157129 
4254.000000	63.171243 
4253.000000	63.176441 
4252.000000	63.168954 
4251.000000	63.146805 
4250.000000	63.110327 
4249.000000	63.062262 
4248.000000	63.007378 
4247.000000	62.951803 
4246.000000	62.902045 
4245.000000	62.863707 
4244.000000	62.840938 
4243.000000	62.836122 
4242.000000	62.849688 
4241.000000	62.879562 
4240.000000	62.922263 
4239.000000	62.973022 
4238.000000	63.027143 
4237.000000	63.079977 
4236.000000	63.128137 
4235.000000	63.169264 
4234.000000	63.202285 
4233.000000	63.227224 
4232.000000	63.244962 
4231.000000	63.256549 
4230.000000	63.263154 
4229.000000	63.265895 
4228.000000	63.265609 
4227.000000	63.262796 
4226.000000	63.257980 
4225.000000	63.251495 
4224.000000	63.243293 
4223.000000	63.232779 
4222.000000	63.219022 
4221.000000	63.200688 
4220.000000	63.176512 
4219.000000	63.145565 
4218.000000	63.107895 
4217.000000	63.064622 
4216.000000	63.017725 
4215.000000	62.969684 
4214.000000	62.923717 
4213.000000	62.882280 
4212.000000	62.846755 
4211.000000	62.817192 
4210.000000	62.792325 
4209.000000	62.770366 
4208.000000	62.749409 
4207.000000	62.728524 
4206.000000	62.707519 
4205.000000	62.687849 
4204.000000	62.671971 
4203.000000	62.662506 
4202.000000	62.661170 
4201.000000	62.668824 
4200.000000	62.684941 
4199.000000	62.707400 
4198.000000	62.732720 
4197.000000	62.756800 
4196.000000	62.775802 
4195.000000	62.786936 
4194.000000	62.789297 
4193.000000	62.783741 
4192.000000	62.773084 
4191.000000	62.761545 
4190.000000	62.754154 
4189.000000	62.755417 
4188.000000	62.768745 
4187.000000	62.795686 
4186.000000	62.835645 
4185.000000	62.885928 
4184.000000	62.942385 
4183.000000	63.000440 
4182.000000	63.055539 
4181.000000	63.104248 
4180.000000	63.143658 
4179.000000	63.172197 
4178.000000	63.187909 
4177.000000	63.188409 
4176.000000	63.170766 
4175.000000	63.132429 
4174.000000	63.072514 
4173.000000	62.992906 
4172.000000	62.899637 
4171.000000	62.802529 
4170.000000	62.714147 
4169.000000	62.647294 
4168.000000	62.612223 
4167.000000	62.614297 
4166.000000	62.652540 
4165.000000	62.719583 
4164.000000	62.802743 
4163.000000	62.887120 
4162.000000	62.958765 
4161.000000	63.007831 
4160.000000	63.029670 
4159.000000	63.025736 
4158.000000	63.002204 
4157.000000	62.968063 
4156.000000	62.932205 
4155.000000	62.901592 
4154.000000	62.880539 
4153.000000	62.869811 
4152.000000	62.867856 
4151.000000	62.871813 
4150.000000	62.879252 
4149.000000	62.888622 
4148.000000	62.899756 
4147.000000	62.913846 
4146.000000	62.932729 
4145.000000	62.957882 
4144.000000	62.989425 
4143.000000	63.025426 
4142.000000	63.061738 
4141.000000	63.092947 
4140.000000	63.113331 
4139.000000	63.118100 
4138.000000	63.104391 
4137.000000	63.072371 
4136.000000	63.024926 
4135.000000	62.966966 
4134.000000	62.904334 
4133.000000	62.842988 
4132.000000	62.787437 
4131.000000	62.741088 
4130.000000	62.705159 
4129.000000	62.679266 
4128.000000	62.661361 
4127.000000	62.648797 
4126.000000	62.638831 
4125.000000	62.628865 
4124.000000	62.617301 
4123.000000	62.603044 
4122.000000	62.586426 
4121.000000	62.568545 
4120.000000	62.551403 
4119.000000	62.537407 
4118.000000	62.528848 
4117.000000	62.527251 
4116.000000	62.532973 
4115.000000	62.545108 
4114.000000	62.561416 
4113.000000	62.578773 
4112.000000	62.593960 
4111.000000	62.604308 
4110.000000	62.608242 
4109.000000	62.605571 
4108.000000	62.597060 
4107.000000	62.584400 
4106.000000	62.569475 
4105.000000	62.554001 
4104.000000	62.539172 
4103.000000	62.526011 
4102.000000	62.515401 
4101.000000	62.508368 
4100.000000	62.505960 
4099.000000	62.509250 
4098.000000	62.519264 
4097.000000	62.536096 
4096.000000	62.558460 
4095.000000	62.583780 
4094.000000	62.608361 
4093.000000	62.628388 
4092.000000	62.640714 
4091.000000	62.643623 
4090.000000	62.637352 
4089.000000	62.623858 
4088.000000	62.606310 
4087.000000	62.588167 
4086.000000	62.572336 
4085.000000	62.560749 
4084.000000	62.554001 
4083.000000	62.551593 
4082.000000	62.552165 
4081.000000	62.554264 
4080.000000	62.556648 
4079.000000	62.558579 
4078.000000	62.560081 
4077.000000	62.561511 
4076.000000	62.563705 
4075.000000	62.567448 
4074.000000	62.573385 
4073.000000	62.581872 
4072.000000	62.592720 
4071.000000	62.605285 
4070.000000	62.618231 
4069.000000	62.629747 
4068.000000	62.637424 
4067.000000	62.638735 
4066.000000	62.631583 
4065.000000	62.614893 
4064.000000	62.588858 
4063.000000	62.554955 
4062.000000	62.515735 
4061.000000	62.474298 
4060.000000	62.433767 
4059.000000	62.396860 
4058.000000	62.365579 
4057.000000	62.341618 
4056.000000	62.326025 
4055.000000	62.319707 
4054.000000	62.323164 
4053.000000	62.336587 
4052.000000	62.359547 
4051.000000	62.390875 
4050.000000	62.428188 
4049.000000	62.468266 
4048.000000	62.506961 
4047.000000	62.539958 
4046.000000	62.563514 
4045.000000	62.574863 
4044.000000	62.573051 
4043.000000	62.558841 
4042.000000	62.534570 
4041.000000	62.503743 
4040.000000	62.470269 
4039.000000	62.438178 
4038.000000	62.410950 
4037.000000	62.391066 
4036.000000	62.379789 
4035.000000	62.376976 
4034.000000	62.381410 
4033.000000	62.390851 
4032.000000	62.402963 
4031.000000	62.415337 
4030.000000	62.426304 
4029.000000	62.435221 
4028.000000	62.442469 
4027.000000	62.448787 
4026.000000	62.455153 
4025.000000	62.462234 
4024.000000	62.470293 
4023.000000	62.478923 
4022.000000	62.487411 
4021.000000	62.495207 
4020.000000	62.501835 
4019.000000	62.507629 
4018.000000	62.512946 
4017.000000	62.518525 
4016.000000	62.524294 
4015.000000	62.529635 
4014.000000	62.532472 
4013.000000	62.529802 
4012.000000	62.518286 
4011.000000	62.495303 
4010.000000	62.459802 
4009.000000	62.413167 
4008.000000	62.359309 
4007.000000	62.304258 
4006.000000	62.255167 
4005.000000	62.218928 
4004.000000	62.200617 
4003.000000	62.202525 
4002.000000	62.223577 
4001.000000	62.259674 
4000.000000	62.304759 
3999.000000	62.352490 
3998.000000	62.397074 
3997.000000	62.434959 
3996.000000	62.465095 
3995.000000	62.488913 
3994.000000	62.509059 
3993.000000	62.528586 
3992.000000	62.549662 
3991.000000	62.572360 
3990.000000	62.594914 
3989.000000	62.613749 
3988.000000	62.625026 
3987.000000	62.625193 
3986.000000	62.612462 
3985.000000	62.587237 
3984.000000	62.552332 
3983.000000	62.512254 
3982.000000	62.472391 
3981.000000	62.437868 
3980.000000	62.412524 
3979.000000	62.398362 
3978.000000	62.395429 
3977.000000	62.401986 
3976.000000	62.415170 
3975.000000	62.431836 
3974.000000	62.449383 
3973.000000	62.465572 
3972.000000	62.479138 
3971.000000	62.489533 
3970.000000	62.496805 
3969.000000	62.501287 
3968.000000	62.502980 
3967.000000	62.501549 
3966.000000	62.495946 
3965.000000	62.484955 
3964.000000	62.467098 
3963.000000	62.441015 
3962.000000	62.406063 
3961.000000	62.362837 
3960.000000	62.313127 
3959.000000	62.259984 
3958.000000	62.207007 
3957.000000	62.157821 
3956.000000	62.115383 
3955.000000	62.081670 
3954.000000	62.057232 
3953.000000	62.041783 
3952.000000	62.034177 
3951.000000	62.033534 
3950.000000	62.039256 
3949.000000	62.051630 
3948.000000	62.071251 
3947.000000	62.098717 
3946.000000	62.133765 
3945.000000	62.174797 
3944.000000	62.218523 
3943.000000	62.260222 
3942.000000	62.294554 
3941.000000	62.316608 
3940.000000	62.323212 
3939.000000	62.313485 
3938.000000	62.289190 
3937.000000	62.254357 
3936.000000	62.214827 
3935.000000	62.176823 
3934.000000	62.145781 
3933.000000	62.125587 
3932.000000	62.118339 
3931.000000	62.123966 
3930.000000	62.140703 
3929.000000	62.165784 
3928.000000	62.195944 
3927.000000	62.227535 
3926.000000	62.256646 
3925.000000	62.279558 
3924.000000	62.292766 
3923.000000	62.293100 
3922.000000	62.278318 
3921.000000	62.247633 
3920.000000	62.202095 
3919.000000	62.144851 
3918.000000	62.081027 
3917.000000	62.017011 
3916.000000	61.959934 
3915.000000	61.916351 
3914.000000	61.891579 
3913.000000	61.888217 
3912.000000	61.906266 
3911.000000	61.942887 
3910.000000	61.993050 
3909.000000	62.050294 
3908.000000	62.108016 
3907.000000	62.160229 
3906.000000	62.202620 
3905.000000	62.232851 
3904.000000	62.250590 
3903.000000	62.257194 
3902.000000	62.255191 
3901.000000	62.247443 
3900.000000	62.236618 
3899.000000	62.224555 
3898.000000	62.212395 
3897.000000	62.200403 
3896.000000	62.188649 
3895.000000	62.177205 
3894.000000	62.166428 
3893.000000	62.157154 
3892.000000	62.150263 
3891.000000	62.147021 
3890.000000	62.148046 
3889.000000	62.154078 
3888.000000	62.165141 
3887.000000	62.181138 
3886.000000	62.201571 
3885.000000	62.225937 
3884.000000	62.253713 
3883.000000	62.284159 
3882.000000	62.316083 
3881.000000	62.347555 
3880.000000	62.376332 
3879.000000	62.399387 
3878.000000	62.413573 
3877.000000	62.416434 
3876.000000	62.406849 
3875.000000	62.385177 
3874.000000	62.353324 
3873.000000	62.314605 
3872.000000	62.273073 
3871.000000	62.232756 
3870.000000	62.197232 
3869.000000	62.169098 
3868.000000	62.149858 
3867.000000	62.140178 
3866.000000	62.139964 
3865.000000	62.148213 
3864.000000	62.162923 
3863.000000	62.181687 
3862.000000	62.200832 
3861.000000	62.216186 
3860.000000	62.223124 
3859.000000	62.217593 
3858.000000	62.196683 
3857.000000	62.159347 
3856.000000	62.106847 
3855.000000	62.043094 
3854.000000	61.973619 
3853.000000	61.904573 
3852.000000	61.841654 
3851.000000	61.789011 
3850.000000	61.748719 
3849.000000	61.720943 
3848.000000	61.704063 
3847.000000	61.695790 
3846.000000	61.693859 
3845.000000	61.697030 
3844.000000	61.704897 
3843.000000	61.717987 
3842.000000	61.736893 
3841.000000	61.762070 
3840.000000	61.792540 
3839.000000	61.826348 
3838.000000	61.860108 
3837.000000	61.890172 
3836.000000	61.913347 
3835.000000	61.928224 
3834.000000	61.935520 
3833.000000	61.938476 
3832.000000	61.941909 
3831.000000	61.951279 
3830.000000	61.971306 
3829.000000	62.004375 
3828.000000	62.049889 
3827.000000	62.104082 
3826.000000	62.160611 
3825.000000	62.212157 
3824.000000	62.251996 
3823.000000	62.275385 
3822.000000	62.280416 
3821.000000	62.268590 
3820.000000	62.244033 
3819.000000	62.212324 
3818.000000	62.178850 
3817.000000	62.147951 
3816.000000	62.121963 
3815.000000	62.101626 
3814.000000	62.085843 
3813.000000	62.073183 
3812.000000	62.061858 
3811.000000	62.050652 
3810.000000	62.038898 
3809.000000	62.026262 
3808.000000	62.012887 
3807.000000	61.998844 
3806.000000	61.984419 
3805.000000	61.969661 
3804.000000	61.954689 
3803.000000	61.939787 
3802.000000	61.925530 
3801.000000	61.912584 
3800.000000	61.901926 
3799.000000	61.894702 
3798.000000	61.891841 
3797.000000	61.893868 
3796.000000	61.900472 
3795.000000	61.910486 
3794.000000	61.921834 
3793.000000	61.931729 
3792.000000	61.937284 
3791.000000	61.935758 
3790.000000	61.925315 
3789.000000	61.905431 
3788.000000	61.876940 
3787.000000	61.842179 
3786.000000	61.804723 
3785.000000	61.768889 
3784.000000	61.738681 
3783.000000	61.717796 
3782.000000	61.708474 
3781.000000	61.711573 
3780.000000	61.726856 
3779.000000	61.752724 
3778.000000	61.786413 
3777.000000	61.824560 
3776.000000	61.863493 
3775.000000	61.899876 
3774.000000	61.930632 
3773.000000	61.953830 
3772.000000	61.968731 
3771.000000	61.976075 
3770.000000	61.977815 
3769.000000	61.976695 
3768.000000	61.975550 
3767.000000	61.976575 
3766.000000	61.981010 
3765.000000	61.988854 
3764.000000	61.998963 
3763.000000	62.009525 
3762.000000	62.018322 
3761.000000	62.023639 
3760.000000	62.024259 
3759.000000	62.020206 
3758.000000	62.011790 
3757.000000	61.999797 
3756.000000	61.984539 
3755.000000	61.966204 
3754.000000	61.944198 
3753.000000	61.917638 
3752.000000	61.885809 
3751.000000	61.848711 
3750.000000	61.807727 
3749.000000	61.765861 
3748.000000	61.727237 
3747.000000	61.696505 
3746.000000	61.677694 
3745.000000	61.673355 
3744.000000	61.683511 
3743.000000	61.705398 
3742.000000	61.733818 
3741.000000	61.762094 
3740.000000	61.783456 
3739.000000	61.792302 
3738.000000	61.785221 
3737.000000	61.761879 
3736.000000	61.724877 
3735.000000	61.679315 
3734.000000	61.631560 
3733.000000	61.588096 
3732.000000	61.554551 
3731.000000	61.534452 
3730.000000	61.529326 
3729.000000	61.538028 
3728.000000	61.557483 
3727.000000	61.582946 
3726.000000	61.609029 
3725.000000	61.630392 
3724.000000	61.642670 
3723.000000	61.643266 
3722.000000	61.631512 
3721.000000	61.609148 
3720.000000	61.579895 
3719.000000	61.548399 
3718.000000	61.519265 
3717.000000	61.496376 
3716.000000	61.482095 
3715.000000	61.476969 
3714.000000	61.479854 
3713.000000	61.488485 
3712.000000	61.500358 
3711.000000	61.513400 
3710.000000	61.526393 
3709.000000	61.538982 
3708.000000	61.551356 
3707.000000	61.563754 
3706.000000	61.575937 
3705.000000	61.586856 
3704.000000	61.594605 
3703.000000	61.597061 
3702.000000	61.592292 
3701.000000	61.579585 
3700.000000	61.559557 
3699.000000	61.534166 
3698.000000	61.506676 
3697.000000	61.480903 
3696.000000	61.460661 
3695.000000	61.449313 
3694.000000	61.448907 
3693.000000	61.459946 
3692.000000	61.481213 
3691.000000	61.510276 
3690.000000	61.543440 
3689.000000	61.576509 
3688.000000	61.605429 
3687.000000	61.626935 
3686.000000	61.639022 
3685.000000	61.641120 
3684.000000	61.634254 
3683.000000	61.620378 
3682.000000	61.602330 
3681.000000	61.582732 
3680.000000	61.563611 
3679.000000	61.546015 
3678.000000	61.529946 
3677.000000	61.514687 
3676.000000	61.499571 
3675.000000	61.483979 
3674.000000	61.468005 
3673.000000	61.451911 
3672.000000	61.436247 
3671.000000	61.421298 
3670.000000	61.406564 
3669.000000	61.391139 
3668.000000	61.373782 
3667.000000	61.353611 
3666.000000	61.330389 
3665.000000	61.304807 
3664.000000	61.278438 
3663.000000	61.253404 
3662.000000	61.231803 
3661.000000	61.215090 
3660.000000	61.203765 
3659.000000	61.197328 
3658.000000	61.194682 
3657.000000	61.194920 
3656.000000	61.197900 
3655.000000	61.204457 
3654.000000	61.216092 
3653.000000	61.234521 
3652.000000	61.260581 
3651.000000	61.293601 
3650.000000	61.331224 
3649.000000	61.369466 
3648.000000	61.403512 
3647.000000	61.429047 
3646.000000	61.442589 
3645.000000	61.442637 
3644.000000	61.429572 
3643.000000	61.405754 
3642.000000	61.374640 
3641.000000	61.340212 
3640.000000	61.306262 
3639.000000	61.276125 
3638.000000	61.251831 
3637.000000	61.234402 
3636.000000	61.223888 
3635.000000	61.219763 
3634.000000	61.220884 
3633.000000	61.225891 
3632.000000	61.233186 
3631.000000	61.241149 
3630.000000	61.248421 
3629.000000	61.253952 
3628.000000	61.257338 
3627.000000	61.258530 
3626.000000	61.257863 
3625.000000	61.255836 
3624.000000	61.252903 
3623.000000	61.249446 
3622.000000	61.245632 
3621.000000	61.241579 
3620.000000	61.237287 
3619.000000	61.232662 
3618.000000	61.227822 
3617.000000	61.222743 
3616.000000	61.217355 
3615.000000	61.211705 
3614.000000	61.206197 
3613.000000	61.201381 
3612.000000	61.197781 
3611.000000	61.195850 
3610.000000	61.195611 
3609.000000	61.196589 
3608.000000	61.197972 
3607.000000	61.198353 
3606.000000	61.196112 
3605.000000	61.189818 
3604.000000	61.178874 
3603.000000	61.163759 
3602.000000	61.146092 
3601.000000	61.128473 
3600.000000	61.114001 
3599.000000	61.105704 
3598.000000	61.105656 
3597.000000	61.114597 
3596.000000	61.131358 
3595.000000	61.153435 
3594.000000	61.176872 
3593.000000	61.197471 
3592.000000	61.211013 
3591.000000	61.214375 
3590.000000	61.205625 
3589.000000	61.184382 
3588.000000	61.151909 
3587.000000	61.110758 
3586.000000	61.064600 
3585.000000	61.017656 
3584.000000	60.974264 
3583.000000	60.938382 
3582.000000	60.913157 
3581.000000	60.900568 
3580.000000	60.901093 
3579.000000	60.913562 
3578.000000	60.935330 
3577.000000	60.962629 
3576.000000	60.990953 
3575.000000	61.016035 
3574.000000	61.034297 
3573.000000	61.043715 
3572.000000	61.044049 
3571.000000	61.036729 
3570.000000	61.024451 
3569.000000	61.010289 
3568.000000	60.996937 
3567.000000	60.985922 
3566.000000	60.977363 
3565.000000	60.969924 
3564.000000	60.961532 
3563.000000	60.950040 
3562.000000	60.934066 
3561.000000	60.913848 
3560.000000	60.891079 
3559.000000	60.869050 
3558.000000	60.851383 
3557.000000	60.841560 
3556.000000	60.841917 
3555.000000	60.853004 
3554.000000	60.873436 
3553.000000	60.900354 
3552.000000	60.929965 
3551.000000	60.958552 
3550.000000	60.982871 
3549.000000	61.000609 
3548.000000	61.010265 
3547.000000	61.011314 
3546.000000	61.003684 
3545.000000	60.987782 
3544.000000	60.964393 
3543.000000	60.934662 
3542.000000	60.900163 
3541.000000	60.863351 
3540.000000	60.827159 
3539.000000	60.794997 
3538.000000	60.770153 
3537.000000	60.755085 
3536.000000	60.751104 
3535.000000	60.757851 
3534.000000	60.773491 
3533.000000	60.794878 
3532.000000	60.817956 
3531.000000	60.838723 
3530.000000	60.853147 
3529.000000	60.858130 
3528.000000	60.851740 
3527.000000	60.833573 
3526.000000	60.805249 
3525.000000	60.770130 
3524.000000	60.733079 
3523.000000	60.699415 
3522.000000	60.674023 
3521.000000	60.660076 
3520.000000	60.658264 
3519.000000	60.666799 
3518.000000	60.682344 
3517.000000	60.700678 
3516.000000	60.717916 
3515.000000	60.731005 
3514.000000	60.738563 
3513.000000	60.740613 
3512.000000	60.737872 
3511.000000	60.731935 
3510.000000	60.724258 
3509.000000	60.716295 
3508.000000	60.709261 
3507.000000	60.704255 
3506.000000	60.702466 
3505.000000	60.704994 
3504.000000	60.713148 
3503.000000	60.727596 
3502.000000	60.748004 
3501.000000	60.772943 
3500.000000	60.799717 
3499.000000	60.825085 
3498.000000	60.845541 
3497.000000	60.858392 
3496.000000	60.861897 
3495.000000	60.855650 
3494.000000	60.840439 
3493.000000	60.817813 
3492.000000	60.789704 
3491.000000	60.758209 
3490.000000	60.724997 
3489.000000	60.691642 
3488.000000	60.658931 
3487.000000	60.627198 
3486.000000	60.596108 
3485.000000	60.565042 
3484.000000	60.533571 
3483.000000	60.501456 
3482.000000	60.469627 
3481.000000	60.439443 
3480.000000	60.413551 
3479.000000	60.394883 
3478.000000	60.386753 
3477.000000	60.391640 
3476.000000	60.410809 
3475.000000	60.443639 
3474.000000	60.487604 
3473.000000	60.538434 
3472.000000	60.590887 
3471.000000	60.639405 
3470.000000	60.679078 
3469.000000	60.706090 
3468.000000	60.718226 
3467.000000	60.714745 
3466.000000	60.696387 
3465.000000	60.665249 
3464.000000	60.624718 
3463.000000	60.579109 
3462.000000	60.533618 
3461.000000	60.493206 
3460.000000	60.462331 
3459.000000	60.443949 
3458.000000	60.439062 
3457.000000	60.446548 
3456.000000	60.463190 
3455.000000	60.484695 
3454.000000	60.505986 
3453.000000	60.522985 
3452.000000	60.532712 
3451.000000	60.534214 
3450.000000	60.528564 
3449.000000	60.518336 
3448.000000	60.506677 
3447.000000	60.496520 
3446.000000	60.489988 
3445.000000	60.487699 
3444.000000	60.488939 
3443.000000	60.492014 
3442.000000	60.494732 
3441.000000	60.495138 
3440.000000	60.492086 
3439.000000	60.485100 
3438.000000	60.474681 
3437.000000	60.462045 
3436.000000	60.448765 
3435.000000	60.436296 
3434.000000	60.425472 
3433.000000	60.416102 
3432.000000	60.407161 
3431.000000	60.397124 
3430.000000	60.384607 
3429.000000	60.368657 
3428.000000	60.349392 
3427.000000	60.328030 
3426.000000	60.306835 
3425.000000	60.288381 
3424.000000	60.274934 
3423.000000	60.267877 
3422.000000	60.267496 
3421.000000	60.273098 
3420.000000	60.283088 
3419.000000	60.295128 
3418.000000	60.306811 
3417.000000	60.315990 
3416.000000	60.320949 
3415.000000	60.320568 
3414.000000	60.314416 
3413.000000	60.302758 
3412.000000	60.286569 
3411.000000	60.267448 
3410.000000	60.247683 
3409.000000	60.229730 
3408.000000	60.216307 
3407.000000	60.209274 
3406.000000	60.209512 
3405.000000	60.216093 
3404.000000	60.226893 
3403.000000	60.238623 
3402.000000	60.247850 
3401.000000	60.251259 
3400.000000	60.246777 
3399.000000	60.233330 
3398.000000	60.211133 
3397.000000	60.181164 
3396.000000	60.144901 
3395.000000	60.104012 
3394.000000	60.060095 
3393.000000	60.014843 
3392.000000	59.970283 
3391.000000	59.928584 
3390.000000	59.892177 
3389.000000	59.863448 
3388.000000	59.844279 
3387.000000	59.835767 
3386.000000	59.837865 
3385.000000	59.849381 
3384.000000	59.868288 
3383.000000	59.892177 
3382.000000	59.918808 
3381.000000	59.946560 
3380.000000	59.973955 
3379.000000	59.999704 
3378.000000	60.022091 
3377.000000	60.038948 
3376.000000	60.047769 
3375.000000	60.046124 
3374.000000	60.032153 
3373.000000	60.005831 
3372.000000	59.968781 
3371.000000	59.924697 
3370.000000	59.878277 
3369.000000	59.834790 
3368.000000	59.798693 
3367.000000	59.772753 
3366.000000	59.757804 
3365.000000	59.752607 
3364.000000	59.754753 
3363.000000	59.761619 
3362.000000	59.771203 
3361.000000	59.782648 
3360.000000	59.796071 
3359.000000	59.812355 
3358.000000	59.832215 
3357.000000	59.855914 
3356.000000	59.882497 
3355.000000	59.910035 
3354.000000	59.936189 
3353.000000	59.958577 
3352.000000	59.975790 
3351.000000	59.987187 
3350.000000	59.993362 
3349.000000	59.995508 
3348.000000	59.995269 
3347.000000	59.994053 
3346.000000	59.992694 
3345.000000	59.991192 
3344.000000	59.989333 
3343.000000	59.986305 
3342.000000	59.981703 
3341.000000	59.975123 
3340.000000	59.966659 
3339.000000	59.956455 
3338.000000	59.944796 
3337.000000	59.931778 
3336.000000	59.917330 
3335.000000	59.901547 
3334.000000	59.884834 
3333.000000	59.868407 
3332.000000	59.854197 
3331.000000	59.844541 
3330.000000	59.841656 
3329.000000	59.846711 
3328.000000	59.859633 
3327.000000	59.878396 
3326.000000	59.899353 
3325.000000	59.918475 
3324.000000	59.932041 
3323.000000	59.937405 
3322.000000	59.933614 
3321.000000	59.921503 
3320.000000	59.903168 
3319.000000	59.881281 
3318.000000	59.858393 
3317.000000	59.836554 
3316.000000	59.816884 
3315.000000	59.799838 
3314.000000	59.785103 
3313.000000	59.772324 
3312.000000	59.760928 
3311.000000	59.750652 
3310.000000	59.741258 
3309.000000	59.732556 
3308.000000	59.724354 
3307.000000	59.716391 
3306.000000	59.708380 
3305.000000	59.700036 
3304.000000	59.691238 
3303.000000	59.681773 
3302.000000	59.671068 
3301.000000	59.658193 
3300.000000	59.641718 
3299.000000	59.620165 
3298.000000	59.592342 
3297.000000	59.558010 
3296.000000	59.518337 
3295.000000	59.475922 
3294.000000	59.434390 
3293.000000	59.397864 
3292.000000	59.370040 
3291.000000	59.353160 
3290.000000	59.347438 
3289.000000	59.351038 
3288.000000	59.360551 
3287.000000	59.371900 
3286.000000	59.381246 
3285.000000	59.386301 
3284.000000	59.386634 
3283.000000	59.383940 
3282.000000	59.381222 
3281.000000	59.382009 
3280.000000	59.388971 
3279.000000	59.403586 
3278.000000	59.425616 
3277.000000	59.452986 
3276.000000	59.482288 
3275.000000	59.509658 
3274.000000	59.531450 
3273.000000	59.544849 
3272.000000	59.548783 
3271.000000	59.543561 
3270.000000	59.531235 
3269.000000	59.514975 
3268.000000	59.498476 
3267.000000	59.485340 
3266.000000	59.478545 
3265.000000	59.480285 
3264.000000	59.491348 
3263.000000	59.511423 
3262.000000	59.538745 
3261.000000	59.570908 
3260.000000	59.604668 
3259.000000	59.636640 
3258.000000	59.663343 
3257.000000	59.681677 
3256.000000	59.689116 
3255.000000	59.684062 
3254.000000	59.665775 
3253.000000	59.634637 
3252.000000	59.592294 
3251.000000	59.541392 
3250.000000	59.485483 
3249.000000	59.428453 
3248.000000	59.374284 
3247.000000	59.326434 
3246.000000	59.287285 
3245.000000	59.258198 
3244.000000	59.239625 
3243.000000	59.231233 
3242.000000	59.231781 
3241.000000	59.239721 
3240.000000	59.252882 
3239.000000	59.269165 
3238.000000	59.286212 
3237.000000	59.301662 
3236.000000	59.313273 
3235.000000	59.319257 
3234.000000	59.318304 
3233.000000	59.309744 
3232.000000	59.293770 
3231.000000	59.271240 
3230.000000	59.243798 
3229.000000	59.213423 
3228.000000	59.182262 
3227.000000	59.152293 
3226.000000	59.125041 
3225.000000	59.101510 
3224.000000	59.082055 
3223.000000	59.066247 
3222.000000	59.053134 
3221.000000	59.041094 
3220.000000	59.028625 
3219.000000	59.014344 
3218.000000	58.997941 
3217.000000	58.979940 
3216.000000	58.962082 
3215.000000	58.947181 
3214.000000	58.938050 
3213.000000	58.936786 
3212.000000	58.944058 
3211.000000	58.958482 
3210.000000	58.977127 
3209.000000	58.995842 
3208.000000	59.010529 
3207.000000	59.018087 
3206.000000	59.017586 
3205.000000	59.010529 
3204.000000	59.000372 
3203.000000	58.991503 
3202.000000	58.987617 
3201.000000	58.990788 
3200.000000	59.000492 
3199.000000	59.013652 
3198.000000	59.025549 
3197.000000	59.031248 
3196.000000	59.027218 
3195.000000	59.012699 
3194.000000	58.989644 
3193.000000	58.962535 
3192.000000	58.937144 
3191.000000	58.918857 
3190.000000	58.911108 
3189.000000	58.914422 
3188.000000	58.926630 
3187.000000	58.943295 
3186.000000	58.959460 
3185.000000	58.970570 
3184.000000	58.974027 
3183.000000	58.969473 
3182.000000	58.958530 
3181.000000	58.943939 
3180.000000	58.928346 
3179.000000	58.913540 
3178.000000	58.899879 
3177.000000	58.886408 
3176.000000	58.871436 
3175.000000	58.853459 
3174.000000	58.832120 
3173.000000	58.808541 
3172.000000	58.785510 
3171.000000	58.766412 
3170.000000	58.754730 
3169.000000	58.753013 
3168.000000	58.762145 
3167.000000	58.781313 
3166.000000	58.808112 
3165.000000	58.839273 
3164.000000	58.871150 
3163.000000	58.900403 
3162.000000	58.924460 
3161.000000	58.941721 
3160.000000	58.951497 
3159.000000	58.953905 
3158.000000	58.949375 
3157.000000	58.938908 
3156.000000	58.923220 
3155.000000	58.903336 
3154.000000	58.879852 
3153.000000	58.853626 
3152.000000	58.825278 
3151.000000	58.795690 
3150.000000	58.765935 
3149.000000	58.737468 
3148.000000	58.712053 
3147.000000	58.691573 
3146.000000	58.677959 
3145.000000	58.672714 
3144.000000	58.676648 
3143.000000	58.689713 
3142.000000	58.710670 
3141.000000	58.737301 
3140.000000	58.766961 
3139.000000	58.796858 
3138.000000	58.824419 
3137.000000	58.847475 
3136.000000	58.864808 
3135.000000	58.875703 
3134.000000	58.879828 
3133.000000	58.876895 
3132.000000	58.866882 
3131.000000	58.849883 
3130.000000	58.826351 
3129.000000	58.797335 
3128.000000	58.764743 
3127.000000	58.731126 
3126.000000	58.699798 
3125.000000	58.673667 
3124.000000	58.655023 
3123.000000	58.644986 
3122.000000	58.643007 
3121.000000	58.647418 
3120.000000	58.655548 
3119.000000	58.664727 
3118.000000	58.672475 
3117.000000	58.676981 
3116.000000	58.676910 
3115.000000	58.671355 
3114.000000	58.659577 
3113.000000	58.640646 
3112.000000	58.613729 
3111.000000	58.578252 
3110.000000	58.534431 
3109.000000	58.483862 
3108.000000	58.429765 
3107.000000	58.376669 
3106.000000	58.330130 
3105.000000	58.295464 
3104.000000	58.276963 
3103.000000	58.276677 
3102.000000	58.293890 
3101.000000	58.325004 
3100.000000	58.364415 
3099.000000	58.405208 
3098.000000	58.440923 
3097.000000	58.466362 
3096.000000	58.478832 
3095.000000	58.477973 
3094.000000	58.465743 
3093.000000	58.445429 
3092.000000	58.420944 
3091.000000	58.395862 
3090.000000	58.372735 
3089.000000	58.352875 
3088.000000	58.336591 
3087.000000	58.323478 
3086.000000	58.312940 
3085.000000	58.304715 
3084.000000	58.298969 
3083.000000	58.296227 
3082.000000	58.297228 
3081.000000	58.302712 
3080.000000	58.312892 
3079.000000	58.327364 
3078.000000	58.345222 
3077.000000	58.364677 
3076.000000	58.383917 
3075.000000	58.400440 
3074.000000	58.411693 
3073.000000	58.415365 
3072.000000	58.409762 
3071.000000	58.394241 
3070.000000	58.369445 
3069.000000	58.337378 
3068.000000	58.301234 
3067.000000	58.264970 
3066.000000	58.232569 
3065.000000	58.207058 
3064.000000	58.190107 
3063.000000	58.181667 
3062.000000	58.180165 
3061.000000	58.182859 
3060.000000	58.186531 
3059.000000	58.188319 
3058.000000	58.186078 
3057.000000	58.178973 
3056.000000	58.167243 
3055.000000	58.151721 
3054.000000	58.133697 
3053.000000	58.114171 
3052.000000	58.093905 
3051.000000	58.073258 
3050.000000	58.052492 
3049.000000	58.031940 
3048.000000	58.012342 
3047.000000	57.994842 
3046.000000	57.980799 
3045.000000	57.971501 
3044.000000	57.967734 
3043.000000	57.969522 
3042.000000	57.976055 
3041.000000	57.985591 
3040.000000	57.995891 
3039.000000	58.004593 
3038.000000	58.009791 
3037.000000	58.010387 
3036.000000	58.006310 
3035.000000	57.998490 
3034.000000	57.988667 
3033.000000	57.978796 
3032.000000	57.970714 
3031.000000	57.965612 
3030.000000	57.963848 
3029.000000	57.964849 
3028.000000	57.967448 
3027.000000	57.969832 
3026.000000	57.970428 
3025.000000	57.967877 
3024.000000	57.961511 
3023.000000	57.951617 
3022.000000	57.939052 
3021.000000	57.925391 
3020.000000	57.912302 
3019.000000	57.901501 
3018.000000	57.894277 
3017.000000	57.891106 
3016.000000	57.891607 
3015.000000	57.894396 
3014.000000	57.897734 
3013.000000	57.899284 
3012.000000	57.896924 
3011.000000	57.888865 
3010.000000	57.874202 
3009.000000	57.852911 
3008.000000	57.825970 
3007.000000	57.795166 
3006.000000	57.762885 
3005.000000	57.731842 
3004.000000	57.704758 
3003.000000	57.684040 
3002.000000	57.671213 
3001.000000	57.666945 
3000.000000	57.670807 
2999.000000	57.681322 
2998.000000	57.696223 
2997.000000	57.712817 
2996.000000	57.728481 
2995.000000	57.740831 
2994.000000	57.748413 
2993.000000	57.750940 
2992.000000	57.749056 
2991.000000	57.744097 
2990.000000	57.737874 
2989.000000	57.732200 
2988.000000	57.728314 
2987.000000	57.726740 
2986.000000	57.727169 
2985.000000	57.728600 
2984.000000	57.729673 
2983.000000	57.729029 
2982.000000	57.725691 
2981.000000	57.719254 
2980.000000	57.709884 
2979.000000	57.698345 
2978.000000	57.685852 
2977.000000	57.673716 
2976.000000	57.662987 
2975.000000	57.654285 
2974.000000	57.647562 
2973.000000	57.642292 
2972.000000	57.637500 
2971.000000	57.631874 
2970.000000	57.624292 
2969.000000	57.613897 
2968.000000	57.600283 
2967.000000	57.583355 
2966.000000	57.563519 
2965.000000	57.541346 
2964.000000	57.517385 
2963.000000	57.492208 
2962.000000	57.466268 
2961.000000	57.440161 
2960.000000	57.414340 
2959.000000	57.389450 
2958.000000	57.366204 
2957.000000	57.345461 
2956.000000	57.328009 
2955.000000	57.314252 
2954.000000	57.304167 
2953.000000	57.297086 
2952.000000	57.291889 
2951.000000	57.287263 
2950.000000	57.281804 
2949.000000	57.274436 
2948.000000	57.264161 
2947.000000	57.250404 
2946.000000	57.232952 
2945.000000	57.211613 
2944.000000	57.186746 
2943.000000	57.158994 
2942.000000	57.129406 
2941.000000	57.099509 
2940.000000	57.070875 
2939.000000	57.044649 
2938.000000	57.021665 
2937.000000	57.002186 
2936.000000	56.986045 
2935.000000	56.972718 
2934.000000	56.961703 
2933.000000	56.952857 
2932.000000	56.946349 
2931.000000	56.942534 
2930.000000	56.941914 
2929.000000	56.944656 
2928.000000	56.950163 
2927.000000	56.956815 
2926.000000	56.962418 
2925.000000	56.964325 
2924.000000	56.960177 
2923.000000	56.948256 
2922.000000	56.928253 
2921.000000	56.901073 
2920.000000	56.868815 
2919.000000	56.834363 
2918.000000	56.800651 
2917.000000	56.770849 
2916.000000	56.747531 
2915.000000	56.732988 
2914.000000	56.728768 
2913.000000	56.735348 
2912.000000	56.752419 
2911.000000	56.778144 
2910.000000	56.809496 
2909.000000	56.842541 
2908.000000	56.872987 
2907.000000	56.897044 
2906.000000	56.912040 
2905.000000	56.916999 
2904.000000	56.912827 
2903.000000	56.902217 
2902.000000	56.888985 
2901.000000	56.877040 
2900.000000	56.869506 
2899.000000	56.868076 
2898.000000	56.872534 
2897.000000	56.881165 
2896.000000	56.890916 
2895.000000	56.898760 
2894.000000	56.902265 
2893.000000	56.900310 
2892.000000	56.893038 
2891.000000	56.881666 
2890.000000	56.867766 
2889.000000	56.852674 
2888.000000	56.836700 
2887.000000	56.819176 
2886.000000	56.798553 
2885.000000	56.772994 
2884.000000	56.741142 
2883.000000	56.702971 
2882.000000	56.660223 
2881.000000	56.616163 
2880.000000	56.575083 
2879.000000	56.541323 
2878.000000	56.518340 
2877.000000	56.507968 
2876.000000	56.510043 
2875.000000	56.522417 
2874.000000	56.541991 
2873.000000	56.565165 
2872.000000	56.588864 
2871.000000	56.610846 
2870.000000	56.629681 
2869.000000	56.644392 
2868.000000	56.654191 
2867.000000	56.657981 
2866.000000	56.654381 
2865.000000	56.641960 
2864.000000	56.619596 
2863.000000	56.587338 
2862.000000	56.546878 
2861.000000	56.501436 
2860.000000	56.455588 
2859.000000	56.414389 
2858.000000	56.382322 
2857.000000	56.362509 
2856.000000	56.355977 
2855.000000	56.361937 
2854.000000	56.377935 
2853.000000	56.400966 
2852.000000	56.428027 
2851.000000	56.456708 
2850.000000	56.485271 
2849.000000	56.512832 
2848.000000	56.538891 
2847.000000	56.563210 
2846.000000	56.585335 
2845.000000	56.604719 
2844.000000	56.620430 
2843.000000	56.631350 
2842.000000	56.636428 
2841.000000	56.634736 
2840.000000	56.625866 
2839.000000	56.610155 
2838.000000	56.588602 
2837.000000	56.562781 
2836.000000	56.534767 
2835.000000	56.506848 
2834.000000	56.480979 
2833.000000	56.458687 
2832.000000	56.440734 
2831.000000	56.427121 
2830.000000	56.417417 
2829.000000	56.410813 
2828.000000	56.406712 
2827.000000	56.404757 
2826.000000	56.405115 
2825.000000	56.408143 
2824.000000	56.413984 
2823.000000	56.422066 
2822.000000	56.430816 
2821.000000	56.437802 
2820.000000	56.440210 
2819.000000	56.435680 
2818.000000	56.422877 
2817.000000	56.401968 
2816.000000	56.375050 
2815.000000	56.345605 
2814.000000	56.317687 
2813.000000	56.294894 
2812.000000	56.279492 
2811.000000	56.271910 
2810.000000	56.270527 
2809.000000	56.272363 
2808.000000	56.273889 
2807.000000	56.272149 
2806.000000	56.265377 
2805.000000	56.253433 
2804.000000	56.237411 
2803.000000	56.219506 
2802.000000	56.201839 
2801.000000	56.186318 
2800.000000	56.174015 
2799.000000	56.165385 
2798.000000	56.160259 
2797.000000	56.158089 
2796.000000	56.158232 
2795.000000	56.160068 
2794.000000	56.163001 
2793.000000	56.166458 
2792.000000	56.169795 
2791.000000	56.172251 
2790.000000	56.172823 
2789.000000	56.170654 
2788.000000	56.164956 
2787.000000	56.155371 
2786.000000	56.142163 
2785.000000	56.126093 
2784.000000	56.108307 
2783.000000	56.090164 
2782.000000	56.072616 
2781.000000	56.056094 
2780.000000	56.040310 
2779.000000	56.024408 
2778.000000	56.007480 
2777.000000	55.988836 
2776.000000	55.968523 
2775.000000	55.947375 
2774.000000	55.926966 
2773.000000	55.909085 
2772.000000	55.895376 
2771.000000	55.886721 
2770.000000	55.883121 
2769.000000	55.883669 
2768.000000	55.886650 
2767.000000	55.889916 
2766.000000	55.891585 
2765.000000	55.890226 
2764.000000	55.885171 
2763.000000	55.876564 
2762.000000	55.865359 
2761.000000	55.853056 
2760.000000	55.841302 
2759.000000	55.831265 
2758.000000	55.823826 
2757.000000	55.818915 
2756.000000	55.815911 
2755.000000	55.813717 
2754.000000	55.811095 
2753.000000	55.807042 
2752.000000	55.801129 
2751.000000	55.793452 
2750.000000	55.784678 
2749.000000	55.775928 
2748.000000	55.768346 
2747.000000	55.762839 
2746.000000	55.759787 
2745.000000	55.758833 
2744.000000	55.759000 
2743.000000	55.758738 
2742.000000	55.756282 
2741.000000	55.749893 
2740.000000	55.738472 
2739.000000	55.721378 
2738.000000	55.698919 
2737.000000	55.672168 
2736.000000	55.642700 
2735.000000	55.612492 
2734.000000	55.583500 
2733.000000	55.557489 
2732.000000	55.535650 
2731.000000	55.518364 
2730.000000	55.505418 
2729.000000	55.495953 
2728.000000	55.488848 
2727.000000	55.482792 
2726.000000	55.476760 
2725.000000	55.469870 
2724.000000	55.461764 
2723.000000	55.452442 
2722.000000	55.442309 
2721.000000	55.431699 
2720.000000	55.421066 
2719.000000	55.410718 
2718.000000	55.400896 
2717.000000	55.391669 
2716.000000	55.383157 
2715.000000	55.375552 
2714.000000	55.369043 
2713.000000	55.363845 
2712.000000	55.359983 
2711.000000	55.357360 
2710.000000	55.355477 
2709.000000	55.353808 
2708.000000	55.351686 
2707.000000	55.348873 
2706.000000	55.345511 
2705.000000	55.342173 
2704.000000	55.339813 
2703.000000	55.339384 
2702.000000	55.341601 
2701.000000	55.346846 
2700.000000	55.354595 
2699.000000	55.363440 
2698.000000	55.371451 
2697.000000	55.376291 
2696.000000	55.375885 
2695.000000	55.368638 
2694.000000	55.353832 
2693.000000	55.331802 
2692.000000	55.303788 
2691.000000	55.271768 
2690.000000	55.238199 
2689.000000	55.205583 
2688.000000	55.176162 
2687.000000	55.151581 
2686.000000	55.132627 
2685.000000	55.119061 
2684.000000	55.109763 
2683.000000	55.102801 
2682.000000	55.096220 
2681.000000	55.088448 
2680.000000	55.078816 
2679.000000	55.067658 
2678.000000	55.056190 
2677.000000	55.046176 
2676.000000	55.039358 
2675.000000	55.036640 
2674.000000	55.037927 
2673.000000	55.041837 
2672.000000	55.046296 
2671.000000	55.048751 
2670.000000	55.047225 
2669.000000	55.040764 
2668.000000	55.029726 
2667.000000	55.015659 
2666.000000	55.000782 
2665.000000	54.987192 
2664.000000	54.976320 
2663.000000	54.968428 
2662.000000	54.962754 
2661.000000	54.957914 
2660.000000	54.952526 
2659.000000	54.945635 
2658.000000	54.936790 
2657.000000	54.926300 
2656.000000	54.914641 
2655.000000	54.902434 
2654.000000	54.889726 
2653.000000	54.876399 
2652.000000	54.861903 
2651.000000	54.845833 
2650.000000	54.828262 
2649.000000	54.809808 
2648.000000	54.791998 
2647.000000	54.776453 
2646.000000	54.764819 
2645.000000	54.758167 
2644.000000	54.756474 
2643.000000	54.758739 
2642.000000	54.763174 
2641.000000	54.767847 
2640.000000	54.771018 
2639.000000	54.771566 
2638.000000	54.769253 
2637.000000	54.764366 
2636.000000	54.757618 
2635.000000	54.749703 
2634.000000	54.740715 
2633.000000	54.730486 
2632.000000	54.718399 
2631.000000	54.703497 
2630.000000	54.685020 
2629.000000	54.662609 
2628.000000	54.636716 
2627.000000	54.608321 
2626.000000	54.579043 
2625.000000	54.550528 
2624.000000	54.524350 
2623.000000	54.501485 
2622.000000	54.482221 
2621.000000	54.466247 
2620.000000	54.452610 
2619.000000	54.440259 
2618.000000	54.428076 
2617.000000	54.415154 
2616.000000	54.401087 
2615.000000	54.385995 
2614.000000	54.370498 
2613.000000	54.355478 
2612.000000	54.342126 
2611.000000	54.331588 
2610.000000	54.324889 
2609.000000	54.322671 
2608.000000	54.325222 
2607.000000	54.332447 
2606.000000	54.343867 
2605.000000	54.358625 
2604.000000	54.375576 
2603.000000	54.393553 
2602.000000	54.411315 
2601.000000	54.427647 
2600.000000	54.441618 
2599.000000	54.452466 
2598.000000	54.459762 
2597.000000	54.463076 
2596.000000	54.462265 
2595.000000	54.457044 
2594.000000	54.447650 
2593.000000	54.434156 
2592.000000	54.417085 
2591.000000	54.396843 
2590.000000	54.374361 
2589.000000	54.350447 
2588.000000	54.326057 
2587.000000	54.302000 
2586.000000	54.279112 
2585.000000	54.257965 
2584.000000	54.238843 
2583.000000	54.222059 
2582.000000	54.207801 
2581.000000	54.196476 
2580.000000	54.188466 
2579.000000	54.184103 
2578.000000	54.183435 
2577.000000	54.185867 
2576.000000	54.190087 
2575.000000	54.193949 
2574.000000	54.194927 
2573.000000	54.191040 
2572.000000	54.181098 
2571.000000	54.165172 
2570.000000	54.144501 
2569.000000	54.121136 
2568.000000	54.097485 
2567.000000	54.075574 
2566.000000	54.056811 
2565.000000	54.041934 
2564.000000	54.031348 
2563.000000	54.025030 
2562.000000	54.023051 
2561.000000	54.025387 
2560.000000	54.031872 
2559.000000	54.042124 
2558.000000	54.055285 
2557.000000	54.069948 
2556.000000	54.084491 
2555.000000	54.097175 
2554.000000	54.106307 
2553.000000	54.110860 
2552.000000	54.110479 
2551.000000	54.105496 
2550.000000	54.096937 
2549.000000	54.086017 
2548.000000	54.073834 
2547.000000	54.060935 
2546.000000	54.047465 
2545.000000	54.033088 
2544.000000	54.017329 
2543.000000	53.999948 
2542.000000	53.981232 
2541.000000	53.962016 
2540.000000	53.943634 
2539.000000	53.927445 
2538.000000	53.914666 
2537.000000	53.905701 
2536.000000	53.900146 
2535.000000	53.896713 
2534.000000	53.893733 
2533.000000	53.889536 
2532.000000	53.882932 
2531.000000	53.873753 
2530.000000	53.862929 
2529.000000	53.852105 
2528.000000	53.843045 
2527.000000	53.836941 
2526.000000	53.833985 
2525.000000	53.832864 
2524.000000	53.831171 
2523.000000	53.825998 
2522.000000	53.814649 
2521.000000	53.795695 
2520.000000	53.769373 
2519.000000	53.737521 
2518.000000	53.703165 
2517.000000	53.670120 
2516.000000	53.641510 
2515.000000	53.619360 
2514.000000	53.603649 
2513.000000	53.593039 
2512.000000	53.584766 
2511.000000	53.575968 
2510.000000	53.564143 
2509.000000	53.547906 
2508.000000	53.527307 
2507.000000	53.503465 
2506.000000	53.478288 
2505.000000	53.453612 
2504.000000	53.430962 
2503.000000	53.411173 
2502.000000	53.394460 
2501.000000	53.380370 
2500.000000	53.368139 
2499.000000	53.357148 
2498.000000	53.347063 
2497.000000	53.338146 
2496.000000	53.331398 
2495.000000	53.328251 
2494.000000	53.330302 
2493.000000	53.338623 
2492.000000	53.353667 
2491.000000	53.374505 
2490.000000	53.398990 
2489.000000	53.423786 
2488.000000	53.445053 
2487.000000	53.459215 
2486.000000	53.463697 
2485.000000	53.457522 
2484.000000	53.441643 
2483.000000	53.418493 
2482.000000	53.391742 
2481.000000	53.364896 
2480.000000	53.340721 
2479.000000	53.320336 
2478.000000	53.303289 
2477.000000	53.287959 
2476.000000	53.272294 
2475.000000	53.254795 
2474.000000	53.235316 
2473.000000	53.214883 
2472.000000	53.195786 
2471.000000	53.180551 
2470.000000	53.171110 
2469.000000	53.168272 
2468.000000	53.171300 
2467.000000	53.177785 
2466.000000	53.184318 
2465.000000	53.187465 
2464.000000	53.184485 
2463.000000	53.173875 
2462.000000	53.155779 
2461.000000	53.131580 
2460.000000	53.103661 
2459.000000	53.074526 
2458.000000	53.046345 
2457.000000	53.020453 
2456.000000	52.997326 
2455.000000	52.976775 
2454.000000	52.958250 
2453.000000	52.941322 
2452.000000	52.926135 
2451.000000	52.913165 
2450.000000	52.903175 
2449.000000	52.896690 
2448.000000	52.893829 
2447.000000	52.893996 
2446.000000	52.895641 
2445.000000	52.896547 
2444.000000	52.894115 
2443.000000	52.885913 
2442.000000	52.870154 
2441.000000	52.846121 
2440.000000	52.814388 
2439.000000	52.776956 
2438.000000	52.736806 
2437.000000	52.697491 
2436.000000	52.662754 
2435.000000	52.635693 
2434.000000	52.618670 
2433.000000	52.612352 
2432.000000	52.616071 
2431.000000	52.627587 
2430.000000	52.643585 
2429.000000	52.660489 
2428.000000	52.674865 
2427.000000	52.684497 
2426.000000	52.688550 
2425.000000	52.687883 
2424.000000	52.684712 
2423.000000	52.681684 
2422.000000	52.680993 
2421.000000	52.683591 
2420.000000	52.688741 
2419.000000	52.694201 
2418.000000	52.696776 
2417.000000	52.693295 
2416.000000	52.681779 
2415.000000	52.662014 
2414.000000	52.635931 
2413.000000	52.607059 
2412.000000	52.579712 
2411.000000	52.557468 
2410.000000	52.542281 
2409.000000	52.533960 
2408.000000	52.530121 
2407.000000	52.527141 
2406.000000	52.520942 
2405.000000	52.508783 
2404.000000	52.489352 
2403.000000	52.463126 
2402.000000	52.432513 
2401.000000	52.400445 
2400.000000	52.370381 
2399.000000	52.344942 
2398.000000	52.325963 
2397.000000	52.314043 
2396.000000	52.308487 
2395.000000	52.307939 
2394.000000	52.310323 
2393.000000	52.313566 
2392.000000	52.315855 
2391.000000	52.316117 
2390.000000	52.313995 
2389.000000	52.309679 
2388.000000	52.304077 
2387.000000	52.298426 
2386.000000	52.293896 
2385.000000	52.291226 
2384.000000	52.290511 
2383.000000	52.291035 
2382.000000	52.291297 
2381.000000	52.289390 
2380.000000	52.283430 
2379.000000	52.271938 
2378.000000	52.254486 
2377.000000	52.231907 
2376.000000	52.206015 
2375.000000	52.179551 
2374.000000	52.155351 
2373.000000	52.135992 
2372.000000	52.123284 
2371.000000	52.117872 
2370.000000	52.119183 
2369.000000	52.125191 
2368.000000	52.133131 
2367.000000	52.139854 
2366.000000	52.142429 
2365.000000	52.138805 
2364.000000	52.128028 
2363.000000	52.110505 
2362.000000	52.087688 
2361.000000	52.061843 
2360.000000	52.035498 
2359.000000	52.010989 
2358.000000	51.989984 
2357.000000	51.973533 
2356.000000	51.961898 
2355.000000	51.954746 
2354.000000	51.951336 
2353.000000	51.950478 
2352.000000	51.950955 
2351.000000	51.951384 
2350.000000	51.950430 
2349.000000	51.946878 
2348.000000	51.939916 
2347.000000	51.929092 
2346.000000	51.914620 
2345.000000	51.897454 
2344.000000	51.879119 
2343.000000	51.861596 
2342.000000	51.846528 
2341.000000	51.835203 
2340.000000	51.827907 
2339.000000	51.824092 
2338.000000	51.822352 
2337.000000	51.820874 
2336.000000	51.817870 
2335.000000	51.812028 
2334.000000	51.802730 
2333.000000	51.790046 
2332.000000	51.774597 
2331.000000	51.757502 
2330.000000	51.739931 
2329.000000	51.722955 
2328.000000	51.707410 
2327.000000	51.693916 
2326.000000	51.682519 
2325.000000	51.673126 
2324.000000	51.665282 
2323.000000	51.658320 
2322.000000	51.651382 
2321.000000	51.643490 
2320.000000	51.633620 
2319.000000	51.621031 
2318.000000	51.605248 
2317.000000	51.586508 
2316.000000	51.565599 
2315.000000	51.543855 
2314.000000	51.523017 
2313.000000	51.504874 
2312.000000	51.490855 
2311.000000	51.481676 
2310.000000	51.477384 
2309.000000	51.477026 
2308.000000	51.479148 
2307.000000	51.481747 
2306.000000	51.483058 
2305.000000	51.481652 
2304.000000	51.476955 
2303.000000	51.469159 
2302.000000	51.459383 
2301.000000	51.449084 
2300.000000	51.439738 
2299.000000	51.432752 
2298.000000	51.428723 
2297.000000	51.427650 
2296.000000	51.428699 
2295.000000	51.430702 
2294.000000	51.432061 
2293.000000	51.431560 
2292.000000	51.428389 
2291.000000	51.422142 
2290.000000	51.413011 
2289.000000	51.401495 
2288.000000	51.388216 
2287.000000	51.373648 
2286.000000	51.358032 
2285.000000	51.341485 
2284.000000	51.324057 
2283.000000	51.305866 
2282.000000	51.287245 
2281.000000	51.268649 
2280.000000	51.250576 
2279.000000	51.233148 
2278.000000	51.215958 
2277.000000	51.198196 
2276.000000	51.178646 
2275.000000	51.156258 
2274.000000	51.130390 
2273.000000	51.101398 
2272.000000	51.070499 
2271.000000	51.039958 
2270.000000	51.012349 
2269.000000	50.990438 
2268.000000	50.976133 
2267.000000	50.970244 
2266.000000	50.971984 
2265.000000	50.979328 
2264.000000	50.989365 
2263.000000	50.998973 
2262.000000	51.005339 
2261.000000	51.006770 
2260.000000	51.002693 
2259.000000	50.993824 
2258.000000	50.981593 
2257.000000	50.967717 
2256.000000	50.953578 
2255.000000	50.939846 
2254.000000	50.926351 
2253.000000	50.912117 
2252.000000	50.895810 
2251.000000	50.876331 
2250.000000	50.853347 
2249.000000	50.827407 
2248.000000	50.800061 
2247.000000	50.773644 
2246.000000	50.750803 
2245.000000	50.733494 
2244.000000	50.723052 
2243.000000	50.719165 
2242.000000	50.720763 
2241.000000	50.725555 
2240.000000	50.731205 
2239.000000	50.735545 
2238.000000	50.737118 
2237.000000	50.735330 
2236.000000	50.730347 
2235.000000	50.722885 
2234.000000	50.713682 
2233.000000	50.703048 
2232.000000	50.690770 
2231.000000	50.676226 
2230.000000	50.658607 
2229.000000	50.637507 
2228.000000	50.613260 
2227.000000	50.587201 
2226.000000	50.561428 
2225.000000	50.538444 
2224.000000	50.520682 
2223.000000	50.509810 
2222.000000	50.506258 
2221.000000	50.509190 
2220.000000	50.516486 
2219.000000	50.525259 
2218.000000	50.532388 
2217.000000	50.535273 
2216.000000	50.532293 
2215.000000	50.522994 
2214.000000	50.508069 
2213.000000	50.489401 
2212.000000	50.469112 
2211.000000	50.449395 
2210.000000	50.432133 
2209.000000	50.418233 
2208.000000	50.407862 
2207.000000	50.400400 
2206.000000	50.394868 
2205.000000	50.390148 
2204.000000	50.385379 
2203.000000	50.380325 
2202.000000	50.375485 
2201.000000	50.371837 
2200.000000	50.370573 
2199.000000	50.372648 
2198.000000	50.378346 
2197.000000	50.386905 
2196.000000	50.396561 
2195.000000	50.405025 
2194.000000	50.409722 
2193.000000	50.408649 
2192.000000	50.400543 
2191.000000	50.385379 
2190.000000	50.364279 
2189.000000	50.339031 
2188.000000	50.311946 
2187.000000	50.285315 
2186.000000	50.260853 
2185.000000	50.239586 
2184.000000	50.221490 
2183.000000	50.206041 
2182.000000	50.192308 
2181.000000	50.179290 
2180.000000	50.166273 
2179.000000	50.152850 
2178.000000	50.139093 
2177.000000	50.125241 
2176.000000	50.111937 
2175.000000	50.099754 
2174.000000	50.088953 
2173.000000	50.079560 
2172.000000	50.071215 
2171.000000	50.063180 
2170.000000	50.054693 
2169.000000	50.044989 
2168.000000	50.033831 
2167.000000	50.021243 
2166.000000	50.007772 
2165.000000	49.994063 
2164.000000	49.980688 
2163.000000	49.967718 
2162.000000	49.954628 
2161.000000	49.940419 
2160.000000	49.924063 
2159.000000	49.904870 
2158.000000	49.882817 
2157.000000	49.858736 
2156.000000	49.834370 
2155.000000	49.811887 
2154.000000	49.793410 
2153.000000	49.780344 
2152.000000	49.773025 
2151.000000	49.770545 
2150.000000	49.771022 
2149.000000	49.772262 
2148.000000	49.772357 
2147.000000	49.770355 
2146.000000	49.766206 
2145.000000	49.760723 
2144.000000	49.755191 
2143.000000	49.750685 
2142.000000	49.747610 
2141.000000	49.745798 
2140.000000	49.744582 
2139.000000	49.743151 
2138.000000	49.740600 
2137.000000	49.736595 
2136.000000	49.730992 
2135.000000	49.724030 
2134.000000	49.715828 
2133.000000	49.706363 
2132.000000	49.695086 
2131.000000	49.681258 
2130.000000	49.663925 
2129.000000	49.642539 
2128.000000	49.616956 
2127.000000	49.587917 
2126.000000	49.556756 
2125.000000	49.524998 
2124.000000	49.494051 
2123.000000	49.465084 
2122.000000	49.438738 
2121.000000	49.415135 
2120.000000	49.393820 
2119.000000	49.374341 
2118.000000	49.356126 
2117.000000	49.338769 
2116.000000	49.322009 
2115.000000	49.305820 
2114.000000	49.290180 
2113.000000	49.275302 
2112.000000	49.261307 
2111.000000	49.248480 
2110.000000	49.237418 
2109.000000	49.228715 
2108.000000	49.222898 
2107.000000	49.220013 
2106.000000	49.219679 
2105.000000	49.221038 
2104.000000	49.222707 
2103.000000	49.223470 
2102.000000	49.222612 
2101.000000	49.220180 
2100.000000	49.217152 
2099.000000	49.214935 
2098.000000	49.214816 
2097.000000	49.217367 
2096.000000	49.222159 
2095.000000	49.227762 
2094.000000	49.232339 
2093.000000	49.234294 
2092.000000	49.232840 
2091.000000	49.228811 
2090.000000	49.224185 
2089.000000	49.221825 
2088.000000	49.224305 
2087.000000	49.232792 
2086.000000	49.246191 
2085.000000	49.261188 
2084.000000	49.272727 
2083.000000	49.275612 
2082.000000	49.265623 
2081.000000	49.241161 
2080.000000	49.203610 
2079.000000	49.157309 
2078.000000	49.108338 
2077.000000	49.063086 
2076.000000	49.026918 
2075.000000	49.003028 
2074.000000	48.991727 
2073.000000	48.991036 
2072.000000	48.996949 
2071.000000	49.004888 
2070.000000	49.010443 
2069.000000	49.010324 
2068.000000	49.002814 
2067.000000	48.987698 
2066.000000	48.965978 
2065.000000	48.939323 
2064.000000	48.909544 
2063.000000	48.878431 
2062.000000	48.847556 
2061.000000	48.818016 
2060.000000	48.790645 
2059.000000	48.766016 
2058.000000	48.744225 
2057.000000	48.725128 
2056.000000	48.708033 
2055.000000	48.692011 
2054.000000	48.676061 
2053.000000	48.659324 
2052.000000	48.641395 
2051.000000	48.622369 
2050.000000	48.602962 
2049.000000	48.584222 
2048.000000	48.567414 
2047.000000	48.553395 
2046.000000	48.542666 
2045.000000	48.534727 
2044.000000	48.528146 
2043.000000	48.521184 
2042.000000	48.512101 
2041.000000	48.499846 
2040.000000	48.484420 
2039.000000	48.466849 
2038.000000	48.448967 
2037.000000	48.432612 
2036.000000	48.419237 
2035.000000	48.409128 
2034.000000	48.401689 
2033.000000	48.395490 
2032.000000	48.388886 
2031.000000	48.380947 
2030.000000	48.371577 
2029.000000	48.361730 
2028.000000	48.352837 
2027.000000	48.346495 
2026.000000	48.343563 
2025.000000	48.343777 
2024.000000	48.345732 
2023.000000	48.347067 
2022.000000	48.345351 
2021.000000	48.338985 
2020.000000	48.327684 
2019.000000	48.312902 
2018.000000	48.297119 
2017.000000	48.283386 
2016.000000	48.274207 
2015.000000	48.270893 
2014.000000	48.273420 
2013.000000	48.280262 
2012.000000	48.289108 
2011.000000	48.297405 
2010.000000	48.302960 
2009.000000	48.304486 
2008.000000	48.301458 
2007.000000	48.294234 
2006.000000	48.283910 
2005.000000	48.271822 
2004.000000	48.259568 
2003.000000	48.248124 
2002.000000	48.238158 
2001.000000	48.229479 
2000.000000	48.221445 
1999.000000	48.212838 
1998.000000	48.202085 
1997.000000	48.187685 
1996.000000	48.168563 
1995.000000	48.144340 
1994.000000	48.115587 
1993.000000	48.084092 
1992.000000	48.052406 
1991.000000	48.023390 
1990.000000	47.999668 
1989.000000	47.982883 
1988.000000	47.973489 
1987.000000	47.970581 
1986.000000	47.972083 
1985.000000	47.975254 
1984.000000	47.977209 
1983.000000	47.975420 
1982.000000	47.968101 
1981.000000	47.954416 
1980.000000	47.934556 
1979.000000	47.909641 
1978.000000	47.881412 
1977.000000	47.851943 
1976.000000	47.823023 
1975.000000	47.796106 
1974.000000	47.771930 
1973.000000	47.750496 
1972.000000	47.731065 
1971.000000	47.712397 
1970.000000	47.693371 
1969.000000	47.673058 
1968.000000	47.651338 
1967.000000	47.628998 
1966.000000	47.607660 
1965.000000	47.589421 
1964.000000	47.576189 
1963.000000	47.569322 
1962.000000	47.568869 
1961.000000	47.573637 
1960.000000	47.581338 
1959.000000	47.589039 
1958.000000	47.593951 
1957.000000	47.593927 
1956.000000	47.587800 
1955.000000	47.575569 
1954.000000	47.558021 
1953.000000	47.536587 
1952.000000	47.512841 
1951.000000	47.488164 
1950.000000	47.463560 
1949.000000	47.439575 
1948.000000	47.416472 
1947.000000	47.394299 
1946.000000	47.373294 
1945.000000	47.353863 
1944.000000	47.336483 
1943.000000	47.321724 
1942.000000	47.309923 
1941.000000	47.301292 
1940.000000	47.295570 
1939.000000	47.292327 
1938.000000	47.290706 
1937.000000	47.289848 
1936.000000	47.288918 
1935.000000	47.287225 
1934.000000	47.284364 
1933.000000	47.280144 
1932.000000	47.274708 
1931.000000	47.268152 
1930.000000	47.260546 
1929.000000	47.251892 
1928.000000	47.241878 
1927.000000	47.230172 
1926.000000	47.216439 
1925.000000	47.200727 
1924.000000	47.183537 
1923.000000	47.165989 
1922.000000	47.149658 
1921.000000	47.136282 
1920.000000	47.127413 
1919.000000	47.124028 
1918.000000	47.126054 
1917.000000	47.132301 
1916.000000	47.140526 
1915.000000	47.147989 
1914.000000	47.151780 
1913.000000	47.149586 
1912.000000	47.140002 
1911.000000	47.123003 
1910.000000	47.099614 
1909.000000	47.071909 
1908.000000	47.042179 
1907.000000	47.012662 
1906.000000	46.985006 
1905.000000	46.960115 
1904.000000	46.938276 
1903.000000	46.919202 
1902.000000	46.902465 
1901.000000	46.887660 
1900.000000	46.874690 
1899.000000	46.863532 
1898.000000	46.854162 
1897.000000	46.846365 
1896.000000	46.839427 
1895.000000	46.832394 
1894.000000	46.824002 
1893.000000	46.813273 
1892.000000	46.799516 
1891.000000	46.782970 
1890.000000	46.764492 
1889.000000	46.745514 
1888.000000	46.727800 
1887.000000	46.712803 
1886.000000	46.701693 
1885.000000	46.694779 
1884.000000	46.691370 
1883.000000	46.690011 
1882.000000	46.688747 
1881.000000	46.685481 
1880.000000	46.678423 
1879.000000	46.666598 
1878.000000	46.649885 
1877.000000	46.629118 
1876.000000	46.605944 
1875.000000	46.582293 
1874.000000	46.559953 
1873.000000	46.540379 
1872.000000	46.524524 
1871.000000	46.512484 
1870.000000	46.503782 
1869.000000	46.497654 
1868.000000	46.493196 
1867.000000	46.489644 
1866.000000	46.486353 
1865.000000	46.482777 
1864.000000	46.478223 
1863.000000	46.471881 
1862.000000	46.462655 
1861.000000	46.449398 
1860.000000	46.431064 
1859.000000	46.407389 
1858.000000	46.378946 
1857.000000	46.347403 
1856.000000	46.314930 
1855.000000	46.283984 
1854.000000	46.256732 
1853.000000	46.234583 
1852.000000	46.218180 
1851.000000	46.207380 
1850.000000	46.201443 
1849.000000	46.199512 
1848.000000	46.201109 
1847.000000	46.205949 
1846.000000	46.214056 
1845.000000	46.225261 
1844.000000	46.238875 
1843.000000	46.253466 
1842.000000	46.266865 
1841.000000	46.276450 
1840.000000	46.279764 
1839.000000	46.274852 
1838.000000	46.261262 
1837.000000	46.239662 
1836.000000	46.212029 
1835.000000	46.181154 
1834.000000	46.149921 
1833.000000	46.120977 
1832.000000	46.096301 
1831.000000	46.077084 
1830.000000	46.063661 
1829.000000	46.055483 
1828.000000	46.051573 
1827.000000	46.050715 
1826.000000	46.051454 
1825.000000	46.052241 
1824.000000	46.051406 
1823.000000	46.047544 
1822.000000	46.039557 
1821.000000	46.026992 
1820.000000	46.010017 
1819.000000	45.989632 
1818.000000	45.967411 
1817.000000	45.945191 
1816.000000	45.924663 
1815.000000	45.906925 
1814.000000	45.892333 
1813.000000	45.880603 
1812.000000	45.870780 
1811.000000	45.861744 
1810.000000	45.852136 
1809.000000	45.840954 
1808.000000	45.827531 
1807.000000	45.811295 
1806.000000	45.792174 
1805.000000	45.770239 
1804.000000	45.746111 
1803.000000	45.720481 
1802.000000	45.694661 
1801.000000	45.670223 
1800.000000	45.649218 
1799.000000	45.633578 
1798.000000	45.625090 
1797.000000	45.624780 
1796.000000	45.632791 
1795.000000	45.648050 
1794.000000	45.668482 
1793.000000	45.691227 
1792.000000	45.713233 
1791.000000	45.731592 
1790.000000	45.743942 
1789.000000	45.748829 
1788.000000	45.745754 
1787.000000	45.735049 
1786.000000	45.717859 
1785.000000	45.695519 
1784.000000	45.669794 
1783.000000	45.642066 
1782.000000	45.613574 
1781.000000	45.584821 
1780.000000	45.556306 
1779.000000	45.527982 
1778.000000	45.499920 
1777.000000	45.472049 
1776.000000	45.444488 
1775.000000	45.417404 
1774.000000	45.391106 
1773.000000	45.365858 
1772.000000	45.341944 
1771.000000	45.319747 
1770.000000	45.299744 
1769.000000	45.282506 
1768.000000	45.268535 
1767.000000	45.258426 
1766.000000	45.252799 
1765.000000	45.251703 
1764.000000	45.254731 
1763.000000	45.261001 
1762.000000	45.269155 
1761.000000	45.277237 
1760.000000	45.283341 
1759.000000	45.286011 
1758.000000	45.284318 
1757.000000	45.278215 
1756.000000	45.268297 
1755.000000	45.255541 
1754.000000	45.241022 
1753.000000	45.225811 
1752.000000	45.210361 
1751.000000	45.194983 
1750.000000	45.179200 
1749.000000	45.162653 
1748.000000	45.144581 
1747.000000	45.124268 
1746.000000	45.100855 
1745.000000	45.073962 
1744.000000	45.043587 
1743.000000	45.010137 
1742.000000	44.974756 
1741.000000	44.939064 
1740.000000	44.904923 
1739.000000	44.874095 
1738.000000	44.847822 
1737.000000	44.826793 
1736.000000	44.810652 
1735.000000	44.798445 
1734.000000	44.788289 
1733.000000	44.778513 
1732.000000	44.767761 
1731.000000	44.755721 
1730.000000	44.742608 
1729.000000	44.729614 
1728.000000	44.718098 
1727.000000	44.709324 
1726.000000	44.703793 
1725.000000	44.701194 
1724.000000	44.700574 
1723.000000	44.700479 
1722.000000	44.699454 
1721.000000	44.696283 
1720.000000	44.690346 
1719.000000	44.681811 
1718.000000	44.671416 
1717.000000	44.660687 
1716.000000	44.651269 
1715.000000	44.644832 
1714.000000	44.642591 
1713.000000	44.645166 
1712.000000	44.652128 
1711.000000	44.662261 
1710.000000	44.673466 
1709.000000	44.683122 
1708.000000	44.688534 
1707.000000	44.687581 
1706.000000	44.679045 
1705.000000	44.662952 
1704.000000	44.640612 
1703.000000	44.614338 
1702.000000	44.586825 
1701.000000	44.560575 
1700.000000	44.537186 
1699.000000	44.517230 
1698.000000	44.500160 
1697.000000	44.484782 
1696.000000	44.469714 
1695.000000	44.454026 
1694.000000	44.437599 
1693.000000	44.421172 
1692.000000	44.406008 
1691.000000	44.393348 
1690.000000	44.384026 
1689.000000	44.378042 
1688.000000	44.374370 
1687.000000	44.371223 
1686.000000	44.366741 
1685.000000	44.359660 
1684.000000	44.349431 
1683.000000	44.336557 
1682.000000	44.322347 
1681.000000	44.308543 
1680.000000	44.296383 
1679.000000	44.286417 
1678.000000	44.278144 
1677.000000	44.270372 
1676.000000	44.261479 
1675.000000	44.250011 
1674.000000	44.235229 
1673.000000	44.217491 
1672.000000	44.197940 
1671.000000	44.178414 
1670.000000	44.160819 
1669.000000	44.146752 
1668.000000	44.136881 
1667.000000	44.131064 
1666.000000	44.128274 
1665.000000	44.127011 
1664.000000	44.125819 
1663.000000	44.123148 
1662.000000	44.117784 
1661.000000	44.108867 
1660.000000	44.095921 
1659.000000	44.078874 
1658.000000	44.058179 
1657.000000	44.034743 
1656.000000	44.009828 
1655.000000	43.985176 
1654.000000	43.962645 
1653.000000	43.943905 
1652.000000	43.930149 
1651.000000	43.921947 
1650.000000	43.918895 
1649.000000	43.919730 
1648.000000	43.922400 
1647.000000	43.924474 
1646.000000	43.923497 
1645.000000	43.917560 
1644.000000	43.905472 
1643.000000	43.887042 
1642.000000	43.863105 
1641.000000	43.835282 
1640.000000	43.806028 
1639.000000	43.778014 
1638.000000	43.753910 
1637.000000	43.735861 
1636.000000	43.725037 
1635.000000	43.721389 
1634.000000	43.723535 
1633.000000	43.728852 
1632.000000	43.734312 
1631.000000	43.736743 
1630.000000	43.733620 
1629.000000	43.723440 
1628.000000	43.705892 
1627.000000	43.681883 
1626.000000	43.653202 
1625.000000	43.622207 
1624.000000	43.590974 
1623.000000	43.561148 
1622.000000	43.533802 
1621.000000	43.509316 
1620.000000	43.487596 
1619.000000	43.468236 
1618.000000	43.450999 
1617.000000	43.435692 
1616.000000	43.422174 
1615.000000	43.410420 
1614.000000	43.400144 
1613.000000	43.390727 
1612.000000	43.381309 
1611.000000	43.370723 
1610.000000	43.357849 
1609.000000	43.341708 
1608.000000	43.321824 
1607.000000	43.298244 
1606.000000	43.271756 
1605.000000	43.243813 
1604.000000	43.216371 
1603.000000	43.191695 
1602.000000	43.171715 
1601.000000	43.157911 
1600.000000	43.150973 
1599.000000	43.150472 
1598.000000	43.155336 
1597.000000	43.163824 
1596.000000	43.174290 
1595.000000	43.184924 
1594.000000	43.194532 
1593.000000	43.202471 
1592.000000	43.208289 
1591.000000	43.212151 
1590.000000	43.214178 
1589.000000	43.214273 
1588.000000	43.212080 
1587.000000	43.207073 
1586.000000	43.198227 
1585.000000	43.184590 
1584.000000	43.165397 
1583.000000	43.140482 
1582.000000	43.110370 
1581.000000	43.076562 
1580.000000	43.041443 
1579.000000	43.007993 
1578.000000	42.979335 
1577.000000	42.958116 
1576.000000	42.946076 
1575.000000	42.943358 
1574.000000	42.948603 
1573.000000	42.958712 
1572.000000	42.969655 
1571.000000	42.977070 
1570.000000	42.977356 
1569.000000	42.968368 
1568.000000	42.949652 
1567.000000	42.922663 
1566.000000	42.890429 
1565.000000	42.856550 
1564.000000	42.824482 
1563.000000	42.796897 
1562.000000	42.775154 
1561.000000	42.759037 
1560.000000	42.747282 
1559.000000	42.737603 
1558.000000	42.727565 
1557.000000	42.714953 
1556.000000	42.698454 
1555.000000	42.677950 
1554.000000	42.654323 
1553.000000	42.629408 
1552.000000	42.605566 
1551.000000	42.585182 
1550.000000	42.570042 
1549.000000	42.560911 
1548.000000	42.557454 
1547.000000	42.557907 
1546.000000	42.559599 
1545.000000	42.559218 
1544.000000	42.553973 
1543.000000	42.541742 
1542.000000	42.522048 
1541.000000	42.495846 
1540.000000	42.465567 
1539.000000	42.434239 
1538.000000	42.404937 
1537.000000	42.380213 
1536.000000	42.361521 
1535.000000	42.349314 
1534.000000	42.342996 
1533.000000	42.341542 
1532.000000	42.343544 
1531.000000	42.347478 
1530.000000	42.351913 
1529.000000	42.355561 
1528.000000	42.357397 
1527.000000	42.356491 
1526.000000	42.352151 
1525.000000	42.343902 
1524.000000	42.331600 
1523.000000	42.315340 
1522.000000	42.295670 
1521.000000	42.273569 
1520.000000	42.250132 
1519.000000	42.226672 
1518.000000	42.204451 
1517.000000	42.184591 
1516.000000	42.167878 
1515.000000	42.154908 
1514.000000	42.145705 
1513.000000	42.140150 
1512.000000	42.137861 
1511.000000	42.138123 
1510.000000	42.139935 
1509.000000	42.142224 
1508.000000	42.143893 
1507.000000	42.143845 
1506.000000	42.141246 
1505.000000	42.135524 
1504.000000	42.126417 
1503.000000	42.114019 
1502.000000	42.098641 
1501.000000	42.080879 
1500.000000	42.061805 
1499.000000	42.042517 
1498.000000	42.024040 
1497.000000	42.007279 
1496.000000	41.992998 
1495.000000	41.981530 
1494.000000	41.972875 
1493.000000	41.966748 
1492.000000	41.962647 
1491.000000	41.959929 
1490.000000	41.957950 
1489.000000	41.955757 
1488.000000	41.952300 
1487.000000	41.946578 
1486.000000	41.937732 
1485.000000	41.925096 
1484.000000	41.908311 
1483.000000	41.887617 
1482.000000	41.863751 
1481.000000	41.837978 
1480.000000	41.811513 
1479.000000	41.785645 
1478.000000	41.761183 
1477.000000	41.738390 
1476.000000	41.716766 
1475.000000	41.695284 
1474.000000	41.672754 
1473.000000	41.648221 
1472.000000	41.621065 
1471.000000	41.591453 
1470.000000	41.560316 
1469.000000	41.529369 
1468.000000	41.500711 
1467.000000	41.476655 
1466.000000	41.459393 
1465.000000	41.450643 
1464.000000	41.451501 
1463.000000	41.462182 
1462.000000	41.481733 
1461.000000	41.508269 
1460.000000	41.538619 
1459.000000	41.569113 
1458.000000	41.595602 
1457.000000	41.614413 
1456.000000	41.622614 
1455.000000	41.618895 
1454.000000	41.603660 
1453.000000	41.578888 
1452.000000	41.548109 
1451.000000	41.514873 
1450.000000	41.482234 
1449.000000	41.451764 
1448.000000	41.423654 
1447.000000	41.396450 
1446.000000	41.368079 
1445.000000	41.336727 
1444.000000	41.301655 
1443.000000	41.263937 
1442.000000	41.226196 
1441.000000	41.192102 
1440.000000	41.165566 
1439.000000	41.149497 
1438.000000	41.144919 
1437.000000	41.150498 
1436.000000	41.162776 
1435.000000	41.176795 
1434.000000	41.187548 
1433.000000	41.190624 
1432.000000	41.183733 
1431.000000	41.167068 
1430.000000	41.143321 
1429.000000	41.116476 
1428.000000	41.091275 
1427.000000	41.071939 
1426.000000	41.061282 
1425.000000	41.059923 
1424.000000	41.066479 
1423.000000	41.078138 
1422.000000	41.091370 
1421.000000	41.102957 
1420.000000	41.110324 
1419.000000	41.112017 
1418.000000	41.107916 
1417.000000	41.098952 
1416.000000	41.086554 
1415.000000	41.072058 
1414.000000	41.056704 
1413.000000	41.041207 
1412.000000	41.025710 
1411.000000	41.009807 
1410.000000	40.993046 
1409.000000	40.974736 
1408.000000	40.954422 
1407.000000	40.931677 
1406.000000	40.906476 
1405.000000	40.879034 
1404.000000	40.849804 
1403.000000	40.819358 
1402.000000	40.788197 
1401.000000	40.756797 
1400.000000	40.725684 
1399.000000	40.695381 
1398.000000	40.666222 
1397.000000	40.638852 
1396.000000	40.614056 
1395.000000	40.593147 
1394.000000	40.577435 
1393.000000	40.568399 
1392.000000	40.567183 
1391.000000	40.574336 
1390.000000	40.589356 
1389.000000	40.610408 
1388.000000	40.634632 
1387.000000	40.658235 
1386.000000	40.677213 
1385.000000	40.688300 
1384.000000	40.689253 
1383.000000	40.679693 
1382.000000	40.660762 
1381.000000	40.635061 
1380.000000	40.605926 
1379.000000	40.576672 
1378.000000	40.549635 
1377.000000	40.526151 
1376.000000	40.505933 
1375.000000	40.487909 
1374.000000	40.469980 
1373.000000	40.450119 
1372.000000	40.426754 
1371.000000	40.399241 
1370.000000	40.368008 
1369.000000	40.334320 
1368.000000	40.300226 
1367.000000	40.268039 
1366.000000	40.240097 
1365.000000	40.218138 
1364.000000	40.203404 
1363.000000	40.196275 
1362.000000	40.196275 
1361.000000	40.202116 
1360.000000	40.211772 
1359.000000	40.222811 
1358.000000	40.232586 
1357.000000	40.238690 
1356.000000	40.239167 
1355.000000	40.232634 
1354.000000	40.218806 
1353.000000	40.198040 
1352.000000	40.171527 
1351.000000	40.140652 
1350.000000	40.106868 
1349.000000	40.071702 
1348.000000	40.036368 
1347.000000	40.002012 
1346.000000	39.969587 
1345.000000	39.940357 
1344.000000	39.915633 
1343.000000	39.896845 
1342.000000	39.885210 
1341.000000	39.881515 
1340.000000	39.885735 
1339.000000	39.896917 
1338.000000	39.913105 
1337.000000	39.931654 
1336.000000	39.949655 
1335.000000	39.964413 
1334.000000	39.973855 
1333.000000	39.976954 
1332.000000	39.973735 
1331.000000	39.964890 
1330.000000	39.951610 
1329.000000	39.935135 
1328.000000	39.916515 
1327.000000	39.896440 
1326.000000	39.875292 
1325.000000	39.853429 
1324.000000	39.830970 
1323.000000	39.808487 
1322.000000	39.786696 
1321.000000	39.766478 
1320.000000	39.749050 
1319.000000	39.735460 
1318.000000	39.726781 
1317.000000	39.723491 
1316.000000	39.725470 
1315.000000	39.731884 
1314.000000	39.741134 
1313.000000	39.751076 
1312.000000	39.759373 
1311.000000	39.763808 
1310.000000	39.762687 
1309.000000	39.755249 
1308.000000	39.741754 
1307.000000	39.723658 
1306.000000	39.703083 
1305.000000	39.682483 
1304.000000	39.664316 
1303.000000	39.650368 
1302.000000	39.641618 
1301.000000	39.637780 
1300.000000	39.637780 
1299.000000	39.639711 
1298.000000	39.641666 
1297.000000	39.641666 
1296.000000	39.637970 
1295.000000	39.629244 
1294.000000	39.614892 
1293.000000	39.594912 
1292.000000	39.569664 
1291.000000	39.540195 
1290.000000	39.507865 
1289.000000	39.474272 
1288.000000	39.441084 
1287.000000	39.409971 
1286.000000	39.382314 
1285.000000	39.359116 
1284.000000	39.341068 
1283.000000	39.328074 
1282.000000	39.319396 
1281.000000	39.313650 
1280.000000	39.309048 
1279.000000	39.303350 
1278.000000	39.294719 
1277.000000	39.282011 
1276.000000	39.265298 
1275.000000	39.245796 
1274.000000	39.225935 
1273.000000	39.208793 
1272.000000	39.197516 
1271.000000	39.194655 
1270.000000	39.201211 
1269.000000	39.216566 
1268.000000	39.238286 
1267.000000	39.262557 
1266.000000	39.284825 
1265.000000	39.300966 
1264.000000	39.307880 
1263.000000	39.304161 
1262.000000	39.290165 
1261.000000	39.267659 
1260.000000	39.239430 
1259.000000	39.208626 
1258.000000	39.177942 
1257.000000	39.149355 
1256.000000	39.123916 
1255.000000	39.101767 
1254.000000	39.082431 
1253.000000	39.065003 
1252.000000	39.048457 
1251.000000	39.032101 
1250.000000	39.015579 
1249.000000	38.998842 
1248.000000	38.982200 
1247.000000	38.966059 
1246.000000	38.950800 
1245.000000	38.936591 
1244.000000	38.923144 
1243.000000	38.909840 
1242.000000	38.895606 
1241.000000	38.879299 
1240.000000	38.859963 
1239.000000	38.837409 
1238.000000	38.812375 
1237.000000	38.786625 
1236.000000	38.762545 
1235.000000	38.742518 
1234.000000	38.728284 
1233.000000	38.720273 
1232.000000	38.717150 
1231.000000	38.716101 
1230.000000	38.713359 
1229.000000	38.705325 
1228.000000	38.689446 
1227.000000	38.664937 
1226.000000	38.633108 
1225.000000	38.597178 
1224.000000	38.561439 
1223.000000	38.530254 
1222.000000	38.506984 
1221.000000	38.493204 
1220.000000	38.488459 
1219.000000	38.490724 
1218.000000	38.497042 
1217.000000	38.504076 
1216.000000	38.509058 
1215.000000	38.510131 
1214.000000	38.506627 
1213.000000	38.498568 
1212.000000	38.486623 
1211.000000	38.471531 
1210.000000	38.454079 
1209.000000	38.434934 
1208.000000	38.414740 
1207.000000	38.394212 
1206.000000	38.374352 
1205.000000	38.356518 
1204.000000	38.342261 
1203.000000	38.333058 
1202.000000	38.330054 
1201.000000	38.333702 
1200.000000	38.343882 
1199.000000	38.359546 
1198.000000	38.378834 
1197.000000	38.399004 
1196.000000	38.416886 
1195.000000	38.428926 
1194.000000	38.431668 
1193.000000	38.422203 
1192.000000	38.398694 
1191.000000	38.360881 
1190.000000	38.310456 
1189.000000	38.250684 
1188.000000	38.186454 
1187.000000	38.123273 
1186.000000	38.066530 
1185.000000	38.020467 
1184.000000	37.987947 
1183.000000	37.969994 
1182.000000	37.965703 
1181.000000	37.972903 
1180.000000	37.988519 
1179.000000	38.009524 
1178.000000	38.032889 
1177.000000	38.056063 
1176.000000	38.076567 
1175.000000	38.091969 
1174.000000	38.099741 
1173.000000	38.097214 
1172.000000	38.082051 
1171.000000	38.052821 
1170.000000	38.009285 
1169.000000	37.953257 
1168.000000	37.888240 
1167.000000	37.819170 
1166.000000	37.751317 
1165.000000	37.689661 
1164.000000	37.637400 
1163.000000	37.595629 
1162.000000	37.563347 
1161.000000	37.537789 
1160.000000	37.515783 
1159.000000	37.494468 
1158.000000	37.472701 
1157.000000	37.450695 
1156.000000	37.430644 
1155.000000	37.415480 
1154.000000	37.408399 
1153.000000	37.411284 
1152.000000	37.424349 
1151.000000	37.445807 
1150.000000	37.471842 
1149.000000	37.497329 
1148.000000	37.516856 
1147.000000	37.525939 
1146.000000	37.521719 
1145.000000	37.503409 
1144.000000	37.472248 
1143.000000	37.431120 
1142.000000	37.383723 
1141.000000	37.333917 
1140.000000	37.285161 
1139.000000	37.240219 
1138.000000	37.201356 
1137.000000	37.170290 
1136.000000	37.148642 
1135.000000	37.137508 
1134.000000	37.137246 
1133.000000	37.147045 
1132.000000	37.165117 
1131.000000	37.188363 
1130.000000	37.212586 
1129.000000	37.233543 
1128.000000	37.247347 
1127.000000	37.252187 
1126.000000	37.248086 
1125.000000	37.237739 
1124.000000	37.225699 
1123.000000	37.217402 
1122.000000	37.217783 
1121.000000	37.230134 
1120.000000	37.255024 
1119.000000	37.290167 
1118.000000	37.330436 
1117.000000	37.368893 
1116.000000	37.398052 
1115.000000	37.411189 
1114.000000	37.403607 
1113.000000	37.373423 
1112.000000	37.322545 
1111.000000	37.256264 
1110.000000	37.182784 
1109.000000	37.111806 
1108.000000	37.052536 
1107.000000	37.012457 
1106.000000	36.995315 
1105.000000	37.000823 
1104.000000	37.024402 
1103.000000	37.058758 
1102.000000	37.095308 
1101.000000	37.125635 
1100.000000	37.144041 
1099.000000	37.148213 
1098.000000	37.139916 
1097.000000	37.123513 
1096.000000	37.105417 
1095.000000	37.092041 
1094.000000	37.088322 
1093.000000	37.096548 
1092.000000	37.116146 
1091.000000	37.143898 
1090.000000	37.175154 
1089.000000	37.204504 
1088.000000	37.226915 
1087.000000	37.238121 
1086.000000	37.235283 
1085.000000	37.216973 
1084.000000	37.183094 
1083.000000	37.134480 
1082.000000	37.073183 
1081.000000	37.001609 
1080.000000	36.922454 
1079.000000	36.838316 
1078.000000	36.752200 
1077.000000	36.666750 
1076.000000	36.584591 
1075.000000	36.508059 
1074.000000	36.439251 
1073.000000	36.379957 
1072.000000	36.331200 
1071.000000	36.293363 
1070.000000	36.265659 
1069.000000	36.246800 
1068.000000	36.235141 
1067.000000	36.228656 
1066.000000	36.225318 
1065.000000	36.223602 
1064.000000	36.222672 
1063.000000	36.222457 
1062.000000	36.223530 
1061.000000	36.227035 
1060.000000	36.234307 
1059.000000	36.246323 
1058.000000	36.263418 
1057.000000	36.285066 
1056.000000	36.309599 
1055.000000	36.334800 
1054.000000	36.357831 
1053.000000	36.375784 
1052.000000	36.386203 
1051.000000	36.387896 
1050.000000	36.380767 
1049.000000	36.365771 
1048.000000	36.344695 
1047.000000	36.320257 
1046.000000	36.294722 
1045.000000	36.269831 
1044.000000	36.246347 
1043.000000	36.224389 
1042.000000	36.203598 
1041.000000	36.183381 
1040.000000	36.163401 
1039.000000	36.143660 
1038.000000	36.124444 
1037.000000	36.106324 
1036.000000	36.089444 
1035.000000	36.073565 
1034.000000	36.058354 
1033.000000	36.043524 
1032.000000	36.028957 
1031.000000	36.015033 
1030.000000	36.002779 
1029.000000	35.993599 
1028.000000	35.988903 
1027.000000	35.989689 
1026.000000	35.996246 
1025.000000	36.007642 
1024.000000	36.021852 
1023.000000	36.035943 
1022.000000	36.046695 
1021.000000	36.051106 
1020.000000	36.047148 
1019.000000	36.033654 
1018.000000	36.010694 
1017.000000	35.979080 
1016.000000	35.940480 
1015.000000	35.896468 
1014.000000	35.848474 
1013.000000	35.797595 
1012.000000	35.744667 
1011.000000	35.690212 
1010.000000	35.634875 
1009.000000	35.579490 
1008.000000	35.525631 
1007.000000	35.475325 
1006.000000	35.431194 
1005.000000	35.395646 
1004.000000	35.370635 
1003.000000	35.356736 
1002.000000	35.353446 
1001.000000	35.358405 
1000.000000	35.368609 
999.000000	 35.380601 
998.000000	 35.391998 
997.000000	 35.401058 
996.000000	 35.407996 
995.000000	 35.414099 
994.000000	 35.421609 
993.000000	 35.432529 
992.000000	 35.447955 
991.000000	 35.467529 
990.000000	 35.489344 
989.000000	 35.510277 
988.000000	 35.526585 
987.000000	 35.534787 
986.000000	 35.532641 
985.000000	 35.519623 
984.000000	 35.496830 
983.000000	 35.466480 
982.000000	 35.431647 
981.000000	 35.395503 
980.000000	 35.360693 
979.000000	 35.328698 
978.000000	 35.300302 
977.000000	 35.275292 
976.000000	 35.252881 
975.000000	 35.231757 
974.000000	 35.210800 
973.000000	 35.189032 
972.000000	 35.166049 
971.000000	 35.142040 
970.000000	 35.117268 
969.000000	 35.092544 
968.000000	 35.068726 
967.000000	 35.046768 
966.000000	 35.027170 
965.000000	 35.010480 
964.000000	 34.997081 
963.000000	 34.987354 
962.000000	 34.981584 
961.000000	 34.980201 
960.000000	 34.983539 
959.000000	 34.991693 
958.000000	 35.004162 
957.000000	 35.019683 
956.000000	 35.036015 
955.000000	 35.050177 
954.000000	 35.058808 
953.000000	 35.059046 
952.000000	 35.049080 
951.000000	 35.028862 
950.000000	 34.999752 
949.000000	 34.964513 
948.000000	 34.926056 
947.000000	 34.887266 
946.000000	 34.850120 
945.000000	 34.815406 
944.000000	 34.782791 
943.000000	 34.751462 
942.000000	 34.720635 
941.000000	 34.690165 
940.000000	 34.660959 
939.000000	 34.634661 
938.000000	 34.613442 
937.000000	 34.599137 
936.000000	 34.592843 
935.000000	 34.594106 
934.000000	 34.600996 
933.000000	 34.610199 
932.000000	 34.617900 
931.000000	 34.620451 
930.000000	 34.615206 
929.000000	 34.601116 
928.000000	 34.578800 
927.000000	 34.550404 
926.000000	 34.518909 
925.000000	 34.487748 
924.000000	 34.459829 
923.000000	 34.437155 
922.000000	 34.420847 
921.000000	 34.410762 
920.000000	 34.406042 
919.000000	 34.404730 
918.000000	 34.404563 
917.000000	 34.403276 
916.000000	 34.398651 
915.000000	 34.389328 
914.000000	 34.374904 
913.000000	 34.356403 
912.000000	 34.335803 
911.000000	 34.316134 
910.000000	 34.300398 
909.000000	 34.291172 
908.000000	 34.289836 
907.000000	 34.295988 
906.000000	 34.307503 
905.000000	 34.321022 
904.000000	 34.332656 
903.000000	 34.339308 
902.000000	 34.339141 
901.000000	 34.331989 
900.000000	 34.318971 
899.000000	 34.302139 
898.000000	 34.283208 
897.000000	 34.263086 
896.000000	 34.241080 
895.000000	 34.215688 
894.000000	 34.184741 
893.000000	 34.146666 
892.000000	 34.101033 
891.000000	 34.049153 
890.000000	 33.993768 
889.000000	 33.938550 
888.000000	 33.887457 
887.000000	 33.843588 
886.000000	 33.809041 
885.000000	 33.784055 
884.000000	 33.768081 
883.000000	 33.759951 
882.000000	 33.758354 
881.000000	 33.762192 
880.000000	 33.770322 
879.000000	 33.781313 
878.000000	 33.792853 
877.000000	 33.801937 
876.000000	 33.805084 
875.000000	 33.798980 
874.000000	 33.781433 
873.000000	 33.751821 
872.000000	 33.711695 
871.000000	 33.664178 
870.000000	 33.613872 
869.000000	 33.565330 
868.000000	 33.522605 
867.000000	 33.488154 
866.000000	 33.462834 
865.000000	 33.445763 
864.000000	 33.434844 
863.000000	 33.427429 
862.000000	 33.421015 
861.000000	 33.413863 
860.000000	 33.405160 
859.000000	 33.394885 
858.000000	 33.383297 
857.000000	 33.370828 
856.000000	 33.357667 
855.000000	 33.343648 
854.000000	 33.328294 
853.000000	 33.311033 
852.000000	 33.291339 
851.000000	 33.269190 
850.000000	 33.245086 
849.000000	 33.220028 
848.000000	 33.195281 
847.000000	 33.172082 
846.000000	 33.151531 
845.000000	 33.134078 
844.000000	 33.119773 
843.000000	 33.108162 
842.000000	 33.098530 
841.000000	 33.090209 
840.000000	 33.082556 
839.000000	 33.075284 
838.000000	 33.067917 
837.000000	 33.059930 
836.000000	 33.050036 
835.000000	 33.036637 
834.000000	 33.017444 
833.000000	 32.989978 
832.000000	 32.952260 
831.000000	 32.903218 
830.000000	 32.843899 
829.000000	 32.778000 
828.000000	 32.711458 
827.000000	 32.651567 
826.000000	 32.605814 
825.000000	 32.580280 
824.000000	 32.578134 
823.000000	 32.598948 
822.000000	 32.638907 
821.000000	 32.691502 
820.000000	 32.748723 
819.000000	 32.802677 
818.000000	 32.846546 
817.000000	 32.875800 
816.000000	 32.888293 
815.000000	 32.884502 
814.000000	 32.866930 
813.000000	 32.839345 
812.000000	 32.806158 
811.000000	 32.771062 
810.000000	 32.736635 
809.000000	 32.703399 
808.000000	 32.670760 
807.000000	 32.636380 
806.000000	 32.597804 
805.000000	 32.552742 
804.000000	 32.500195 
803.000000	 32.440948 
802.000000	 32.377600 
801.000000	 32.314133 
800.000000	 32.254791 
799.000000	 32.203173 
798.000000	 32.161331 
797.000000	 32.129168 
796.000000	 32.104730 
795.000000	 32.084918 
794.000000	 32.066535 
793.000000	 32.047390 
792.000000	 32.027149 
791.000000	 32.007360 
790.000000	 31.991171 
789.000000	 31.981945 
788.000000	 31.982231 
787.000000	 31.993007 
786.000000	 32.013106 
785.000000	 32.039189 
784.000000	 32.066297 
783.000000	 32.089495 
782.000000	 32.104325 
781.000000	 32.108139 
780.000000	 32.099819 
779.000000	 32.079815 
778.000000	 32.049536 
777.000000	 32.010865 
776.000000	 31.965637 
775.000000	 31.915545 
774.000000	 31.862282 
773.000000	 31.808042 
772.000000	 31.755113 
771.000000	 31.706094 
770.000000	 31.663537 
769.000000	 31.629824 
768.000000	 31.606292 
767.000000	 31.593012 
766.000000	 31.588625 
765.000000	 31.590723 
764.000000	 31.596255 
763.000000	 31.602215 
762.000000	 31.605887 
761.000000	 31.605315 
760.000000	 31.599402 
759.000000	 31.587743 
758.000000	 31.570267 
757.000000	 31.546998 
756.000000	 31.518554 
755.000000	 31.485342 
754.000000	 31.448388 
753.000000	 31.408476 
752.000000	 31.366682 
751.000000	 31.324005 
750.000000	 31.281399 
749.000000	 31.240391 
748.000000	 31.202816 
747.000000	 31.171107 
746.000000	 31.147956 
745.000000	 31.135988 
744.000000	 31.137037 
743.000000	 31.151509 
742.000000	 31.177854 
741.000000	 31.212496 
740.000000	 31.250214 
739.000000	 31.284737 
738.000000	 31.309819 
737.000000	 31.320500 
736.000000	 31.313824 
735.000000	 31.289362 
734.000000	 31.248927 
733.000000	 31.196331 
732.000000	 31.136417 
731.000000	 31.073975 
730.000000	 31.013250 
729.000000	 30.958080 
728.000000	 30.911231 
727.000000	 30.874967 
726.000000	 30.850410 
725.000000	 30.837893 
724.000000	 30.836367 
723.000000	 30.843639 
722.000000	 30.856204 
721.000000	 30.869650 
720.000000	 30.879187 
719.000000	 30.880165 
718.000000	 30.868887 
717.000000	 30.843019 
716.000000	 30.802130 
715.000000	 30.747771 
714.000000	 30.682945 
713.000000	 30.611419 
712.000000	 30.537223 
711.000000	 30.463719 
710.000000	 30.393099 
709.000000	 30.325961 
708.000000	 30.261540 
707.000000	 30.198168 
706.000000	 30.134081 
705.000000	 30.068707 
704.000000	 30.002093 
703.000000	 29.936480 
702.000000	 29.875516 
701.000000	 29.824018 
700.000000	 29.786324 
699.000000	 29.765248 
698.000000	 29.760670 
697.000000	 29.769229 
696.000000	 29.784679 
695.000000	 29.799532 
694.000000	 29.806327 
693.000000	 29.800033 
692.000000	 29.778814 
691.000000	 29.744863 
690.000000	 29.703760 
689.000000	 29.663038 
688.000000	 29.629898 
687.000000	 29.610037 
686.000000	 29.605841 
685.000000	 29.616165 
684.000000	 29.636120 
683.000000	 29.658269 
682.000000	 29.673933 
681.000000	 29.675340 
680.000000	 29.656910 
679.000000	 29.615569 
678.000000	 29.552078 
677.000000	 29.470324 
676.000000	 29.377293 
675.000000	 29.281711 
674.000000	 29.192852 
673.000000	 29.119372 
672.000000	 29.067325 
671.000000	 29.039216 
670.000000	 29.033398 
669.000000	 29.044795 
668.000000	 29.065871 
667.000000	 29.088115 
666.000000	 29.103922 
665.000000	 29.108023 
664.000000	 29.097771 
663.000000	 29.073405 
662.000000	 29.036951 
661.000000	 28.991436 
660.000000	 28.940200 
659.000000	 28.886198 
658.000000	 28.832149 
657.000000	 28.780388 
656.000000	 28.732776 
655.000000	 28.690743 
654.000000	 28.655624 
653.000000	 28.627943 
652.000000	 28.607439 
651.000000	 28.592634 
650.000000	 28.580498 
649.000000	 28.567361 
648.000000	 28.549218 
647.000000	 28.523445 
646.000000	 28.488826 
645.000000	 28.447103 
644.000000	 28.402280 
643.000000	 28.360152 
642.000000	 28.327131 
641.000000	 28.308415 
640.000000	 28.306293 
639.000000	 28.319382 
638.000000	 28.342819 
637.000000	 28.369712 
636.000000	 28.392648 
635.000000	 28.405737 
634.000000	 28.406095 
633.000000	 28.394699 
632.000000	 28.375768 
631.000000	 28.355550 
630.000000	 28.339934 
629.000000	 28.332805 
628.000000	 28.334426 
627.000000	 28.341555 
626.000000	 28.347921 
625.000000	 28.346538 
624.000000	 28.331375 
623.000000	 28.299427 
622.000000	 28.251409 
621.000000	 28.191542 
620.000000	 28.126549 
619.000000	 28.063416 
618.000000	 28.008294 
617.000000	 27.965354 
616.000000	 27.935767 
615.000000	 27.917957 
614.000000	 27.908229 
613.000000	 27.901864 
612.000000	 27.894258 
611.000000	 27.881741 
610.000000	 27.862668 
609.000000	 27.837300 
608.000000	 27.807641 
607.000000	 27.776384 
606.000000	 27.745771 
605.000000	 27.716732 
604.000000	 27.688479 
603.000000	 27.658510 
602.000000	 27.623677 
601.000000	 27.580881 
600.000000	 27.528262 
599.000000	 27.465534 
598.000000	 27.394437 
597.000000	 27.318239 
596.000000	 27.240777 
595.000000	 27.165532 
594.000000	 27.094793 
593.000000	 27.029609 
592.000000	 26.969265 
591.000000	 26.912426 
590.000000	 26.857948 
589.000000	 26.805329 
588.000000	 26.755118 
587.000000	 26.708555 
586.000000	 26.666855 
585.000000	 26.631331 
584.000000	 26.602578 
583.000000	 26.581263 
582.000000	 26.567816 
581.000000	 26.563334 
580.000000	 26.569008 
579.000000	 26.585268 
578.000000	 26.610946 
577.000000	 26.642680 
576.000000	 26.674556 
575.000000	 26.699304 
574.000000	 26.709055 
573.000000	 26.697421 
572.000000	 26.660633 
571.000000	 26.599097 
570.000000	 26.516938 
569.000000	 26.421618 
568.000000	 26.321721 
567.000000	 26.225590 
566.000000	 26.139116 
565.000000	 26.065063 
564.000000	 26.003003 
563.000000	 25.950288 
562.000000	 25.903558 
561.000000	 25.860023 
560.000000	 25.819039 
559.000000	 25.781750 
558.000000	 25.751733 
557.000000	 25.732994 
556.000000	 25.729727 
555.000000	 25.744104 
554.000000	 25.776290 
553.000000	 25.823235 
552.000000	 25.878381 
551.000000	 25.932288 
550.000000	 25.974249 
549.000000	 25.994062 
548.000000	 25.983715 
547.000000	 25.938963 
546.000000	 25.860404 
545.000000	 25.753426 
544.000000	 25.627732 
543.000000	 25.494670 
542.000000	 25.365829 
541.000000	 25.249910 
540.000000	 25.151968 
539.000000	 25.072383 
538.000000	 25.007677 
537.000000	 24.952316 
536.000000	 24.900865 
535.000000	 24.849963 
534.000000	 24.798774 
533.000000	 24.749755 
532.000000	 24.707055 
531.000000	 24.675679 
530.000000	 24.658560 
529.000000	 24.657678 
528.000000	 24.673128 
527.000000	 24.703836 
526.000000	 24.747538 
525.000000	 24.802160 
524.000000	 24.865651 
523.000000	 24.935436 
522.000000	 25.007605 
521.000000	 25.076556 
520.000000	 25.134897 
519.000000	 25.174188 
518.000000	 25.186181 
517.000000	 25.165390 
516.000000	 25.109410 
515.000000	 25.022172 
514.000000	 24.910664 
513.000000	 24.784517 
512.000000	 24.652695 
511.000000	 24.523472 
510.000000	 24.401116 
509.000000	 24.286890 
508.000000	 24.178552 
507.000000	 24.073195 
506.000000	 23.967075 
505.000000	 23.857784 
504.000000	 23.744177 
503.000000	 23.626613 
502.000000	 23.507046 
501.000000	 23.388576 
500.000000	 23.274707 
499.000000	 23.168611 
498.000000	 23.072838 
497.000000	 22.989082 
496.000000	 22.917819 
495.000000	 22.859144 
494.000000	 22.812485 
493.000000	 22.778034 
492.000000	 22.755718 
491.000000	 22.746562 
490.000000	 22.752618 
489.000000	 22.776293 
488.000000	 22.818827 
487.000000	 22.878813 
486.000000	 22.952413 
485.000000	 23.031806 
484.000000	 23.105311 
483.000000	 23.159480 
482.000000	 23.182487 
481.000000	 23.165750 
480.000000	 23.106455 
479.000000	 23.007678 
478.000000	 22.878265 
477.000000	 22.730898 
476.000000	 22.579860 
475.000000	 22.439026 
474.000000	 22.319889 
473.000000	 22.230267 
472.000000	 22.174096 
471.000000	 22.151136 
470.000000	 22.157835 
469.000000	 22.189450 
468.000000	 22.240567 
467.000000	 22.304105 
466.000000	 22.371745 
465.000000	 22.435784 
464.000000	 22.487473 
463.000000	 22.517204 
462.000000	 22.513628 
461.000000	 22.467494 
460.000000	 22.370076 
459.000000	 22.216105 
458.000000	 22.004389 
457.000000	 21.739220 
456.000000	 21.431541 
455.000000	 21.100711 
454.000000	 20.769453 
453.000000	 20.461583 
452.000000	 20.195913 
451.000000	 19.984340 
450.000000	 19.827222 
449.000000	 19.713068 
448.000000	 19.625639 
447.000000	 19.549489 
446.000000	 19.474649 
445.000000	 19.399905 
444.000000	 19.336199 
443.000000	 19.304275 
442.000000	 19.326734 
441.000000	 19.422745 
440.000000	 19.604134 
439.000000	 19.870281 
438.000000	 20.207881 
437.000000	 20.590019 
436.000000	 20.980453 
435.000000	 21.337080 
434.000000	 21.624588 
433.000000	 21.813774 
432.000000	 21.884489 
431.000000	 21.827697 
430.000000	 21.654248 
429.000000	 21.382641 
428.000000	 21.034097 
427.000000	 20.630645 
426.000000	 20.203018 
425.000000	 19.773054 
424.000000	 19.353675 
423.000000	 18.949413 
422.000000	 18.561530 
421.000000	 18.187689 
420.000000	 17.829632 
419.000000	 17.477345 
418.000000	 17.110657 
417.000000	 16.719651 
416.000000	 16.308927 
415.000000	 15.886211 
414.000000	 15.468406 
413.000000	 15.072584 
412.000000	 14.725255 
411.000000	 14.459180 
410.000000	 14.320421 
409.000000	 14.345335 
408.000000	 14.571428 
407.000000	 15.033650 
406.000000	 15.757417 
405.000000	 16.715788 
404.000000	 17.871522 
403.000000	 19.157290 
402.000000	 20.525503 
401.000000	 21.961164 
400.000000	 23.470926 
399.000000	 25.088071 
398.000000	 26.802468 
397.000000	 28.556585 
396.000000	 30.185890 
395.000000	 31.465220 
394.000000	 32.064414 
393.000000	 31.628227 
392.000000	 29.871582 
391.000000	 26.691341 
390.000000	 22.214055 
389.000000	 16.818952 
388.000000	 11.190295 
387.000000	 6.184506  
386.000000	 2.526092  
385.000000	 0.731563  
384.000000	 0.965285  
383.000000	 3.114938  
382.000000	 6.902766  
381.000000	 11.931109 
380.000000	 17.940759 
379.000000	 24.601006 
378.000000	 31.364917 
377.000000	 37.584614 
376.000000	 42.344141 
375.000000	 44.943594 
374.000000	 45.102000 
373.000000	 43.062806 
372.000000	 39.772868 
371.000000	 36.308073 
370.000000	 33.570885 

