PE IR       SPECTRUM    SPECTRUM    ASCII       PEDS        1.60        
  -1
C-9DEF~1.ASC
17/03/27
21:35:42.00
17/03/27
21:35:42.00
tln
$C-4040-8_t0087$<tbV0>[-10.4,5.2,8.0,0.0,27,1,0]
370.000000
64









2002,4.07    
MIRTGS : RIGHTBACK : INTERNAL 2
MIR : ON : INTERNAL 2
OPTKBR

0.200000
8
8.000000
FILLER
RATIO
SPECTRUM
UNLOCKED 256

DOUBLE
64
COMBINED
1
0
0


1.000000
RATIO


1
0
TRUE
51149
0
LEFT NOT FITTED RIGHT NOT FITTED 0
NONE
NONE
15600
12.000000
4.427000
51148
TRUE
1 0 8 72 0 0 0 0 

15798.010000






#HDR
-1
-1
#GR
CM-1
%T
0.00002384185791015625
0.0
5000.000000
-1.000000
4631
8
92.189478
32.326531
#DATA
5000.000000	65.467619 
4999.000000	65.415763 
4998.000000	65.372705 
4997.000000	65.340876 
4996.000000	65.316772 
4995.000000	65.293860 
4994.000000	65.263533 
4993.000000	65.219140 
4992.000000	65.156602 
4991.000000	65.075564 
4990.000000	64.979887 
4989.000000	64.876627 
4988.000000	64.774441 
4987.000000	64.681529 
4986.000000	64.603114 
4985.000000	64.540243 
4984.000000	64.489483 
4983.000000	64.444422 
4982.000000	64.397406 
4981.000000	64.342713 
4980.000000	64.278960 
4979.000000	64.211487 
4978.000000	64.150643 
4977.000000	64.111018 
4976.000000	64.107537 
4975.000000	64.152455 
4974.000000	64.249563 
4973.000000	64.394521 
4972.000000	64.575004 
4971.000000	64.773631 
4970.000000	64.970827 
4969.000000	65.149736 
4968.000000	65.298771 
4967.000000	65.413022 
4966.000000	65.494370 
4965.000000	65.548253 
4964.000000	65.581154 
4963.000000	65.597534 
4962.000000	65.599179 
4961.000000	65.584659 
4960.000000	65.551543 
4959.000000	65.498971 
4958.000000	65.430402 
4957.000000	65.353941 
4956.000000	65.281534 
4955.000000	65.226840 
4954.000000	65.201497 
4953.000000	65.211248 
4952.000000	65.253353 
4951.000000	65.316963 
4950.000000	65.384888 
4949.000000	65.437412 
4948.000000	65.457296 
4947.000000	65.433740 
4946.000000	65.365409 
4945.000000	65.260028 
4944.000000	65.132808 
4943.000000	65.001702 
4942.000000	64.883947 
4941.000000	64.791989 
4940.000000	64.731335 
4939.000000	64.700007 
4938.000000	64.690375 
4937.000000	64.693164 
4936.000000	64.699149 
4935.000000	64.701867 
4934.000000	64.698791 
4933.000000	64.690876 
4932.000000	64.681458 
4931.000000	64.673829 
4930.000000	64.670491 
4929.000000	64.672207 
4928.000000	64.678239 
4927.000000	64.686894 
4926.000000	64.697313 
4925.000000	64.710092 
4924.000000	64.727425 
4923.000000	64.752435 
4922.000000	64.787578 
4921.000000	64.833760 
4920.000000	64.889001 
4919.000000	64.948964 
4918.000000	65.007781 
4917.000000	65.059256 
4916.000000	65.098595 
4915.000000	65.123319 
4914.000000	65.133047 
4913.000000	65.130352 
4912.000000	65.119743 
4911.000000	65.107297 
4910.000000	65.099048 
4909.000000	65.100336 
4908.000000	65.115618 
4907.000000	65.145921 
4906.000000	65.189218 
4905.000000	65.239286 
4904.000000	65.287017 
4903.000000	65.321111 
4902.000000	65.330314 
4901.000000	65.305948 
4900.000000	65.244054 
4899.000000	65.147113 
4898.000000	65.023851 
4897.000000	64.888072 
4896.000000	64.755797 
4895.000000	64.641475 
4894.000000	64.555692 
4893.000000	64.502620 
4892.000000	64.480996 
4891.000000	64.485239 
4890.000000	64.508056 
4889.000000	64.542603 
4888.000000	64.583921 
4887.000000	64.629149 
4886.000000	64.676737 
4885.000000	64.724254 
4884.000000	64.768528 
4883.000000	64.804363 
4882.000000	64.826488 
4881.000000	64.830183 
4880.000000	64.814019 
4879.000000	64.780855 
4878.000000	64.737749 
4877.000000	64.694833 
4876.000000	64.661860 
4875.000000	64.646029 
4874.000000	64.649271 
4873.000000	64.668059 
4872.000000	64.694929 
4871.000000	64.721131 
4870.000000	64.739894 
4869.000000	64.748430 
4868.000000	64.748430 
4867.000000	64.745593 
4866.000000	64.747238 
4865.000000	64.760160 
4864.000000	64.786863 
4863.000000	64.825820 
4862.000000	64.871859 
4861.000000	64.917707 
4860.000000	64.956426 
4859.000000	64.982914 
4858.000000	64.996337 
4857.000000	64.998865 
4856.000000	64.994859 
4855.000000	64.988923 
4854.000000	64.983940 
4853.000000	64.980244 
4852.000000	64.975595 
4851.000000	64.966034 
4850.000000	64.947748 
4849.000000	64.918017 
4848.000000	64.876723 
4847.000000	64.825963 
4846.000000	64.770078 
4845.000000	64.714431 
4844.000000	64.665079 
4843.000000	64.627432 
4842.000000	64.606237 
4841.000000	64.605116 
4840.000000	64.626407 
4839.000000	64.670968 
4838.000000	64.737629 
4837.000000	64.822578 
4836.000000	64.919686 
4835.000000	65.020108 
4834.000000	65.114784 
4833.000000	65.195178 
4832.000000	65.255832 
4831.000000	65.295243 
4830.000000	65.316390 
4829.000000	65.326237 
4828.000000	65.333127 
4827.000000	65.344929 
4826.000000	65.366005 
4825.000000	65.396666 
4824.000000	65.432190 
4823.000000	65.464615 
4822.000000	65.484952 
4821.000000	65.485930 
4820.000000	65.464282 
4819.000000	65.422058 
4818.000000	65.366077 
4817.000000	65.306758 
4816.000000	65.255236 
4815.000000	65.221023 
4814.000000	65.210294 
4813.000000	65.224480 
4812.000000	65.261077 
4811.000000	65.313839 
4810.000000	65.374588 
4809.000000	65.434575 
4808.000000	65.486168 
4807.000000	65.523743 
4806.000000	65.544080 
4805.000000	65.546512 
4804.000000	65.532183 
4803.000000	65.503811 
4802.000000	65.465378 
4801.000000	65.420913 
4800.000000	65.374541 
4799.000000	65.329480 
4798.000000	65.288090 
4797.000000	65.251350 
4796.000000	65.219378 
4795.000000	65.191364 
4794.000000	65.166234 
4793.000000	65.142846 
4792.000000	65.120530 
4791.000000	65.098929 
4790.000000	65.078234 
4789.000000	65.058445 
4788.000000	65.040016 
4787.000000	65.023708 
4786.000000	65.011000 
4785.000000	65.003633 
4784.000000	65.003490 
4783.000000	65.012073 
4782.000000	65.030384 
4781.000000	65.058231 
4780.000000	65.094423 
4779.000000	65.136289 
4778.000000	65.180706 
4777.000000	65.224337 
4776.000000	65.264391 
4775.000000	65.298914 
4774.000000	65.327262 
4773.000000	65.350103 
4772.000000	65.368795 
4771.000000	65.384697 
4770.000000	65.398907 
4769.000000	65.412020 
4768.000000	65.423870 
4767.000000	65.433669 
4766.000000	65.440440 
4765.000000	65.442895 
4764.000000	65.439367 
4763.000000	65.427899 
4762.000000	65.406441 
4761.000000	65.373396 
4760.000000	65.327763 
4759.000000	65.270352 
4758.000000	65.203905 
4757.000000	65.134000 
4756.000000	65.067648 
4755.000000	65.013480 
4754.000000	64.979243 
4753.000000	64.971375 
4752.000000	64.993190 
4751.000000	65.044403 
4750.000000	65.120625 
4749.000000	65.214276 
4748.000000	65.315866 
4747.000000	65.415263 
4746.000000	65.503144 
4745.000000	65.571856 
4744.000000	65.616154 
4743.000000	65.633249 
4742.000000	65.622830 
4741.000000	65.586566 
4740.000000	65.527939 
4739.000000	65.452146 
4738.000000	65.365982 
4737.000000	65.277719 
4736.000000	65.196275 
4735.000000	65.130519 
4734.000000	65.087652 
4733.000000	65.072464 
4732.000000	65.085887 
4731.000000	65.124464 
4730.000000	65.180897 
4729.000000	65.244841 
4728.000000	65.305447 
4727.000000	65.352463 
4726.000000	65.379118 
4725.000000	65.382194 
4724.000000	65.363502 
4723.000000	65.328288 
4722.000000	65.284895 
4721.000000	65.242338 
4720.000000	65.209197 
4719.000000	65.191817 
4718.000000	65.193891 
4717.000000	65.216255 
4716.000000	65.256786 
4715.000000	65.311145 
4714.000000	65.373325 
4713.000000	65.436625 
4712.000000	65.494012 
4711.000000	65.538907 
4710.000000	65.565395 
4709.000000	65.569257 
4708.000000	65.548801 
4707.000000	65.505409 
4706.000000	65.443348 
4705.000000	65.369319 
4704.000000	65.292453 
4703.000000	65.221714 
4702.000000	65.164399 
4701.000000	65.124607 
4700.000000	65.103006 
4699.000000	65.096974 
4698.000000	65.101361 
4697.000000	65.110397 
4696.000000	65.118718 
4695.000000	65.123081 
4694.000000	65.122961 
4693.000000	65.119957 
4692.000000	65.116453 
4691.000000	65.115237 
4690.000000	65.118575 
4689.000000	65.127468 
4688.000000	65.141510 
4687.000000	65.159630 
4686.000000	65.180516 
4685.000000	65.203332 
4684.000000	65.227985 
4683.000000	65.254926 
4682.000000	65.284776 
4681.000000	65.317392 
4680.000000	65.351986 
4679.000000	65.387439 
4678.000000	65.422606 
4677.000000	65.456700 
4676.000000	65.489554 
4675.000000	65.522170 
4674.000000	65.556001 
4673.000000	65.593028 
4672.000000	65.633821 
4671.000000	65.677666 
4670.000000	65.720868 
4669.000000	65.758538 
4668.000000	65.783286 
4667.000000	65.787434 
4666.000000	65.764164 
4665.000000	65.709757 
4664.000000	65.625071 
4663.000000	65.516066 
4662.000000	65.393900 
4661.000000	65.273094 
4660.000000	65.169167 
4659.000000	65.095567 
4658.000000	65.060949 
4657.000000	65.067362 
4656.000000	65.109086 
4655.000000	65.173816 
4654.000000	65.244889 
4653.000000	65.305018 
4652.000000	65.339732 
4651.000000	65.340709 
4650.000000	65.306282 
4649.000000	65.242195 
4648.000000	65.159296 
4647.000000	65.071320 
4646.000000	64.990949 
4645.000000	64.927768 
4644.000000	64.887094 
4643.000000	64.869260 
4642.000000	64.870882 
4641.000000	64.886236 
4640.000000	64.909410 
4639.000000	64.935541 
4638.000000	64.961242 
4637.000000	64.985489 
4636.000000	65.008521 
4635.000000	65.031647 
4634.000000	65.055942 
4633.000000	65.082597 
4632.000000	65.112352 
4631.000000	65.145850 
4630.000000	65.183281 
4629.000000	65.224051 
4628.000000	65.266323 
4627.000000	65.307140 
4626.000000	65.342593 
4625.000000	65.368127 
4624.000000	65.379405 
4623.000000	65.373468 
4622.000000	65.349483 
4621.000000	65.309548 
4620.000000	65.258169 
4619.000000	65.201902 
4618.000000	65.147733 
4617.000000	65.102028 
4616.000000	65.069031 
4615.000000	65.050625 
4614.000000	65.045738 
4613.000000	65.050578 
4612.000000	65.059947 
4611.000000	65.068459 
4610.000000	65.071725 
4609.000000	65.067100 
4608.000000	65.053772 
4607.000000	65.032553 
4606.000000	65.005493 
4605.000000	64.975047 
4604.000000	64.943313 
4603.000000	64.911437 
4602.000000	64.880132 
4601.000000	64.849805 
4600.000000	64.820384 
4599.000000	64.791965 
4598.000000	64.765095 
4597.000000	64.741039 
4596.000000	64.720749 
4595.000000	64.705562 
4594.000000	64.696550 
4593.000000	64.694476 
4592.000000	64.699459 
4591.000000	64.710831 
4590.000000	64.727139 
4589.000000	64.746427 
4588.000000	64.766597 
4587.000000	64.785456 
4586.000000	64.800858 
4585.000000	64.811396 
4584.000000	64.817118 
4583.000000	64.818644 
4582.000000	64.816904 
4581.000000	64.812731 
4580.000000	64.806699 
4579.000000	64.798021 
4578.000000	64.784550 
4577.000000	64.763140 
4576.000000	64.730477 
4575.000000	64.684319 
4574.000000	64.624524 
4573.000000	64.553904 
4572.000000	64.477872 
4571.000000	64.403271 
4570.000000	64.336848 
4569.000000	64.283967 
4568.000000	64.247703 
4567.000000	64.227724 
4566.000000	64.221644 
4565.000000	64.224624 
4564.000000	64.232873 
4563.000000	64.243769 
4562.000000	64.258432 
4561.000000	64.279603 
4560.000000	64.312934 
4559.000000	64.364218 
4558.000000	64.438080 
4557.000000	64.535236 
4556.000000	64.652013 
4555.000000	64.780378 
4554.000000	64.908123 
4553.000000	65.021300 
4552.000000	65.106463 
4551.000000	65.153837 
4550.000000	65.158939 
4549.000000	65.124201 
4548.000000	65.059137 
4547.000000	64.978599 
4546.000000	64.900875 
4545.000000	64.843058 
4544.000000	64.818167 
4543.000000	64.830851 
4542.000000	64.878344 
4541.000000	64.948773 
4540.000000	65.024614 
4539.000000	65.085959 
4538.000000	65.115714 
4537.000000	65.102982 
4536.000000	65.045285 
4535.000000	64.948940 
4534.000000	64.827513 
4533.000000	64.697718 
4532.000000	64.575695 
4531.000000	64.472675 
4530.000000	64.393210 
4529.000000	64.334774 
4528.000000	64.290165 
4527.000000	64.249491 
4526.000000	64.203953 
4525.000000	64.148879 
4524.000000	64.085292 
4523.000000	64.018607 
4522.000000	63.957166 
4521.000000	63.910388 
4520.000000	63.886284 
4519.000000	63.889122 
4518.000000	63.919067 
4517.000000	63.972449 
4516.000000	64.043021 
4515.000000	64.123678 
4514.000000	64.207887 
4513.000000	64.289951 
4512.000000	64.366126 
4511.000000	64.433670 
4510.000000	64.491510 
4509.000000	64.539718 
4508.000000	64.578866 
4507.000000	64.610171 
4506.000000	64.633989 
4505.000000	64.650797 
4504.000000	64.659190 
4503.000000	64.657688 
4502.000000	64.642906 
4501.000000	64.610671 
4500.000000	64.557313 
4499.000000	64.481854 
4498.000000	64.386200 
4497.000000	64.276170 
4496.000000	64.161252 
4495.000000	64.053702 
4494.000000	63.966560 
4493.000000	63.911175 
4492.000000	63.894867 
4491.000000	63.918995 
4490.000000	63.978910 
4489.000000	64.064288 
4488.000000	64.161205 
4487.000000	64.254236 
4486.000000	64.328908 
4485.000000	64.374160 
4484.000000	64.383006 
4483.000000	64.354062 
4482.000000	64.290547 
4481.000000	64.200782 
4480.000000	64.095330 
4479.000000	63.987135 
4478.000000	63.889670 
4477.000000	63.815069 
4476.000000	63.773202 
4475.000000	63.769125 
4474.000000	63.802981 
4473.000000	63.868641 
4472.000000	63.954949 
4471.000000	64.047145 
4470.000000	64.129638 
4469.000000	64.188528 
4468.000000	64.214372 
4467.000000	64.203405 
4466.000000	64.158082 
4465.000000	64.086508 
4464.000000	64.000582 
4463.000000	63.913679 
4462.000000	63.837933 
4461.000000	63.782930 
4460.000000	63.753771 
4459.000000	63.750910 
4458.000000	63.770532 
4457.000000	63.805866 
4456.000000	63.849186 
4455.000000	63.893795 
4454.000000	63.935089 
4453.000000	63.970398 
4452.000000	63.999271 
4451.000000	64.021730 
4450.000000	64.038276 
4449.000000	64.049196 
4448.000000	64.053726 
4447.000000	64.050078 
4446.000000	64.036536 
4445.000000	64.012765 
4444.000000	63.979744 
4443.000000	63.940334 
4442.000000	63.898348 
4441.000000	63.857698 
4440.000000	63.821840 
4439.000000	63.793015 
4438.000000	63.770818 
4437.000000	63.753008 
4436.000000	63.737559 
4435.000000	63.722848 
4434.000000	63.708806 
4433.000000	63.695907 
4432.000000	63.683533 
4431.000000	63.670921 
4430.000000	63.654637 
4429.000000	63.632845 
4428.000000	63.605570 
4427.000000	63.576626 
4426.000000	63.553071 
4425.000000	63.544511 
4424.000000	63.561010 
4423.000000	63.609766 
4422.000000	63.692903 
4421.000000	63.805317 
4420.000000	63.933134 
4419.000000	64.061450 
4418.000000	64.180731 
4417.000000	64.273452 
4416.000000	64.314889 
4415.000000	64.292931 
4414.000000	64.209938 
4413.000000	64.069008 
4412.000000	63.877224 
4411.000000	63.648581 
4410.000000	63.402175 
4409.000000	63.169264 
4408.000000	62.982177 
4407.000000	62.859177 
4406.000000	62.804841 
4405.000000	62.813115 
4404.000000	62.866067 
4403.000000	62.945175 
4402.000000	63.026022 
4401.000000	63.085818 
4400.000000	63.102412 
4399.000000	63.036203 
4398.000000	62.871956 
4397.000000	62.618660 
4396.000000	62.330818 
4395.000000	62.095189 
4394.000000	62.028622 
4393.000000	62.238478 
4392.000000	62.842512 
4391.000000	63.923001 
4390.000000	65.612363 
4389.000000	68.042898 
4388.000000	71.324563 
4387.000000	75.456309 
4386.000000	80.171799 
4385.000000	84.954428 
4384.000000	89.038825 
4383.000000	91.631293 
4382.000000	92.189478 
4381.000000	90.552401 
4380.000000	87.138438 
4379.000000	82.719969 
4378.000000	78.204202 
4377.000000	74.374198 
4376.000000	71.606326 
4375.000000	69.904470 
4374.000000	68.997144 
4373.000000	68.462014 
4372.000000	68.030023 
4371.000000	67.534899 
4370.000000	66.978454 
4369.000000	66.447639 
4368.000000	65.968585 
4367.000000	65.572476 
4366.000000	65.224075 
4365.000000	64.898490 
4364.000000	64.592647 
4363.000000	64.319562 
4362.000000	64.111876 
4361.000000	63.983368 
4360.000000	63.923859 
4359.000000	63.916563 
4358.000000	63.940382 
4357.000000	63.979172 
4356.000000	64.023590 
4355.000000	64.070653 
4354.000000	64.123010 
4353.000000	64.169645 
4352.000000	64.199185 
4351.000000	64.213156 
4350.000000	64.218020 
4349.000000	64.224839 
4348.000000	64.243388 
4347.000000	64.267301 
4346.000000	64.287924 
4345.000000	64.307856 
4344.000000	64.328646 
4343.000000	64.345765 
4342.000000	64.357113 
4341.000000	64.366078 
4340.000000	64.375948 
4339.000000	64.388489 
4338.000000	64.404249 
4337.000000	64.422321 
4336.000000	64.439558 
4335.000000	64.451670 
4334.000000	64.457058 
4333.000000	64.457678 
4332.000000	64.457917 
4331.000000	64.463520 
4330.000000	64.480495 
4329.000000	64.512944 
4328.000000	64.560580 
4327.000000	64.618682 
4326.000000	64.678883 
4325.000000	64.731383 
4324.000000	64.767837 
4323.000000	64.783501 
4322.000000	64.778733 
4321.000000	64.758610 
4320.000000	64.732193 
4319.000000	64.709210 
4318.000000	64.697670 
4317.000000	64.700818 
4316.000000	64.716911 
4315.000000	64.739108 
4314.000000	64.758205 
4313.000000	64.764523 
4312.000000	64.751052 
4311.000000	64.715218 
4310.000000	64.659810 
4309.000000	64.591956 
4308.000000	64.521431 
4307.000000	64.458799 
4306.000000	64.412713 
4305.000000	64.389157 
4304.000000	64.390087 
4303.000000	64.414072 
4302.000000	64.456343 
4301.000000	64.509916 
4300.000000	64.566469 
4299.000000	64.617180 
4298.000000	64.654374 
4297.000000	64.672160 
4296.000000	64.667749 
4295.000000	64.641261 
4294.000000	64.596056 
4293.000000	64.537739 
4292.000000	64.473724 
4291.000000	64.411377 
4290.000000	64.357614 
4289.000000	64.317989 
4288.000000	64.296126 
4287.000000	64.293241 
4286.000000	64.308667 
4285.000000	64.339828 
4284.000000	64.383196 
4283.000000	64.434528 
4282.000000	64.489817 
4281.000000	64.545679 
4280.000000	64.599680 
4279.000000	64.650154 
4278.000000	64.696264 
4277.000000	64.737582 
4276.000000	64.774012 
4275.000000	64.805316 
4274.000000	64.830684 
4273.000000	64.849090 
4272.000000	64.859485 
4271.000000	64.861536 
4270.000000	64.856576 
4269.000000	64.846968 
4268.000000	64.836597 
4267.000000	64.828634 
4266.000000	64.825606 
4265.000000	64.827203 
4264.000000	64.830708 
4263.000000	64.831304 
4262.000000	64.823579 
4261.000000	64.803171 
4260.000000	64.768505 
4259.000000	64.721083 
4258.000000	64.665508 
4257.000000	64.608645 
4256.000000	64.558243 
4255.000000	64.521002 
4254.000000	64.501023 
4253.000000	64.499378 
4252.000000	64.513731 
4251.000000	64.539313 
4250.000000	64.569640 
4249.000000	64.597892 
4248.000000	64.618086 
4247.000000	64.625930 
4246.000000	64.619517 
4245.000000	64.598703 
4244.000000	64.565443 
4243.000000	64.523863 
4242.000000	64.478898 
4241.000000	64.435982 
4240.000000	64.399075 
4239.000000	64.370465 
4238.000000	64.349913 
4237.000000	64.335036 
4236.000000	64.322757 
4235.000000	64.309954 
4234.000000	64.295816 
4233.000000	64.281916 
4232.000000	64.272856 
4231.000000	64.274525 
4230.000000	64.292860 
4229.000000	64.331674 
4228.000000	64.391875 
4227.000000	64.470529 
4226.000000	64.561486 
4225.000000	64.656090 
4224.000000	64.744877 
4223.000000	64.818978 
4222.000000	64.872050 
4221.000000	64.900732 
4220.000000	64.904451 
4219.000000	64.885091 
4218.000000	64.846324 
4217.000000	64.793014 
4216.000000	64.730501 
4215.000000	64.664387 
4214.000000	64.600920 
4213.000000	64.546322 
4212.000000	64.506506 
4211.000000	64.486241 
4210.000000	64.488720 
4209.000000	64.514493 
4208.000000	64.561343 
4207.000000	64.623737 
4206.000000	64.693689 
4205.000000	64.760994 
4204.000000	64.814591 
4203.000000	64.844894 
4202.000000	64.845204 
4201.000000	64.814114 
4200.000000	64.755797 
4199.000000	64.679312 
4198.000000	64.596915 
4197.000000	64.521646 
4196.000000	64.464783 
4195.000000	64.432978 
4194.000000	64.428043 
4193.000000	64.447903 
4192.000000	64.488148 
4191.000000	64.543414 
4190.000000	64.609146 
4189.000000	64.682006 
4188.000000	64.759778 
4187.000000	64.840364 
4186.000000	64.920687 
4185.000000	64.994859 
4184.000000	65.056109 
4183.000000	65.097308 
4182.000000	65.113925 
4181.000000	65.105676 
4180.000000	65.077424 
4179.000000	65.039706 
4178.000000	65.004754 
4177.000000	64.984273 
4176.000000	64.985108 
4175.000000	65.007638 
4174.000000	65.044832 
4173.000000	65.084171 
4172.000000	65.110826 
4171.000000	65.111756 
4170.000000	65.078592 
4169.000000	65.010309 
4168.000000	64.912629 
4167.000000	64.797949 
4166.000000	64.681601 
4165.000000	64.580059 
4164.000000	64.506816 
4163.000000	64.471340 
4162.000000	64.477658 
4161.000000	64.524340 
4160.000000	64.605426 
4159.000000	64.711308 
4158.000000	64.830827 
4157.000000	64.952325 
4156.000000	65.063834 
4155.000000	65.156078 
4154.000000	65.222430 
4153.000000	65.260648 
4152.000000	65.272188 
4151.000000	65.262913 
4150.000000	65.241813 
4149.000000	65.219283 
4148.000000	65.205311 
4147.000000	65.207481 
4146.000000	65.229725 
4145.000000	65.271472 
4144.000000	65.327906 
4143.000000	65.390729 
4142.000000	65.449881 
4141.000000	65.495562 
4140.000000	65.520048 
4139.000000	65.519213 
4138.000000	65.493130 
4137.000000	65.445637 
4136.000000	65.383410 
4135.000000	65.313935 
4134.000000	65.244483 
4133.000000	65.181326 
4132.000000	65.128803 
4131.000000	65.089702 
4130.000000	65.064787 
4129.000000	65.054225 
4128.000000	65.056681 
4127.000000	65.070104 
4126.000000	65.090990 
4125.000000	65.114545 
4124.000000	65.135407 
4123.000000	65.148258 
4122.000000	65.148758 
4121.000000	65.134048 
4120.000000	65.103507 
4119.000000	65.058922 
4118.000000	65.004134 
4117.000000	64.944338 
4116.000000	64.884996 
4115.000000	64.830899 
4114.000000	64.785623 
4113.000000	64.751029 
4112.000000	64.727783 
4111.000000	64.715600 
4110.000000	64.713215 
4109.000000	64.719223 
4108.000000	64.731788 
4107.000000	64.749455 
4106.000000	64.770126 
4105.000000	64.792513 
4104.000000	64.815378 
4103.000000	64.838385 
4102.000000	64.861965 
4101.000000	64.886999 
4100.000000	64.913964 
4099.000000	64.943313 
4098.000000	64.974617 
4097.000000	65.007185 
4096.000000	65.039777 
4095.000000	65.071368 
4094.000000	65.101408 
4093.000000	65.129518 
4092.000000	65.155625 
4091.000000	65.179347 
4090.000000	65.199875 
4089.000000	65.215563 
4088.000000	65.224146 
4087.000000	65.223479 
4086.000000	65.211987 
4085.000000	65.189671 
4084.000000	65.158104 
4083.000000	65.121126 
4082.000000	65.083575 
4081.000000	65.049982 
4080.000000	65.023446 
4079.000000	65.004968 
4078.000000	64.993381 
4077.000000	64.985752 
4076.000000	64.978766 
4075.000000	64.969539 
4074.000000	64.957022 
4073.000000	64.942145 
4072.000000	64.927744 
4071.000000	64.917421 
4070.000000	64.914894 
4069.000000	64.922809 
4068.000000	64.941978 
4067.000000	64.970779 
4066.000000	65.005469 
4065.000000	65.041017 
4064.000000	65.071725 
4063.000000	65.092730 
4062.000000	65.100932 
4061.000000	65.096044 
4060.000000	65.080165 
4059.000000	65.057826 
4058.000000	65.035176 
4057.000000	65.018796 
4056.000000	65.014576 
4055.000000	65.026211 
4054.000000	65.054726 
4053.000000	65.097689 
4052.000000	65.150475 
4051.000000	65.206432 
4050.000000	65.258860 
4049.000000	65.301918 
4048.000000	65.332055 
4047.000000	65.348172 
4046.000000	65.351510 
4045.000000	65.345072 
4044.000000	65.332674 
4043.000000	65.318346 
4042.000000	65.305304 
4041.000000	65.295600 
4040.000000	65.290141 
4039.000000	65.288281 
4038.000000	65.288376 
4037.000000	65.287971 
4036.000000	65.284538 
4035.000000	65.276026 
4034.000000	65.261530 
4033.000000	65.241122 
4032.000000	65.216398 
4031.000000	65.190100 
4030.000000	65.165877 
4029.000000	65.147209 
4028.000000	65.137147 
4027.000000	65.137338 
4026.000000	65.148353 
4025.000000	65.168929 
4024.000000	65.196871 
4023.000000	65.229415 
4022.000000	65.263819 
4021.000000	65.297603 
4020.000000	65.329027 
4019.000000	65.357160 
4018.000000	65.381550 
4017.000000	65.401697 
4016.000000	65.417242 
4015.000000	65.427684 
4014.000000	65.432643 
4013.000000	65.432024 
4012.000000	65.426111 
4011.000000	65.415620 
4010.000000	65.401887 
4009.000000	65.386795 
4008.000000	65.372300 
4007.000000	65.359902 
4006.000000	65.350699 
4005.000000	65.345048 
4004.000000	65.342688 
4003.000000	65.342569 
4002.000000	65.343451 
4001.000000	65.343952 
4000.000000	65.342760 
3999.000000	65.338993 
3998.000000	65.331959 
3997.000000	65.321588 
3996.000000	65.308141 
3995.000000	65.292644 
3994.000000	65.276026 
3993.000000	65.259957 
3992.000000	65.246295 
3991.000000	65.237021 
3990.000000	65.233707 
3989.000000	65.237474 
3988.000000	65.248775 
3987.000000	65.267276 
3986.000000	65.291571 
3985.000000	65.319800 
3984.000000	65.349888 
3983.000000	65.379714 
3982.000000	65.407276 
3981.000000	65.430998 
3980.000000	65.449666 
3979.000000	65.462422 
3978.000000	65.468835 
3977.000000	65.469217 
3976.000000	65.464115 
3975.000000	65.454816 
3974.000000	65.442633 
3973.000000	65.429067 
3972.000000	65.415024 
3971.000000	65.401053 
3970.000000	65.386986 
3969.000000	65.372467 
3968.000000	65.356922 
3967.000000	65.340018 
3966.000000	65.322136 
3965.000000	65.304183 
3964.000000	65.287804 
3963.000000	65.274930 
3962.000000	65.266990 
3961.000000	65.264415 
3960.000000	65.266442 
3959.000000	65.271162 
3958.000000	65.275907 
3957.000000	65.277814 
3956.000000	65.274667 
3955.000000	65.265130 
3954.000000	65.248966 
3953.000000	65.226864 
3952.000000	65.200042 
3951.000000	65.169978 
3950.000000	65.138339 
3949.000000	65.106606 
3948.000000	65.076160 
3947.000000	65.048122 
3946.000000	65.023541 
3945.000000	65.003252 
3944.000000	64.987516 
3943.000000	64.976334 
3942.000000	64.969038 
3941.000000	64.965176 
3940.000000	64.964151 
3939.000000	64.966011 
3938.000000	64.971160 
3937.000000	64.980816 
3936.000000	64.996361 
3935.000000	65.019011 
3934.000000	65.049028 
3933.000000	65.085577 
3932.000000	65.126419 
3931.000000	65.167999 
3930.000000	65.206241 
3929.000000	65.237331 
3928.000000	65.258550 
3927.000000	65.268945 
3926.000000	65.269088 
3925.000000	65.261054 
3924.000000	65.247344 
3923.000000	65.229892 
3922.000000	65.209722 
3921.000000	65.186953 
3920.000000	65.161132 
3919.000000	65.131855 
3918.000000	65.099596 
3917.000000	65.066576 
3916.000000	65.036463 
3915.000000	65.013909 
3914.000000	65.003299 
3913.000000	65.007185 
3912.000000	65.025591 
3911.000000	65.055489 
3910.000000	65.091443 
3909.000000	65.126633 
3908.000000	65.154767 
3907.000000	65.171551 
3906.000000	65.175771 
3905.000000	65.169095 
3904.000000	65.155005 
3903.000000	65.137434 
3902.000000	65.119338 
3901.000000	65.102100 
3900.000000	65.085649 
3899.000000	65.069389 
3898.000000	65.053391 
3897.000000	65.039372 
3896.000000	65.030932 
3895.000000	65.032815 
3894.000000	65.049529 
3893.000000	65.083265 
3892.000000	65.132927 
3891.000000	65.192914 
3890.000000	65.254116 
3889.000000	65.305399 
3888.000000	65.336298 
3887.000000	65.339326 
3886.000000	65.312099 
3885.000000	65.258002 
3884.000000	65.185141 
3883.000000	65.105056 
3882.000000	65.029859 
3881.000000	64.969825 
3880.000000	64.931726 
3879.000000	64.917874 
3878.000000	64.926695 
3877.000000	64.953589 
3876.000000	64.992642 
3875.000000	65.037918 
3874.000000	65.084671 
3873.000000	65.129756 
3872.000000	65.171623 
3871.000000	65.209484 
3870.000000	65.242719 
3869.000000	65.270280 
3868.000000	65.290284 
3867.000000	65.300822 
3866.000000	65.299773 
3865.000000	65.285706 
3864.000000	65.258264 
3863.000000	65.218877 
3862.000000	65.170288 
3861.000000	65.116643 
3860.000000	65.062618 
3859.000000	65.012598 
3858.000000	64.970731 
3857.000000	64.940476 
3856.000000	64.924097 
3855.000000	64.922451 
3854.000000	64.934873 
3853.000000	64.959502 
3852.000000	64.993405 
3851.000000	65.033078 
3850.000000	65.074563 
3849.000000	65.113854 
3848.000000	65.147519 
3847.000000	65.173053 
3846.000000	65.188837 
3845.000000	65.194177 
3844.000000	65.189456 
3843.000000	65.176177 
3842.000000	65.157103 
3841.000000	65.136027 
3840.000000	65.117669 
3839.000000	65.106201 
3838.000000	65.105366 
3837.000000	65.116333 
3836.000000	65.138173 
3835.000000	65.166354 
3834.000000	65.194034 
3833.000000	65.212750 
3832.000000	65.214252 
3831.000000	65.192937 
3830.000000	65.146946 
3829.000000	65.079736 
3828.000000	64.999294 
3827.000000	64.917254 
3826.000000	64.846110 
3825.000000	64.796924 
3824.000000	64.776778 
3823.000000	64.787459 
3822.000000	64.825272 
3821.000000	64.882135 
3820.000000	64.947462 
3819.000000	65.010762 
3818.000000	65.063738 
3817.000000	65.101504 
3816.000000	65.123057 
3815.000000	65.130329 
3814.000000	65.127396 
3813.000000	65.118503 
3812.000000	65.107107 
3811.000000	65.095376 
3810.000000	65.083503 
3809.000000	65.071511 
3808.000000	65.058422 
3807.000000	65.043950 
3806.000000	65.028071 
3805.000000	65.011644 
3804.000000	64.995789 
3803.000000	64.981412 
3802.000000	64.968967 
3801.000000	64.958167 
3800.000000	64.948511 
3799.000000	64.939188 
3798.000000	64.929890 
3797.000000	64.920926 
3796.000000	64.912819 
3795.000000	64.906454 
3794.000000	64.902925 
3793.000000	64.903306 
3792.000000	64.908409 
3791.000000	64.918661 
3790.000000	64.934039 
3789.000000	64.954090 
3788.000000	64.977765 
3787.000000	65.003490 
3786.000000	65.028977 
3785.000000	65.051698 
3784.000000	65.069317 
3783.000000	65.080547 
3782.000000	65.085148 
3781.000000	65.084290 
3780.000000	65.080451 
3779.000000	65.076518 
3778.000000	65.075540 
3777.000000	65.079259 
3776.000000	65.087771 
3775.000000	65.099573 
3774.000000	65.111827 
3773.000000	65.121722 
3772.000000	65.127491 
3771.000000	65.129351 
3770.000000	65.129661 
3769.000000	65.132236 
3768.000000	65.141224 
3767.000000	65.159630 
3766.000000	65.188264 
3765.000000	65.225243 
3764.000000	65.266370 
3763.000000	65.306282 
3762.000000	65.339660 
3761.000000	65.362691 
3760.000000	65.373706 
3759.000000	65.373635 
3758.000000	65.365386 
3757.000000	65.352797 
3756.000000	65.339589 
3755.000000	65.328526 
3754.000000	65.320587 
3753.000000	65.315461 
3752.000000	65.311551 
3751.000000	65.307307 
3750.000000	65.301060 
3749.000000	65.292263 
3748.000000	65.280628 
3747.000000	65.266489 
3746.000000	65.250444 
3745.000000	65.233016 
3744.000000	65.214681 
3743.000000	65.195822 
3742.000000	65.177130 
3741.000000	65.159678 
3740.000000	65.144705 
3739.000000	65.133643 
3738.000000	65.127682 
3737.000000	65.127706 
3736.000000	65.133380 
3735.000000	65.143609 
3734.000000	65.156340 
3733.000000	65.169739 
3732.000000	65.181851 
3731.000000	65.191769 
3730.000000	65.199995 
3729.000000	65.208101 
3728.000000	65.218305 
3727.000000	65.232419 
3726.000000	65.251374 
3725.000000	65.274477 
3724.000000	65.299582 
3723.000000	65.323305 
3722.000000	65.341877 
3721.000000	65.352416 
3720.000000	65.353631 
3719.000000	65.346431 
3718.000000	65.333485 
3717.000000	65.318655 
3716.000000	65.305948 
3715.000000	65.298104 
3714.000000	65.295934 
3713.000000	65.298151 
3712.000000	65.301728 
3711.000000	65.302896 
3710.000000	65.298032 
3709.000000	65.285062 
3708.000000	65.263891 
3707.000000	65.236163 
3706.000000	65.204739 
3705.000000	65.172982 
3704.000000	65.143728 
3703.000000	65.118408 
3702.000000	65.097665 
3701.000000	65.080881 
3700.000000	65.067386 
3699.000000	65.056872 
3698.000000	65.049982 
3697.000000	65.048050 
3696.000000	65.052771 
3695.000000	65.065360 
3694.000000	65.085697 
3693.000000	65.111899 
3692.000000	65.140581 
3691.000000	65.167236 
3690.000000	65.187430 
3689.000000	65.197730 
3688.000000	65.196752 
3687.000000	65.185570 
3686.000000	65.167498 
3685.000000	65.147328 
3684.000000	65.130281 
3683.000000	65.120935 
3682.000000	65.122199 
3681.000000	65.134954 
3680.000000	65.158009 
3679.000000	65.188646 
3678.000000	65.223360 
3677.000000	65.258669 
3676.000000	65.291738 
3675.000000	65.320777 
3674.000000	65.345191 
3673.000000	65.365505 
3672.000000	65.382909 
3671.000000	65.398716 
3670.000000	65.414404 
3669.000000	65.430545 
3668.000000	65.447211 
3667.000000	65.463328 
3666.000000	65.477442 
3665.000000	65.487480 
3664.000000	65.491604 
3663.000000	65.488266 
3662.000000	65.476894 
3661.000000	65.457749 
3660.000000	65.432024 
3659.000000	65.401625 
3658.000000	65.368843 
3657.000000	65.336012 
3656.000000	65.305233 
3655.000000	65.278124 
3654.000000	65.256118 
3653.000000	65.240263 
3652.000000	65.231490 
3651.000000	65.230512 
3650.000000	65.237522 
3649.000000	65.252184 
3648.000000	65.273308 
3647.000000	65.298533 
3646.000000	65.324711 
3645.000000	65.348410 
3644.000000	65.366268 
3643.000000	65.375661 
3642.000000	65.375089 
3641.000000	65.364980 
3640.000000	65.347290 
3639.000000	65.324950 
3638.000000	65.301752 
3637.000000	65.281677 
3636.000000	65.268325 
3635.000000	65.264105 
3634.000000	65.270495 
3633.000000	65.287613 
3632.000000	65.314388 
3631.000000	65.348649 
3630.000000	65.387010 
3629.000000	65.425372 
3628.000000	65.459108 
3627.000000	65.484046 
3626.000000	65.496587 
3625.000000	65.494847 
3624.000000	65.479183 
3623.000000	65.451955 
3622.000000	65.417695 
3621.000000	65.381526 
3620.000000	65.348792 
3619.000000	65.323328 
3618.000000	65.307021 
3617.000000	65.298724 
3616.000000	65.295124 
3615.000000	65.291309 
3614.000000	65.282320 
3613.000000	65.264487 
3612.000000	65.236258 
3611.000000	65.198898 
3610.000000	65.156102 
3609.000000	65.113234 
3608.000000	65.075969 
3607.000000	65.049099 
3606.000000	65.035223 
3605.000000	65.034794 
3604.000000	65.045976 
3603.000000	65.065073 
3602.000000	65.087580 
3601.000000	65.109300 
3600.000000	65.127277 
3599.000000	65.139961 
3598.000000	65.147566 
3597.000000	65.151405 
3596.000000	65.153527 
3595.000000	65.155839 
3594.000000	65.159583 
3593.000000	65.165138 
3592.000000	65.171551 
3591.000000	65.177392 
3590.000000	65.180897 
3589.000000	65.180921 
3588.000000	65.177154 
3587.000000	65.170359 
3586.000000	65.162515 
3585.000000	65.156126 
3584.000000	65.154027 
3583.000000	65.158414 
3582.000000	65.170621 
3581.000000	65.190601 
3580.000000	65.217375 
3579.000000	65.249228 
3578.000000	65.284323 
3577.000000	65.321254 
3576.000000	65.359401 
3575.000000	65.398597 
3574.000000	65.439271 
3573.000000	65.481305 
3572.000000	65.523743 
3571.000000	65.564131 
3570.000000	65.598869 
3569.000000	65.623545 
3568.000000	65.634298 
3567.000000	65.628409 
3566.000000	65.605854 
3565.000000	65.569067 
3564.000000	65.523099 
3563.000000	65.474247 
3562.000000	65.429282 
3561.000000	65.393352 
3560.000000	65.369486 
3559.000000	65.357637 
3558.000000	65.355420 
3557.000000	65.358495 
3556.000000	65.362048 
3555.000000	65.362000 
3554.000000	65.355777 
3553.000000	65.342783 
3552.000000	65.324258 
3551.000000	65.302348 
3550.000000	65.279531 
3549.000000	65.257787 
3548.000000	65.238380 
3547.000000	65.221548 
3546.000000	65.206837 
3545.000000	65.194177 
3544.000000	65.183949 
3543.000000	65.176773 
3542.000000	65.173554 
3541.000000	65.174865 
3540.000000	65.180897 
3539.000000	65.190315 
3538.000000	65.201330 
3537.000000	65.211939 
3536.000000	65.220808 
3535.000000	65.227627 
3534.000000	65.233492 
3533.000000	65.240406 
3532.000000	65.250825 
3531.000000	65.266537 
3530.000000	65.288209 
3529.000000	65.314722 
3528.000000	65.343689 
3527.000000	65.371847 
3526.000000	65.396189 
3525.000000	65.414595 
3524.000000	65.426492 
3523.000000	65.432596 
3522.000000	65.434312 
3521.000000	65.432786 
3520.000000	65.428400 
3519.000000	65.420174 
3518.000000	65.406060 
3517.000000	65.383625 
3516.000000	65.351557 
3515.000000	65.310215 
3514.000000	65.262198 
3513.000000	65.212011 
3512.000000	65.165591 
3511.000000	65.128946 
3510.000000	65.106701 
3509.000000	65.101051 
3508.000000	65.111160 
3507.000000	65.133142 
3506.000000	65.161085 
3505.000000	65.188193 
3504.000000	65.208148 
3503.000000	65.216517 
3502.000000	65.211653 
3501.000000	65.194344 
3500.000000	65.167355 
3499.000000	65.134763 
3498.000000	65.100908 
3497.000000	65.069317 
3496.000000	65.042161 
3495.000000	65.020418 
3494.000000	65.004181 
3493.000000	64.993286 
3492.000000	64.987921 
3491.000000	64.988827 
3490.000000	64.997482 
3489.000000	65.015435 
3488.000000	65.043854 
3487.000000	65.082001 
3486.000000	65.127635 
3485.000000	65.176582 
3484.000000	65.224123 
3483.000000	65.265774 
3482.000000	65.298461 
3481.000000	65.321636 
3480.000000	65.336656 
3479.000000	65.346550 
3478.000000	65.354394 
3477.000000	65.362763 
3476.000000	65.371847 
3475.000000	65.379858 
3474.000000	65.383148 
3473.000000	65.377593 
3472.000000	65.359807 
3471.000000	65.328884 
3470.000000	65.286922 
3469.000000	65.239000 
3468.000000	65.192484 
3467.000000	65.155458 
3466.000000	65.134954 
3465.000000	65.135574 
3464.000000	65.158534 
3463.000000	65.201592 
3462.000000	65.259408 
3461.000000	65.324687 
3460.000000	65.389537 
3459.000000	65.446734 
3458.000000	65.490293 
3457.000000	65.516781 
3456.000000	65.525150 
3455.000000	65.516924 
3454.000000	65.495324 
3453.000000	65.464901 
3452.000000	65.430855 
3451.000000	65.397930 
3450.000000	65.370082 
3449.000000	65.349411 
3448.000000	65.336418 
3447.000000	65.329885 
3446.000000	65.327572 
3445.000000	65.326690 
3444.000000	65.324616 
3443.000000	65.319728 
3442.000000	65.311598 
3441.000000	65.300941 
3440.000000	65.289258 
3439.000000	65.278124 
3438.000000	65.268611 
3437.000000	65.260648 
3436.000000	65.253353 
3435.000000	65.244984 
3434.000000	65.233826 
3433.000000	65.218901 
3432.000000	65.200495 
3431.000000	65.179991 
3430.000000	65.159606 
3429.000000	65.141701 
3428.000000	65.128326 
3427.000000	65.119886 
3426.000000	65.115880 
3425.000000	65.114998 
3424.000000	65.116000 
3423.000000	65.118288 
3422.000000	65.122437 
3421.000000	65.129709 
3420.000000	65.142154 
3419.000000	65.161824 
3418.000000	65.189528 
3417.000000	65.224218 
3416.000000	65.263080 
3415.000000	65.301871 
3414.000000	65.335583 
3413.000000	65.359258 
3412.000000	65.369319 
3411.000000	65.363955 
3410.000000	65.343356 
3409.000000	65.309023 
3408.000000	65.263843 
3407.000000	65.211200 
3406.000000	65.154671 
3405.000000	65.097641 
3404.000000	65.043091 
3403.000000	64.993596 
3402.000000	64.951276 
3401.000000	64.918041 
3400.000000	64.894771 
3399.000000	64.882612 
3398.000000	64.882111 
3397.000000	64.894056 
3396.000000	64.918351 
3395.000000	64.954948 
3394.000000	65.002989 
3393.000000	65.060997 
3392.000000	65.126466 
3391.000000	65.196347 
3390.000000	65.267038 
3389.000000	65.334916 
3388.000000	65.396666 
3387.000000	65.449666 
3386.000000	65.492272 
3385.000000	65.524125 
3384.000000	65.545606 
3383.000000	65.557813 
3382.000000	65.561604 
3381.000000	65.557980 
3380.000000	65.546917 
3379.000000	65.528512 
3378.000000	65.501976 
3377.000000	65.467309 
3376.000000	65.424442 
3375.000000	65.374255 
3374.000000	65.318155 
3373.000000	65.258431 
3372.000000	65.198087 
3371.000000	65.140295 
3370.000000	65.088391 
3369.000000	65.045237 
3368.000000	65.013098 
3367.000000	64.993238 
3366.000000	64.985823 
3365.000000	64.989900 
3364.000000	65.003776 
3363.000000	65.025424 
3362.000000	65.052509 
3361.000000	65.082740 
3360.000000	65.114521 
3359.000000	65.147042 
3358.000000	65.179681 
3357.000000	65.211725 
3356.000000	65.242528 
3355.000000	65.271043 
3354.000000	65.295767 
3353.000000	65.314579 
3352.000000	65.325689 
3351.000000	65.327453 
3350.000000	65.319609 
3349.000000	65.302419 
3348.000000	65.277409 
3347.000000	65.246558 
3346.000000	65.212655 
3345.000000	65.178585 
3344.000000	65.146851 
3343.000000	65.119743 
3342.000000	65.099239 
3341.000000	65.086793 
3340.000000	65.083122 
3339.000000	65.088248 
3338.000000	65.101599 
3337.000000	65.121555 
3336.000000	65.145564 
3335.000000	65.170240 
3334.000000	65.192008 
3333.000000	65.207314 
3332.000000	65.213298 
3331.000000	65.208292 
3330.000000	65.192174 
3329.000000	65.166497 
3328.000000	65.134215 
3327.000000	65.099120 
3326.000000	65.065264 
3325.000000	65.036511 
3324.000000	65.015888 
3323.000000	65.005016 
3322.000000	65.004372 
3321.000000	65.013217 
3320.000000	65.030121 
3319.000000	65.052866 
3318.000000	65.079474 
3317.000000	65.108156 
3316.000000	65.137910 
3315.000000	65.168166 
3314.000000	65.198516 
3313.000000	65.228414 
3312.000000	65.257167 
3311.000000	65.283989 
3310.000000	65.307760 
3309.000000	65.326976 
3308.000000	65.340638 
3307.000000	65.348267 
3306.000000	65.350031 
3305.000000	65.346622 
3304.000000	65.339255 
3303.000000	65.329217 
3302.000000	65.317749 
3301.000000	65.305590 
3300.000000	65.293002 
3299.000000	65.279626 
3298.000000	65.264940 
3297.000000	65.248203 
3296.000000	65.228891 
3295.000000	65.206933 
3294.000000	65.182471 
3293.000000	65.156412 
3292.000000	65.129852 
3291.000000	65.104937 
3290.000000	65.084075 
3289.000000	65.070343 
3288.000000	65.066504 
3287.000000	65.075159 
3286.000000	65.097928 
3285.000000	65.135073 
3284.000000	65.184807 
3283.000000	65.243649 
3282.000000	65.306472 
3281.000000	65.367221 
3280.000000	65.419840 
3279.000000	65.459394 
3278.000000	65.482711 
3277.000000	65.489101 
3276.000000	65.479922 
3275.000000	65.458488 
3274.000000	65.429115 
3273.000000	65.396308 
3272.000000	65.363764 
3271.000000	65.334177 
3270.000000	65.308499 
3269.000000	65.287041 
3268.000000	65.268993 
3267.000000	65.253448 
3266.000000	65.239357 
3265.000000	65.226125 
3264.000000	65.213561 
3263.000000	65.201473 
3262.000000	65.190124 
3261.000000	65.179491 
3260.000000	65.169882 
3259.000000	65.161585 
3258.000000	65.155100 
3257.000000	65.151023 
3256.000000	65.150022 
3255.000000	65.152502 
3254.000000	65.158343 
3253.000000	65.166687 
3252.000000	65.176177 
3251.000000	65.185070 
3250.000000	65.191364 
3249.000000	65.193319 
3248.000000	65.189814 
3247.000000	65.180826 
3246.000000	65.167236 
3245.000000	65.150666 
3244.000000	65.133380 
3243.000000	65.117788 
3242.000000	65.106034 
3241.000000	65.099692 
3240.000000	65.099287 
3239.000000	65.104651 
3238.000000	65.114760 
3237.000000	65.128231 
3236.000000	65.143489 
3235.000000	65.159153 
3234.000000	65.174221 
3233.000000	65.187931 
3232.000000	65.199828 
3231.000000	65.209507 
3230.000000	65.216636 
3229.000000	65.220808 
3228.000000	65.221452 
3227.000000	65.218114 
3226.000000	65.210628 
3225.000000	65.199232 
3224.000000	65.184712 
3223.000000	65.168523 
3222.000000	65.152454 
3221.000000	65.138626 
3220.000000	65.128850 
3219.000000	65.124440 
3218.000000	65.125894 
3217.000000	65.132808 
3216.000000	65.143728 
3215.000000	65.156459 
3214.000000	65.168452 
3213.000000	65.177011 
3212.000000	65.180230 
3211.000000	65.176677 
3210.000000	65.166616 
3209.000000	65.151762 
3208.000000	65.135145 
3207.000000	65.120244 
3206.000000	65.110421 
3205.000000	65.108346 
3204.000000	65.114998 
3203.000000	65.129566 
3202.000000	65.149831 
3201.000000	65.172863 
3200.000000	65.195655 
3199.000000	65.216088 
3198.000000	65.233230 
3197.000000	65.247464 
3196.000000	65.260171 
3195.000000	65.273022 
3194.000000	65.287351 
3193.000000	65.303516 
3192.000000	65.320944 
3191.000000	65.337848 
3190.000000	65.352129 
3189.000000	65.361404 
3188.000000	65.364217 
3187.000000	65.359306 
3186.000000	65.346360 
3185.000000	65.325236 
3184.000000	65.296220 
3183.000000	65.259718 
3182.000000	65.216255 
3181.000000	65.166831 
3180.000000	65.113210 
3179.000000	65.058135 
3178.000000	65.005087 
3177.000000	64.958214 
3176.000000	64.921641 
3175.000000	64.898705 
3174.000000	64.891195 
3173.000000	64.898967 
3172.000000	64.919948 
3171.000000	64.949941 
3170.000000	64.983725 
3169.000000	65.015554 
3168.000000	65.040206 
3167.000000	65.054011 
3166.000000	65.055394 
3165.000000	65.044856 
3164.000000	65.024876 
3163.000000	64.999365 
3162.000000	64.973139 
3161.000000	64.950728 
3160.000000	64.936113 
3159.000000	64.932227 
3158.000000	64.940404 
3157.000000	64.960122 
3156.000000	64.989304 
3155.000000	65.024781 
3154.000000	65.062856 
3153.000000	65.099573 
3152.000000	65.132212 
3151.000000	65.159511 
3150.000000	65.182137 
3149.000000	65.202426 
3148.000000	65.223765 
3147.000000	65.249395 
3146.000000	65.281343 
3145.000000	65.319824 
3144.000000	65.362477 
3143.000000	65.404605 
3142.000000	65.440416 
3141.000000	65.464305 
3140.000000	65.472698 
3139.000000	65.464353 
3138.000000	65.441513 
3137.000000	65.408396 
3136.000000	65.370488 
3135.000000	65.332007 
3134.000000	65.295624 
3133.000000	65.260958 
3132.000000	65.225434 
3131.000000	65.184855 
3130.000000	65.135693 
3129.000000	65.076160 
3128.000000	65.007352 
3127.000000	64.933490 
3126.000000	64.861130 
3125.000000	64.797925 
3124.000000	64.750671 
3123.000000	64.723873 
3122.000000	64.718317 
3121.000000	64.731335 
3120.000000	64.757537 
3119.000000	64.789819 
3118.000000	64.821147 
3117.000000	64.845943 
3116.000000	64.861297 
3115.000000	64.866900 
3114.000000	64.865088 
3113.000000	64.859890 
3112.000000	64.856219 
3111.000000	64.858341 
3110.000000	64.869141 
3109.000000	64.889621 
3108.000000	64.918613 
3107.000000	64.953589 
3106.000000	64.990901 
3105.000000	65.026831 
3104.000000	65.058088 
3103.000000	65.082836 
3102.000000	65.100574 
3101.000000	65.111589 
3100.000000	65.117073 
3099.000000	65.118598 
3098.000000	65.117645 
3097.000000	65.115237 
3096.000000	65.112042 
3095.000000	65.108656 
3094.000000	65.105557 
3093.000000	65.103173 
3092.000000	65.102100 
3091.000000	65.102887 
3090.000000	65.105581 
3089.000000	65.109634 
3088.000000	65.113592 
3087.000000	65.115761 
3086.000000	65.114545 
3085.000000	65.108942 
3084.000000	65.098834 
3083.000000	65.085411 
3082.000000	65.070796 
3081.000000	65.057682 
3080.000000	65.048551 
3079.000000	65.045309 
3078.000000	65.048813 
3077.000000	65.058708 
3076.000000	65.073633 
3075.000000	65.091466 
3074.000000	65.110254 
3073.000000	65.128135 
3072.000000	65.143680 
3071.000000	65.155935 
3070.000000	65.164303 
3069.000000	65.168523 
3068.000000	65.168356 
3067.000000	65.163993 
3066.000000	65.156173 
3065.000000	65.146303 
3064.000000	65.136504 
3063.000000	65.129065 
3062.000000	65.126228 
3061.000000	65.129470 
3060.000000	65.139222 
3059.000000	65.154671 
3058.000000	65.173602 
3057.000000	65.193128 
3056.000000	65.209984 
3055.000000	65.221166 
3054.000000	65.224456 
3053.000000	65.218830 
3052.000000	65.204405 
3051.000000	65.182518 
3050.000000	65.155172 
3049.000000	65.124893 
3048.000000	65.094137 
3047.000000	65.065145 
3046.000000	65.039634 
3045.000000	65.018820 
3044.000000	65.003418 
3043.000000	64.994049 
3042.000000	64.991021 
3041.000000	64.994239 
3040.000000	65.003657 
3039.000000	65.018963 
3038.000000	65.039587 
3037.000000	65.064477 
3036.000000	65.092253 
3035.000000	65.121197 
3034.000000	65.149474 
3033.000000	65.175294 
3032.000000	65.197420 
3031.000000	65.215301 
3030.000000	65.229392 
3029.000000	65.240693 
3028.000000	65.250682 
3027.000000	65.260505 
3026.000000	65.271043 
3025.000000	65.282106 
3024.000000	65.293049 
3023.000000	65.302252 
3022.000000	65.307950 
3021.000000	65.308141 
3020.000000	65.301299 
3019.000000	65.286397 
3018.000000	65.263533 
3017.000000	65.233731 
3016.000000	65.198945 
3015.000000	65.161800 
3014.000000	65.125393 
3013.000000	65.092754 
3012.000000	65.066289 
3011.000000	65.047454 
3010.000000	65.036630 
3009.000000	65.033006 
3008.000000	65.034937 
3007.000000	65.040135 
3006.000000	65.046381 
3005.000000	65.052175 
3004.000000	65.057063 
3003.000000	65.061378 
3002.000000	65.065908 
3001.000000	65.071558 
3000.000000	65.078711 
2999.000000	65.086770 
2998.000000	65.094351 
2997.000000	65.099573 
2996.000000	65.100765 
2995.000000	65.097141 
2994.000000	65.089011 
2993.000000	65.078067 
2992.000000	65.067076 
2991.000000	65.059185 
2990.000000	65.057158 
2989.000000	65.062665 
2988.000000	65.076041 
2987.000000	65.096139 
2986.000000	65.120363 
2985.000000	65.145373 
2984.000000	65.167760 
2983.000000	65.184593 
2982.000000	65.193629 
2981.000000	65.193605 
2980.000000	65.184402 
2979.000000	65.166783 
2978.000000	65.142178 
2977.000000	65.112686 
2976.000000	65.080976 
2975.000000	65.049791 
2974.000000	65.021800 
2973.000000	64.998936 
2972.000000	64.982342 
2971.000000	64.971995 
2970.000000	64.966917 
2969.000000	64.965367 
2968.000000	64.964914 
2967.000000	64.963531 
2966.000000	64.959669 
2965.000000	64.952898 
2964.000000	64.943647 
2963.000000	64.933514 
2962.000000	64.924430 
2961.000000	64.918303 
2960.000000	64.916300 
2959.000000	64.918589 
2958.000000	64.924240 
2957.000000	64.931297 
2956.000000	64.937472 
2955.000000	64.940905 
2954.000000	64.940834 
2953.000000	64.937591 
2952.000000	64.932727 
2951.000000	64.928936 
2950.000000	64.929175 
2949.000000	64.935684 
2948.000000	64.949297 
2947.000000	64.969015 
2946.000000	64.991998 
2945.000000	65.014600 
2944.000000	65.032672 
2943.000000	65.042829 
2942.000000	65.043187 
2941.000000	65.034198 
2940.000000	65.018320 
2939.000000	64.999151 
2938.000000	64.980673 
2937.000000	64.966416 
2936.000000	64.958000 
2935.000000	64.954972 
2934.000000	64.954829 
2933.000000	64.954137 
2932.000000	64.949131 
2931.000000	64.936995 
2930.000000	64.916396 
2929.000000	64.887809 
2928.000000	64.852595 
2927.000000	64.812564 
2926.000000	64.769268 
2925.000000	64.723896 
2924.000000	64.677262 
2923.000000	64.630508 
2922.000000	64.585399 
2921.000000	64.544773 
2920.000000	64.512252 
2919.000000	64.491915 
2918.000000	64.486908 
2917.000000	64.499282 
2916.000000	64.528870 
2915.000000	64.573645 
2914.000000	64.629197 
2913.000000	64.690327 
2912.000000	64.751720 
2911.000000	64.808893 
2910.000000	64.858579 
2909.000000	64.899301 
2908.000000	64.931178 
2907.000000	64.955663 
2906.000000	64.974784 
2905.000000	64.990901 
2904.000000	65.006065 
2903.000000	65.022158 
2902.000000	65.040636 
2901.000000	65.062093 
2900.000000	65.086054 
2899.000000	65.111541 
2898.000000	65.136909 
2897.000000	65.159940 
2896.000000	65.178298 
2895.000000	65.190529 
2894.000000	65.196013 
2893.000000	65.195274 
2892.000000	65.189385 
2891.000000	65.180373 
2890.000000	65.169835 
2889.000000	65.158963 
2888.000000	65.147829 
2887.000000	65.135669 
2886.000000	65.120935 
2885.000000	65.102386 
2884.000000	65.079259 
2883.000000	65.052008 
2882.000000	65.022277 
2881.000000	64.992833 
2880.000000	64.966654 
2879.000000	64.946246 
2878.000000	64.933562 
2877.000000	64.929795 
2876.000000	64.935278 
2875.000000	64.949703 
2874.000000	64.972901 
2873.000000	65.004849 
2872.000000	65.045809 
2871.000000	65.095567 
2870.000000	65.153288 
2869.000000	65.216326 
2868.000000	65.280508 
2867.000000	65.339565 
2866.000000	65.386462 
2865.000000	65.414142 
2864.000000	65.417313 
2863.000000	65.393638 
2862.000000	65.344882 
2861.000000	65.276765 
2860.000000	65.198588 
2859.000000	65.121030 
2858.000000	65.054512 
2857.000000	65.006995 
2856.000000	64.982771 
2855.000000	64.981269 
2854.000000	64.997696 
2853.000000	65.024256 
2852.000000	65.052223 
2851.000000	65.073943 
2850.000000	65.084576 
2849.000000	65.082955 
2848.000000	65.071535 
2847.000000	65.055584 
2846.000000	65.041518 
2845.000000	65.035176 
2844.000000	65.040063 
2843.000000	65.056896 
2842.000000	65.082955 
2841.000000	65.113282 
2840.000000	65.141677 
2839.000000	65.162467 
2838.000000	65.171790 
2837.000000	65.168046 
2836.000000	65.152573 
2835.000000	65.128922 
2834.000000	65.101981 
2833.000000	65.076684 
2832.000000	65.057325 
2831.000000	65.046715 
2830.000000	65.046048 
2829.000000	65.055274 
2828.000000	65.073060 
2827.000000	65.097427 
2826.000000	65.126132 
2825.000000	65.157151 
2824.000000	65.188407 
2823.000000	65.217733 
2822.000000	65.243005 
2821.000000	65.262103 
2820.000000	65.273404 
2819.000000	65.275764 
2818.000000	65.269017 
2817.000000	65.254092 
2816.000000	65.232992 
2815.000000	65.208697 
2814.000000	65.184497 
2813.000000	65.163612 
2812.000000	65.148496 
2811.000000	65.140485 
2810.000000	65.139675 
2809.000000	65.144944 
2808.000000	65.154600 
2807.000000	65.166306 
2806.000000	65.177750 
2805.000000	65.187001 
2804.000000	65.192580 
2803.000000	65.193867 
2802.000000	65.190768 
2801.000000	65.183901 
2800.000000	65.174603 
2799.000000	65.164709 
2798.000000	65.156388 
2797.000000	65.151596 
2796.000000	65.152072 
2795.000000	65.158557 
2794.000000	65.170693 
2793.000000	65.186834 
2792.000000	65.204548 
2791.000000	65.220761 
2790.000000	65.232706 
2789.000000	65.238428 
2788.000000	65.237545 
2787.000000	65.231251 
2786.000000	65.222167 
2785.000000	65.213489 
2784.000000	65.208363 
2783.000000	65.209126 
2782.000000	65.216779 
2781.000000	65.230703 
2780.000000	65.248870 
2779.000000	65.268731 
2778.000000	65.287280 
2777.000000	65.302014 
2776.000000	65.311098 
2775.000000	65.313649 
2774.000000	65.309691 
2773.000000	65.299940 
2772.000000	65.285348 
2771.000000	65.267133 
2770.000000	65.246295 
2769.000000	65.224051 
2768.000000	65.201354 
2767.000000	65.179395 
2766.000000	65.159368 
2765.000000	65.142440 
2764.000000	65.129780 
2763.000000	65.122175 
2762.000000	65.120148 
2761.000000	65.123629 
2760.000000	65.131950 
2759.000000	65.144085 
2758.000000	65.158343 
2757.000000	65.173077 
2756.000000	65.186405 
2755.000000	65.197134 
2754.000000	65.204238 
2753.000000	65.207719 
2752.000000	65.208196 
2751.000000	65.206789 
2750.000000	65.204787 
2749.000000	65.203142 
2748.000000	65.202426 
2747.000000	65.202450 
2746.000000	65.202546 
2745.000000	65.201473 
2744.000000	65.198135 
2743.000000	65.191888 
2742.000000	65.182900 
2741.000000	65.172314 
2740.000000	65.162014 
2739.000000	65.154170 
2738.000000	65.150785 
2737.000000	65.153241 
2736.000000	65.161943 
2735.000000	65.176129 
2734.000000	65.194177 
2733.000000	65.213942 
2732.000000	65.233325 
2731.000000	65.250587 
2730.000000	65.264868 
2729.000000	65.275955 
2728.000000	65.284466 
2727.000000	65.291404 
2726.000000	65.297985 
2725.000000	65.305280 
2724.000000	65.313935 
2723.000000	65.324425 
2722.000000	65.336632 
2721.000000	65.350222 
2720.000000	65.364170 
2719.000000	65.377187 
2718.000000	65.387535 
2717.000000	65.393567 
2716.000000	65.394043 
2715.000000	65.388250 
2714.000000	65.376496 
2713.000000	65.360140 
2712.000000	65.341353 
2711.000000	65.322542 
2710.000000	65.306186 
2709.000000	65.294003 
2708.000000	65.286612 
2707.000000	65.283513 
2706.000000	65.283298 
2705.000000	65.284085 
2704.000000	65.284252 
2703.000000	65.282940 
2702.000000	65.279984 
2701.000000	65.275931 
2700.000000	65.271711 
2699.000000	65.268230 
2698.000000	65.265822 
2697.000000	65.264439 
2696.000000	65.263700 
2695.000000	65.263080 
2694.000000	65.262508 
2693.000000	65.262174 
2692.000000	65.262532 
2691.000000	65.264010 
2690.000000	65.266919 
2689.000000	65.270924 
2688.000000	65.275120 
2687.000000	65.278339 
2686.000000	65.279245 
2685.000000	65.276908 
2684.000000	65.270900 
2683.000000	65.261530 
2682.000000	65.249490 
2681.000000	65.235543 
2680.000000	65.220355 
2679.000000	65.204048 
2678.000000	65.186572 
2677.000000	65.167903 
2676.000000	65.148401 
2675.000000	65.129303 
2674.000000	65.112495 
2673.000000	65.100264 
2672.000000	65.094852 
2671.000000	65.097546 
2670.000000	65.108513 
2669.000000	65.126323 
2668.000000	65.148520 
2667.000000	65.172052 
2666.000000	65.194010 
2665.000000	65.212297 
2664.000000	65.226173 
2663.000000	65.236234 
2662.000000	65.244054 
2661.000000	65.251517 
2660.000000	65.260076 
2659.000000	65.270376 
2658.000000	65.281915 
2657.000000	65.293073 
2656.000000	65.301871 
2655.000000	65.306234 
2654.000000	65.304613 
2653.000000	65.296173 
2652.000000	65.281057 
2651.000000	65.260314 
2650.000000	65.235304 
2649.000000	65.207839 
2648.000000	65.179848 
2647.000000	65.153241 
2646.000000	65.129756 
2645.000000	65.111136 
2644.000000	65.098738 
2643.000000	65.093612 
2642.000000	65.096235 
2641.000000	65.106320 
2640.000000	65.122628 
2639.000000	65.143346 
2638.000000	65.166020 
2637.000000	65.188217 
2636.000000	65.207695 
2635.000000	65.223073 
2634.000000	65.233850 
2633.000000	65.240335 
2632.000000	65.243434 
2631.000000	65.244531 
2630.000000	65.245056 
2629.000000	65.246129 
2628.000000	65.248346 
2627.000000	65.251827 
2626.000000	65.256166 
2625.000000	65.260815 
2624.000000	65.264987 
2623.000000	65.268015 
2622.000000	65.269160 
2621.000000	65.268015 
2620.000000	65.264368 
2619.000000	65.258026 
2618.000000	65.249061 
2617.000000	65.237879 
2616.000000	65.225243 
2615.000000	65.212130 
2614.000000	65.199875 
2613.000000	65.189695 
2612.000000	65.182733 
2611.000000	65.179681 
2610.000000	65.180563 
2609.000000	65.184760 
2608.000000	65.191125 
2607.000000	65.198278 
2606.000000	65.204596 
2605.000000	65.208673 
2604.000000	65.209412 
2603.000000	65.206408 
2602.000000	65.199685 
2601.000000	65.189814 
2600.000000	65.178060 
2599.000000	65.166068 
2598.000000	65.155792 
2597.000000	65.149235 
2596.000000	65.148210 
2595.000000	65.153622 
2594.000000	65.165781 
2593.000000	65.183544 
2592.000000	65.204596 
2591.000000	65.225696 
2590.000000	65.243387 
2589.000000	65.254640 
2588.000000	65.257644 
2587.000000	65.252470 
2586.000000	65.241122 
2585.000000	65.226888 
2584.000000	65.213584 
2583.000000	65.204501 
2582.000000	65.201807 
2581.000000	65.205836 
2580.000000	65.215110 
2579.000000	65.226864 
2578.000000	65.237736 
2577.000000	65.244579 
2576.000000	65.245342 
2575.000000	65.239095 
2574.000000	65.226602 
2573.000000	65.209555 
2572.000000	65.190696 
2571.000000	65.172743 
2570.000000	65.158128 
2569.000000	65.148711 
2568.000000	65.145492 
2567.000000	65.148663 
2566.000000	65.157556 
2565.000000	65.170788 
2564.000000	65.186500 
2563.000000	65.202689 
2562.000000	65.217614 
2561.000000	65.230226 
2560.000000	65.240263 
2559.000000	65.248250 
2558.000000	65.255093 
2557.000000	65.261554 
2556.000000	65.267968 
2555.000000	65.273904 
2554.000000	65.278077 
2553.000000	65.278768 
2552.000000	65.274286 
2551.000000	65.263509 
2550.000000	65.246367 
2549.000000	65.223836 
2548.000000	65.197825 
2547.000000	65.171003 
2546.000000	65.146136 
2545.000000	65.125918 
2544.000000	65.112042 
2543.000000	65.105462 
2542.000000	65.106391 
2541.000000	65.114355 
2540.000000	65.128564 
2539.000000	65.147852 
2538.000000	65.170764 
2537.000000	65.196061 
2536.000000	65.222001 
2535.000000	65.247440 
2534.000000	65.271472 
2533.000000	65.293812 
2532.000000	65.314650 
2531.000000	65.334391 
2530.000000	65.353560 
2529.000000	65.372323 
2528.000000	65.390348 
2527.000000	65.406727 
2526.000000	65.420126 
2525.000000	65.429186 
2524.000000	65.432691 
2523.000000	65.429949 
2522.000000	65.420818 
2521.000000	65.405917 
2520.000000	65.386176 
2519.000000	65.362572 
2518.000000	65.335893 
2517.000000	65.306925 
2516.000000	65.276455 
2515.000000	65.245509 
2514.000000	65.215229 
2513.000000	65.187263 
2512.000000	65.163230 
2511.000000	65.144205 
2510.000000	65.130448 
2509.000000	65.121150 
2508.000000	65.114927 
2507.000000	65.110063 
2506.000000	65.105247 
2505.000000	65.099716 
2504.000000	65.093755 
2503.000000	65.088462 
2502.000000	65.085124 
2501.000000	65.084481 
2500.000000	65.086579 
2499.000000	65.090489 
2498.000000	65.094470 
2497.000000	65.096473 
2496.000000	65.095400 
2495.000000	65.091562 
2494.000000	65.086865 
2493.000000	65.084624 
2492.000000	65.088415 
2491.000000	65.101599 
2490.000000	65.125608 
2489.000000	65.160012 
2488.000000	65.202069 
2487.000000	65.247321 
2486.000000	65.290999 
2485.000000	65.328574 
2484.000000	65.356659 
2483.000000	65.373253 
2482.000000	65.378451 
2481.000000	65.373730 
2480.000000	65.361261 
2479.000000	65.343499 
2478.000000	65.323019 
2477.000000	65.301704 
2476.000000	65.280914 
2475.000000	65.261054 
2474.000000	65.242195 
2473.000000	65.223741 
2472.000000	65.204834 
2471.000000	65.184283 
2470.000000	65.161037 
2469.000000	65.134620 
2468.000000	65.105366 
2467.000000	65.074658 
2466.000000	65.044951 
2465.000000	65.019249 
2464.000000	65.000963 
2463.000000	64.992618 
2462.000000	64.995765 
2461.000000	65.010690 
2460.000000	65.036582 
2459.000000	65.070867 
2458.000000	65.110492 
2457.000000	65.152096 
2456.000000	65.192747 
2455.000000	65.229964 
2454.000000	65.262222 
2453.000000	65.288710 
2452.000000	65.309190 
2451.000000	65.323758 
2450.000000	65.332245 
2449.000000	65.334224 
2448.000000	65.329051 
2447.000000	65.316414 
2446.000000	65.296268 
2445.000000	65.269351 
2444.000000	65.237760 
2443.000000	65.204691 
2442.000000	65.174031 
2441.000000	65.149450 
2440.000000	65.133976 
2439.000000	65.128874 
2438.000000	65.132784 
2437.000000	65.142035 
2436.000000	65.150856 
2435.000000	65.153098 
2434.000000	65.143465 
2433.000000	65.119290 
2432.000000	65.080976 
2431.000000	65.032649 
2430.000000	64.980936 
2429.000000	64.934229 
2428.000000	64.900135 
2427.000000	64.884638 
2426.000000	64.890623 
2425.000000	64.917564 
2424.000000	64.961647 
2423.000000	65.016794 
2422.000000	65.076041 
2421.000000	65.132904 
2420.000000	65.182328 
2419.000000	65.221858 
2418.000000	65.251278 
2417.000000	65.272641 
2416.000000	65.289163 
2415.000000	65.304255 
2414.000000	65.320348 
2413.000000	65.338754 
2412.000000	65.358591 
2411.000000	65.377235 
2410.000000	65.390467 
2409.000000	65.394282 
2408.000000	65.385508 
2407.000000	65.362954 
2406.000000	65.327906 
2405.000000	65.284228 
2404.000000	65.237474 
2403.000000	65.193772 
2402.000000	65.158653 
2401.000000	65.135645 
2400.000000	65.126156 
2399.000000	65.129399 
2398.000000	65.142941 
2397.000000	65.163493 
2396.000000	65.187931 
2395.000000	65.213942 
2394.000000	65.239930 
2393.000000	65.264964 
2392.000000	65.288496 
2391.000000	65.309953 
2390.000000	65.328264 
2389.000000	65.341973 
2388.000000	65.350031 
2387.000000	65.352225 
2386.000000	65.349483 
2385.000000	65.343689 
2384.000000	65.337705 
2383.000000	65.334367 
2382.000000	65.335941 
2381.000000	65.343284 
2380.000000	65.355944 
2379.000000	65.371894 
2378.000000	65.388464 
2377.000000	65.402626 
2376.000000	65.411734 
2375.000000	65.413951 
2374.000000	65.408682 
2373.000000	65.396165 
2372.000000	65.377449 
2371.000000	65.353965 
2370.000000	65.327501 
2369.000000	65.299797 
2368.000000	65.272474 
2367.000000	65.246963 
2366.000000	65.224647 
2365.000000	65.206408 
2364.000000	65.192961 
2363.000000	65.184330 
2362.000000	65.180134 
2361.000000	65.179657 
2360.000000	65.182018 
2359.000000	65.186333 
2358.000000	65.191936 
2357.000000	65.198349 
2356.000000	65.205550 
2355.000000	65.213394 
2354.000000	65.221762 
2353.000000	65.230584 
2352.000000	65.239787 
2351.000000	65.248966 
2350.000000	65.257716 
2349.000000	65.265583 
2348.000000	65.272021 
2347.000000	65.276670 
2346.000000	65.279245 
2345.000000	65.279746 
2344.000000	65.278553 
2343.000000	65.276193 
2342.000000	65.273594 
2341.000000	65.271997 
2340.000000	65.272688 
2339.000000	65.277028 
2338.000000	65.285873 
2337.000000	65.299391 
2336.000000	65.316963 
2335.000000	65.337324 
2334.000000	65.358543 
2333.000000	65.378260 
2332.000000	65.394163 
2331.000000	65.404319 
2330.000000	65.407228 
2329.000000	65.402030 
2328.000000	65.388417 
2327.000000	65.367054 
2326.000000	65.339374 
2325.000000	65.307617 
2324.000000	65.274643 
2323.000000	65.243482 
2322.000000	65.217041 
2321.000000	65.197396 
2320.000000	65.185642 
2319.000000	65.181660 
2318.000000	65.184020 
2317.000000	65.190434 
2316.000000	65.198040 
2315.000000	65.204358 
2314.000000	65.207672 
2313.000000	65.207338 
2312.000000	65.203905 
2311.000000	65.198802 
2310.000000	65.193843 
2309.000000	65.190863 
2308.000000	65.190982 
2307.000000	65.194725 
2306.000000	65.201711 
2305.000000	65.210819 
2304.000000	65.220642 
2303.000000	65.229415 
2302.000000	65.235567 
2301.000000	65.237736 
2300.000000	65.235257 
2299.000000	65.228199 
2298.000000	65.217399 
2297.000000	65.204620 
2296.000000	65.191984 
2295.000000	65.181660 
2294.000000	65.175485 
2293.000000	65.174746 
2292.000000	65.179681 
2291.000000	65.189266 
2290.000000	65.201830 
2289.000000	65.215158 
2288.000000	65.227365 
2287.000000	65.236973 
2286.000000	65.243482 
2285.000000	65.247273 
2284.000000	65.249204 
2283.000000	65.250325 
2282.000000	65.251231 
2281.000000	65.251994 
2280.000000	65.252017 
2279.000000	65.250229 
2278.000000	65.245723 
2277.000000	65.237927 
2276.000000	65.226960 
2275.000000	65.213608 
2274.000000	65.199279 
2273.000000	65.185689 
2272.000000	65.174436 
2271.000000	65.166759 
2270.000000	65.163207 
2269.000000	65.163636 
2268.000000	65.167379 
2267.000000	65.173244 
2266.000000	65.180087 
2265.000000	65.186619 
2264.000000	65.191864 
2263.000000	65.195107 
2262.000000	65.196037 
2261.000000	65.194702 
2260.000000	65.191483 
2259.000000	65.187168 
2258.000000	65.182638 
2257.000000	65.178942 
2256.000000	65.177011 
2255.000000	65.177416 
2254.000000	65.180349 
2253.000000	65.185403 
2252.000000	65.191864 
2251.000000	65.198659 
2250.000000	65.204644 
2249.000000	65.208935 
2248.000000	65.211033 
2247.000000	65.210866 
2246.000000	65.208816 
2245.000000	65.205740 
2244.000000	65.202569 
2243.000000	65.200138 
2242.000000	65.199089 
2241.000000	65.199375 
2240.000000	65.200734 
2239.000000	65.202617 
2238.000000	65.204548 
2237.000000	65.206170 
2236.000000	65.207529 
2235.000000	65.209031 
2234.000000	65.211439 
2233.000000	65.215444 
2232.000000	65.221643 
2231.000000	65.230059 
2230.000000	65.240001 
2229.000000	65.250205 
2228.000000	65.258955 
2227.000000	65.264439 
2226.000000	65.265202 
2225.000000	65.260529 
2224.000000	65.250587 
2223.000000	65.236306 
2222.000000	65.219330 
2221.000000	65.201473 
2220.000000	65.184426 
2219.000000	65.169787 
2218.000000	65.158891 
2217.000000	65.152788 
2216.000000	65.152406 
2215.000000	65.158462 
2214.000000	65.171194 
2213.000000	65.190339 
2212.000000	65.214896 
2211.000000	65.243077 
2210.000000	65.272092 
2209.000000	65.298867 
2208.000000	65.320229 
2207.000000	65.333652 
2206.000000	65.338015 
2205.000000	65.333557 
2204.000000	65.321874 
2203.000000	65.305352 
2202.000000	65.286898 
2201.000000	65.268826 
2200.000000	65.252685 
2199.000000	65.239119 
2198.000000	65.228009 
2197.000000	65.218687 
2196.000000	65.210413 
2195.000000	65.202736 
2194.000000	65.195798 
2193.000000	65.189862 
2192.000000	65.185523 
2191.000000	65.183305 
2190.000000	65.183949 
2189.000000	65.187764 
2188.000000	65.194988 
2187.000000	65.205860 
2186.000000	65.220403 
2185.000000	65.238451 
2184.000000	65.259432 
2183.000000	65.282034 
2182.000000	65.304279 
2181.000000	65.323734 
2180.000000	65.337896 
2179.000000	65.344595 
2178.000000	65.342760 
2177.000000	65.332627 
2176.000000	65.315556 
2175.000000	65.293836 
2174.000000	65.270090 
2173.000000	65.246582 
2172.000000	65.224719 
2171.000000	65.204811 
2170.000000	65.186285 
2169.000000	65.167999 
2168.000000	65.148901 
2167.000000	65.128564 
2166.000000	65.107464 
2165.000000	65.087080 
2164.000000	65.069174 
2163.000000	65.055823 
2162.000000	65.048217 
2161.000000	65.046954 
2160.000000	65.051245 
2159.000000	65.059924 
2158.000000	65.071082 
2157.000000	65.083241 
2156.000000	65.095281 
2155.000000	65.107035 
2154.000000	65.118885 
2153.000000	65.131950 
2152.000000	65.147376 
2151.000000	65.165877 
2150.000000	65.187358 
2149.000000	65.210318 
2148.000000	65.232253 
2147.000000	65.249562 
2146.000000	65.258502 
2145.000000	65.255713 
2144.000000	65.239214 
2143.000000	65.208983 
2142.000000	65.167331 
2141.000000	65.118670 
2140.000000	65.068721 
2139.000000	65.023875 
2138.000000	64.989852 
2137.000000	64.970684 
2136.000000	64.967894 
2135.000000	64.980387 
2134.000000	65.004754 
2133.000000	65.035915 
2132.000000	65.068459 
2131.000000	65.097260 
2130.000000	65.119147 
2129.000000	65.132665 
2128.000000	65.138554 
2127.000000	65.138888 
2126.000000	65.136647 
2125.000000	65.134787 
2124.000000	65.135574 
2123.000000	65.140104 
2122.000000	65.148115 
2121.000000	65.158390 
2120.000000	65.169215 
2119.000000	65.179014 
2118.000000	65.186715 
2117.000000	65.191960 
2116.000000	65.195250 
2115.000000	65.197467 
2114.000000	65.199685 
2113.000000	65.202689 
2112.000000	65.206861 
2111.000000	65.212154 
2110.000000	65.218210 
2109.000000	65.224385 
2108.000000	65.230536 
2107.000000	65.236449 
2106.000000	65.241909 
2105.000000	65.246629 
2104.000000	65.250110 
2103.000000	65.251517 
2102.000000	65.250015 
2101.000000	65.244841 
2100.000000	65.235471 
2099.000000	65.222144 
2098.000000	65.206146 
2097.000000	65.189623 
2096.000000	65.175104 
2095.000000	65.165424 
2094.000000	65.163087 
2093.000000	65.169739 
2092.000000	65.185856 
2091.000000	65.210676 
2090.000000	65.242600 
2089.000000	65.278983 
2088.000000	65.316748 
2087.000000	65.353035 
2086.000000	65.385532 
2085.000000	65.412449 
2084.000000	65.432786 
2083.000000	65.446567 
2082.000000	65.454459 
2081.000000	65.457725 
2080.000000	65.457367 
2079.000000	65.454530 
2078.000000	65.449404 
2077.000000	65.441918 
2076.000000	65.431284 
2075.000000	65.416502 
2074.000000	65.396714 
2073.000000	65.371894 
2072.000000	65.342831 
2071.000000	65.311169 
2070.000000	65.279459 
2069.000000	65.250611 
2068.000000	65.227007 
2067.000000	65.210032 
2066.000000	65.199542 
2065.000000	65.193676 
2064.000000	65.189027 
2063.000000	65.181326 
2062.000000	65.166330 
2061.000000	65.140771 
2060.000000	65.103435 
2059.000000	65.055823 
2058.000000	65.001249 
2057.000000	64.945101 
2056.000000	64.893317 
2055.000000	64.851880 
2054.000000	64.824724 
2053.000000	64.814186 
2052.000000	64.820170 
2051.000000	64.840912 
2050.000000	64.873194 
2049.000000	64.913392 
2048.000000	64.957952 
2047.000000	65.004110 
2046.000000	65.049934 
2045.000000	65.094256 
2044.000000	65.136194 
2043.000000	65.175366 
2042.000000	65.211343 
2041.000000	65.243864 
2040.000000	65.272307 
2039.000000	65.296363 
2038.000000	65.315771 
2037.000000	65.329933 
2036.000000	65.337944 
2035.000000	65.338802 
2034.000000	65.331459 
2033.000000	65.315389 
2032.000000	65.290760 
2031.000000	65.259146 
2030.000000	65.223145 
2029.000000	65.186309 
2028.000000	65.152215 
2027.000000	65.124368 
2026.000000	65.105223 
2025.000000	65.095591 
2024.000000	65.095067 
2023.000000	65.101957 
2022.000000	65.114212 
2021.000000	65.129804 
2020.000000	65.147304 
2019.000000	65.165758 
2018.000000	65.185022 
2017.000000	65.205168 
2016.000000	65.226054 
2015.000000	65.246629 
2014.000000	65.265393 
2013.000000	65.280437 
2012.000000	65.289878 
2011.000000	65.292453 
2010.000000	65.287733 
2009.000000	65.276408 
2008.000000	65.260219 
2007.000000	65.241527 
2006.000000	65.223097 
2005.000000	65.207457 
2004.000000	65.196824 
2003.000000	65.192580 
2002.000000	65.195393 
2001.000000	65.205001 
2000.000000	65.220737 
1999.000000	65.241169 
1998.000000	65.264296 
1997.000000	65.287566 
1996.000000	65.308308 
1995.000000	65.323591 
1994.000000	65.330910 
1993.000000	65.328240 
1992.000000	65.314698 
1991.000000	65.290689 
1990.000000	65.258264 
1989.000000	65.220689 
1988.000000	65.181899 
1987.000000	65.145993 
1986.000000	65.116500 
1985.000000	65.095663 
1984.000000	65.084290 
1983.000000	65.081882 
1982.000000	65.086770 
1981.000000	65.096759 
1980.000000	65.109705 
1979.000000	65.123772 
1978.000000	65.137815 
1977.000000	65.151333 
1976.000000	65.164566 
1975.000000	65.178155 
1974.000000	65.192914 
1973.000000	65.209555 
1972.000000	65.228080 
1971.000000	65.248179 
1970.000000	65.268445 
1969.000000	65.286993 
1968.000000	65.301370 
1967.000000	65.309453 
1966.000000	65.309691 
1965.000000	65.301442 
1964.000000	65.285420 
1963.000000	65.263772 
1962.000000	65.239691 
1961.000000	65.216922 
1960.000000	65.199041 
1959.000000	65.188694 
1958.000000	65.187358 
1957.000000	65.195107 
1956.000000	65.210771 
1955.000000	65.232205 
1954.000000	65.256953 
1953.000000	65.282726 
1952.000000	65.307521 
1951.000000	65.329813 
1950.000000	65.348434 
1949.000000	65.362405 
1948.000000	65.370893 
1947.000000	65.373110 
1946.000000	65.368485 
1945.000000	65.356731 
1944.000000	65.338301 
1943.000000	65.314197 
1942.000000	65.286254 
1941.000000	65.256786 
1940.000000	65.228366 
1939.000000	65.203499 
1938.000000	65.184092 
1937.000000	65.171670 
1936.000000	65.166878 
1935.000000	65.169930 
1934.000000	65.180349 
1933.000000	65.197253 
1932.000000	65.219426 
1931.000000	65.245246 
1930.000000	65.272831 
1929.000000	65.299963 
1928.000000	65.324306 
1927.000000	65.343618 
1926.000000	65.356326 
1925.000000	65.361380 
1924.000000	65.358901 
1923.000000	65.349864 
1922.000000	65.336108 
1921.000000	65.320229 
1920.000000	65.304613 
1919.000000	65.291285 
1918.000000	65.281414 
1917.000000	65.275168 
1916.000000	65.271663 
1915.000000	65.269565 
1914.000000	65.267348 
1913.000000	65.263938 
1912.000000	65.258932 
1911.000000	65.252780 
1910.000000	65.246486 
1909.000000	65.241384 
1908.000000	65.238595 
1907.000000	65.238571 
1906.000000	65.241050 
1905.000000	65.245056 
1904.000000	65.249395 
1903.000000	65.253019 
1902.000000	65.255522 
1901.000000	65.257334 
1900.000000	65.259718 
1899.000000	65.264177 
1898.000000	65.272116 
1897.000000	65.284204 
1896.000000	65.299820 
1895.000000	65.317392 
1894.000000	65.334606 
1893.000000	65.348768 
1892.000000	65.357947 
1891.000000	65.360927 
1890.000000	65.357780 
1889.000000	65.349483 
1888.000000	65.337920 
1887.000000	65.324974 
1886.000000	65.312194 
1885.000000	65.300536 
1884.000000	65.290188 
1883.000000	65.280747 
1882.000000	65.271735 
1881.000000	65.262913 
1880.000000	65.254473 
1879.000000	65.247249 
1878.000000	65.242528 
1877.000000	65.241742 
1876.000000	65.245866 
1875.000000	65.255331 
1874.000000	65.269804 
1873.000000	65.287995 
1872.000000	65.307974 
1871.000000	65.327501 
1870.000000	65.344595 
1869.000000	65.357661 
1868.000000	65.365648 
1867.000000	65.368390 
1866.000000	65.366268 
1865.000000	65.360283 
1864.000000	65.351700 
1863.000000	65.341782 
1862.000000	65.331745 
1861.000000	65.322613 
1860.000000	65.314888 
1859.000000	65.308809 
1858.000000	65.304207 
1857.000000	65.300631 
1856.000000	65.297222 
1855.000000	65.292954 
1854.000000	65.286755 
1853.000000	65.277814 
1852.000000	65.265631 
1851.000000	65.250253 
1850.000000	65.232443 
1849.000000	65.213489 
1848.000000	65.195083 
1847.000000	65.179085 
1846.000000	65.167188 
1845.000000	65.160584 
1844.000000	65.159797 
1843.000000	65.164732 
1842.000000	65.174508 
1841.000000	65.187740 
1840.000000	65.202689 
1839.000000	65.217685 
1838.000000	65.231060 
1837.000000	65.241694 
1836.000000	65.249037 
1835.000000	65.253424 
1834.000000	65.255784 
1833.000000	65.257692 
1832.000000	65.260934 
1831.000000	65.267252 
1830.000000	65.278005 
1829.000000	65.293455 
1828.000000	65.313076 
1827.000000	65.335106 
1826.000000	65.357255 
1825.000000	65.376687 
1824.000000	65.390801 
1823.000000	65.397572 
1822.000000	65.396213 
1821.000000	65.387058 
1820.000000	65.371513 
1819.000000	65.351796 
1818.000000	65.330624 
1817.000000	65.310549 
1816.000000	65.293526 
1815.000000	65.280675 
1814.000000	65.272116 
1813.000000	65.267443 
1812.000000	65.265560 
1811.000000	65.265107 
1810.000000	65.264916 
1809.000000	65.264296 
1808.000000	65.263009 
1807.000000	65.261054 
1806.000000	65.258789 
1805.000000	65.256428 
1804.000000	65.254354 
1803.000000	65.252590 
1802.000000	65.251326 
1801.000000	65.250897 
1800.000000	65.251922 
1799.000000	65.255236 
1798.000000	65.261816 
1797.000000	65.272402 
1796.000000	65.287280 
1795.000000	65.306091 
1794.000000	65.327692 
1793.000000	65.350389 
1792.000000	65.372061 
1791.000000	65.390443 
1790.000000	65.403389 
1789.000000	65.409040 
1788.000000	65.406203 
1787.000000	65.394496 
1786.000000	65.374088 
1785.000000	65.345954 
1784.000000	65.312099 
1783.000000	65.275049 
1782.000000	65.238070 
1781.000000	65.204334 
1780.000000	65.176963 
1779.000000	65.158200 
1778.000000	65.149068 
1777.000000	65.149044 
1776.000000	65.156149 
1775.000000	65.167427 
1774.000000	65.179491 
1773.000000	65.189290 
1772.000000	65.194559 
1771.000000	65.194702 
1770.000000	65.190625 
1769.000000	65.184211 
1768.000000	65.177893 
1767.000000	65.174245 
1766.000000	65.175223 
1765.000000	65.181779 
1764.000000	65.193748 
1763.000000	65.210151 
1762.000000	65.229511 
1761.000000	65.250110 
1760.000000	65.270376 
1759.000000	65.289211 
1758.000000	65.305829 
1757.000000	65.319705 
1756.000000	65.330386 
1755.000000	65.337586 
1754.000000	65.340971 
1753.000000	65.340304 
1752.000000	65.335607 
1751.000000	65.327286 
1750.000000	65.315866 
1749.000000	65.302658 
1748.000000	65.288496 
1747.000000	65.273857 
1746.000000	65.258550 
1745.000000	65.241932 
1744.000000	65.223193 
1743.000000	65.201568 
1742.000000	65.176749 
1741.000000	65.149068 
1740.000000	65.119743 
1739.000000	65.090870 
1738.000000	65.064883 
1737.000000	65.044021 
1736.000000	65.030193 
1735.000000	65.024447 
1734.000000	65.026879 
1733.000000	65.036344 
1732.000000	65.050578 
1731.000000	65.066242 
1730.000000	65.079426 
1729.000000	65.086412 
1728.000000	65.083479 
1727.000000	65.068793 
1726.000000	65.042257 
1725.000000	65.006709 
1724.000000	64.967560 
1723.000000	64.932227 
1722.000000	64.908695 
1721.000000	64.903306 
1720.000000	64.919304 
1719.000000	64.955186 
1718.000000	65.004849 
1717.000000	65.058469 
1716.000000	65.104794 
1715.000000	65.133547 
1714.000000	65.138030 
1713.000000	65.116620 
1712.000000	65.073251 
1711.000000	65.016365 
1710.000000	64.957094 
1709.000000	64.906668 
1708.000000	64.874362 
1707.000000	64.865636 
1706.000000	64.881777 
1705.000000	64.920377 
1704.000000	64.976429 
1703.000000	65.043878 
1702.000000	65.116786 
1701.000000	65.190124 
1700.000000	65.260148 
1699.000000	65.323901 
1698.000000	65.379357 
1697.000000	65.424776 
1696.000000	65.458893 
1695.000000	65.481114 
1694.000000	65.491271 
1693.000000	65.489935 
1692.000000	65.478467 
1691.000000	65.459251 
1690.000000	65.434885 
1689.000000	65.408015 
1688.000000	65.381026 
1687.000000	65.355730 
1686.000000	65.333342 
1685.000000	65.314602 
1684.000000	65.299654 
1683.000000	65.288162 
1682.000000	65.279674 
1681.000000	65.273690 
1680.000000	65.269517 
1679.000000	65.266704 
1678.000000	65.264749 
1677.000000	65.263724 
1676.000000	65.263843 
1675.000000	65.265727 
1674.000000	65.269970 
1673.000000	65.277099 
1672.000000	65.287065 
1671.000000	65.299487 
1670.000000	65.313863 
1669.000000	65.329575 
1668.000000	65.345740 
1667.000000	65.361523 
1666.000000	65.376234 
1665.000000	65.389108 
1664.000000	65.399336 
1663.000000	65.405988 
1662.000000	65.408062 
1661.000000	65.404701 
1660.000000	65.395283 
1659.000000	65.379643 
1658.000000	65.358209 
1657.000000	65.332126 
1656.000000	65.303325 
1655.000000	65.273880 
1654.000000	65.245795 
1653.000000	65.220713 
1652.000000	65.199780 
1651.000000	65.183448 
1650.000000	65.171504 
1649.000000	65.163326 
1648.000000	65.158104 
1647.000000	65.154814 
1646.000000	65.152740 
1645.000000	65.151047 
1644.000000	65.149474 
1643.000000	65.147995 
1642.000000	65.146923 
1641.000000	65.146684 
1640.000000	65.147566 
1639.000000	65.149807 
1638.000000	65.153288 
1637.000000	65.157556 
1636.000000	65.161967 
1635.000000	65.165877 
1634.000000	65.168976 
1633.000000	65.171313 
1632.000000	65.173411 
1631.000000	65.176033 
1630.000000	65.180110 
1629.000000	65.186262 
1628.000000	65.194606 
1627.000000	65.204501 
1626.000000	65.214753 
1625.000000	65.223836 
1624.000000	65.230226 
1623.000000	65.232896 
1622.000000	65.231728 
1621.000000	65.227174 
1620.000000	65.220236 
1619.000000	65.212011 
1618.000000	65.203380 
1617.000000	65.194940 
1616.000000	65.186810 
1615.000000	65.178871 
1614.000000	65.171122 
1613.000000	65.163516 
1612.000000	65.156269 
1611.000000	65.149831 
1610.000000	65.144610 
1609.000000	65.141153 
1608.000000	65.139794 
1607.000000	65.140724 
1606.000000	65.143680 
1605.000000	65.147852 
1604.000000	65.151977 
1603.000000	65.154528 
1602.000000	65.154004 
1601.000000	65.149211 
1600.000000	65.139436 
1599.000000	65.124940 
1598.000000	65.106606 
1597.000000	65.085816 
1596.000000	65.064191 
1595.000000	65.043163 
1594.000000	65.024018 
1593.000000	65.007615 
1592.000000	64.994525 
1591.000000	64.985108 
1590.000000	64.979505 
1589.000000	64.977598 
1588.000000	64.978981 
1587.000000	64.982891 
1586.000000	64.988040 
1585.000000	64.992713 
1584.000000	64.995074 
1583.000000	64.993572 
1582.000000	64.987349 
1581.000000	64.976716 
1580.000000	64.963507 
1579.000000	64.950561 
1578.000000	64.941239 
1577.000000	64.938473 
1576.000000	64.944195 
1575.000000	64.958596 
1574.000000	64.980006 
1573.000000	65.005111 
1572.000000	65.029811 
1571.000000	65.049958 
1570.000000	65.061926 
1569.000000	65.063500 
1568.000000	65.054297 
1567.000000	65.035629 
1566.000000	65.010404 
1565.000000	64.982223 
1564.000000	64.955091 
1563.000000	64.932370 
1562.000000	64.916419 
1561.000000	64.908051 
1560.000000	64.906811 
1559.000000	64.911150 
1558.000000	64.919018 
1557.000000	64.928293 
1556.000000	64.937376 
1555.000000	64.945435 
1554.000000	64.952540 
1553.000000	64.959430 
1552.000000	64.966964 
1551.000000	64.976000 
1550.000000	64.987015 
1549.000000	64.999938 
1548.000000	65.014386 
1547.000000	65.029859 
1546.000000	65.046072 
1545.000000	65.063142 
1544.000000	65.081214 
1543.000000	65.100431 
1542.000000	65.120339 
1541.000000	65.140032 
1540.000000	65.157651 
1539.000000	65.171146 
1538.000000	65.178418 
1537.000000	65.178132 
1536.000000	65.170073 
1535.000000	65.155124 
1534.000000	65.135264 
1533.000000	65.113449 
1532.000000	65.092611 
1531.000000	65.075230 
1530.000000	65.062904 
1529.000000	65.056061 
1528.000000	65.054178 
1527.000000	65.056109 
1526.000000	65.060091 
1525.000000	65.064287 
1524.000000	65.066981 
1523.000000	65.066957 
1522.000000	65.063261 
1521.000000	65.055465 
1520.000000	65.043711 
1519.000000	65.028858 
1518.000000	65.012407 
1517.000000	64.996647 
1516.000000	64.984345 
1515.000000	64.978432 
1514.000000	64.981317 
1513.000000	64.994168 
1512.000000	65.016889 
1511.000000	65.047717 
1510.000000	65.083551 
1509.000000	65.120577 
1508.000000	65.155005 
1507.000000	65.183615 
1506.000000	65.204477 
1505.000000	65.216517 
1504.000000	65.219593 
1503.000000	65.213894 
1502.000000	65.199828 
1501.000000	65.177774 
1500.000000	65.148282 
1499.000000	65.112447 
1498.000000	65.072393 
1497.000000	65.031313 
1496.000000	64.993381 
1495.000000	64.962935 
1494.000000	64.943647 
1493.000000	64.937067 
1492.000000	64.942479 
1491.000000	64.956593 
1490.000000	64.974641 
1489.000000	64.991354 
1488.000000	65.002584 
1487.000000	65.006375 
1486.000000	65.003252 
1485.000000	64.995765 
1484.000000	64.987802 
1483.000000	64.982318 
1482.000000	64.981603 
1481.000000	64.986610 
1480.000000	64.996719 
1479.000000	65.010356 
1478.000000	65.025305 
1477.000000	65.039706 
1476.000000	65.051913 
1475.000000	65.060567 
1474.000000	65.064620 
1473.000000	65.063214 
1472.000000	65.055656 
1471.000000	65.041542 
1470.000000	65.021181 
1469.000000	64.996075 
1468.000000	64.969468 
1467.000000	64.946126 
1466.000000	64.932084 
1465.000000	64.932847 
1464.000000	64.952969 
1463.000000	64.993667 
1462.000000	65.052223 
1461.000000	65.121126 
1460.000000	65.189671 
1459.000000	65.245103 
1458.000000	65.275096 
1457.000000	65.270209 
1456.000000	65.226030 
1455.000000	65.144634 
1454.000000	65.034341 
1453.000000	64.908218 
1452.000000	64.781880 
1451.000000	64.669990 
1450.000000	64.583587 
1449.000000	64.528322 
1448.000000	64.504098 
1447.000000	64.506268 
1446.000000	64.527511 
1445.000000	64.559864 
1444.000000	64.596676 
1443.000000	64.633417 
1442.000000	64.668035 
1441.000000	64.699792 
1440.000000	64.728999 
1439.000000	64.756035 
1438.000000	64.781165 
1437.000000	64.804506 
1436.000000	64.826107 
1435.000000	64.846491 
1434.000000	64.866209 
1433.000000	64.886116 
1432.000000	64.906740 
1431.000000	64.928221 
1430.000000	64.949846 
1429.000000	64.970231 
1428.000000	64.987850 
1427.000000	65.001463 
1426.000000	65.010547 
1425.000000	65.015792 
1424.000000	65.018796 
1423.000000	65.021800 
1422.000000	65.026855 
1421.000000	65.035533 
1420.000000	65.047907 
1419.000000	65.062594 
1418.000000	65.077543 
1417.000000	65.090727 
1416.000000	65.100932 
1415.000000	65.108180 
1414.000000	65.113759 
1413.000000	65.119743 
1412.000000	65.128111 
1411.000000	65.139818 
1410.000000	65.154266 
1409.000000	65.169072 
1408.000000	65.180778 
1407.000000	65.185952 
1406.000000	65.182232 
1405.000000	65.169286 
1404.000000	65.149402 
1403.000000	65.126633 
1402.000000	65.105819 
1401.000000	65.091085 
1400.000000	65.085053 
1399.000000	65.087699 
1398.000000	65.096426 
1397.000000	65.107083 
1396.000000	65.115475 
1395.000000	65.118241 
1394.000000	65.113902 
1393.000000	65.102934 
1392.000000	65.087270 
1391.000000	65.069389 
1390.000000	65.051484 
1389.000000	65.034937 
1388.000000	65.020489 
1387.000000	65.008473 
1386.000000	64.999318 
1385.000000	64.994406 
1384.000000	64.995574 
1383.000000	65.005183 
1382.000000	65.024876 
1381.000000	65.054678 
1380.000000	65.092277 
1379.000000	65.133285 
1378.000000	65.171360 
1377.000000	65.199780 
1376.000000	65.212726 
1375.000000	65.206933 
1374.000000	65.181970 
1373.000000	65.140581 
1372.000000	65.087723 
1371.000000	65.029788 
1370.000000	64.972996 
1369.000000	64.922308 
1368.000000	64.880824 
1367.000000	64.849901 
1366.000000	64.829301 
1365.000000	64.818048 
1364.000000	64.814567 
1363.000000	64.817357 
1362.000000	64.825010 
1361.000000	64.836215 
1360.000000	64.849662 
1359.000000	64.864087 
1358.000000	64.878582 
1357.000000	64.892697 
1356.000000	64.906764 
1355.000000	64.921760 
1354.000000	64.938855 
1353.000000	64.958882 
1352.000000	64.981985 
1351.000000	65.007424 
1350.000000	65.033650 
1349.000000	65.058636 
1348.000000	65.080404 
1347.000000	65.097641 
1346.000000	65.110182 
1345.000000	65.118718 
1344.000000	65.124845 
1343.000000	65.129852 
1342.000000	65.134429 
1341.000000	65.137910 
1340.000000	65.138769 
1339.000000	65.134382 
1338.000000	65.122032 
1337.000000	65.100026 
1336.000000	65.068364 
1335.000000	65.028786 
1334.000000	64.984631 
1333.000000	64.940214 
1332.000000	64.900112 
1331.000000	64.868211 
1330.000000	64.847135 
1329.000000	64.837813 
1328.000000	64.839363 
1327.000000	64.849686 
1326.000000	64.865708 
1325.000000	64.883685 
1324.000000	64.900279 
1323.000000	64.912414 
1322.000000	64.918160 
1321.000000	64.916133 
1320.000000	64.906430 
1319.000000	64.890241 
1318.000000	64.869952 
1317.000000	64.848518 
1316.000000	64.829349 
1315.000000	64.815497 
1314.000000	64.809393 
1313.000000	64.812207 
1312.000000	64.823603 
1311.000000	64.841866 
1310.000000	64.864277 
1309.000000	64.887881 
1308.000000	64.910006 
1307.000000	64.928960 
1306.000000	64.944076 
1305.000000	64.955854 
1304.000000	64.965629 
1303.000000	64.974904 
1302.000000	64.984869 
1301.000000	64.995861 
1300.000000	65.007328 
1299.000000	65.017843 
1298.000000	65.025615 
1297.000000	65.028595 
1296.000000	65.025210 
1295.000000	65.014576 
1294.000000	64.996743 
1293.000000	64.973163 
1292.000000	64.946126 
1291.000000	64.919137 
1290.000000	64.895987 
1289.000000	64.880776 
1288.000000	64.877080 
1287.000000	64.887285 
1286.000000	64.912343 
1285.000000	64.951014 
1284.000000	65.000104 
1283.000000	65.054392 
1282.000000	65.107607 
1281.000000	65.153241 
1280.000000	65.185499 
1279.000000	65.200209 
1278.000000	65.195393 
1277.000000	65.171575 
1276.000000	65.131545 
1275.000000	65.079665 
1274.000000	65.021157 
1273.000000	64.961528 
1272.000000	64.905858 
1271.000000	64.858198 
1270.000000	64.821577 
1269.000000	64.797925 
1268.000000	64.787912 
1267.000000	64.791154 
1266.000000	64.806151 
1265.000000	64.830470 
1264.000000	64.860939 
1263.000000	64.893651 
1262.000000	64.924812 
1261.000000	64.951014 
1260.000000	64.969897 
1259.000000	64.980483 
1258.000000	64.983177 
1257.000000	64.979696 
1256.000000	64.972615 
1255.000000	64.964580 
1254.000000	64.957785 
1253.000000	64.953398 
1252.000000	64.951372 
1251.000000	64.950537 
1250.000000	64.949154 
1249.000000	64.945268 
1248.000000	64.937567 
1247.000000	64.925646 
1246.000000	64.910244 
1245.000000	64.893221 
1244.000000	64.877009 
1243.000000	64.864110 
1242.000000	64.856290 
1241.000000	64.854192 
1240.000000	64.857482 
1239.000000	64.864492 
1238.000000	64.872789 
1237.000000	64.879560 
1236.000000	64.882421 
1235.000000	64.879918 
1234.000000	64.871668 
1233.000000	64.858365 
1232.000000	64.841461 
1231.000000	64.823293 
1230.000000	64.806485 
1229.000000	64.793229 
1228.000000	64.784932 
1227.000000	64.782166 
1226.000000	64.784622 
1225.000000	64.791011 
1224.000000	64.799594 
1223.000000	64.808583 
1222.000000	64.816570 
1221.000000	64.822936 
1220.000000	64.827919 
1219.000000	64.832377 
1218.000000	64.837861 
1217.000000	64.845895 
1216.000000	64.857912 
1215.000000	64.874529 
1214.000000	64.895558 
1213.000000	64.920282 
1212.000000	64.946961 
1211.000000	64.973449 
1210.000000	64.997363 
1209.000000	65.016627 
1208.000000	65.029072 
1207.000000	65.032982 
1206.000000	65.026879 
1205.000000	65.009999 
1204.000000	64.982390 
1203.000000	64.945220 
1202.000000	64.900660 
1201.000000	64.851832 
1200.000000	64.802122 
1199.000000	64.755010 
1198.000000	64.713287 
1197.000000	64.679002 
1196.000000	64.653491 
1195.000000	64.637541 
1194.000000	64.631104 
1193.000000	64.633893 
1192.000000	64.644813 
1191.000000	64.662718 
1190.000000	64.685535 
1189.000000	64.711141 
1188.000000	64.737272 
1187.000000	64.762234 
1186.000000	64.784836 
1185.000000	64.804387 
1184.000000	64.820742 
1183.000000	64.833927 
1182.000000	64.843988 
1181.000000	64.850759 
1180.000000	64.853811 
1179.000000	64.852547 
1178.000000	64.846491 
1177.000000	64.835572 
1176.000000	64.820122 
1175.000000	64.801216 
1174.000000	64.780426 
1173.000000	64.759135 
1172.000000	64.738392 
1171.000000	64.718675 
1170.000000	64.699888 
1169.000000	64.681124 
1168.000000	64.661574 
1167.000000	64.640569 
1166.000000	64.618325 
1165.000000	64.595723 
1164.000000	64.574837 
1163.000000	64.557981 
1162.000000	64.547729 
1161.000000	64.546155 
1160.000000	64.554476 
1159.000000	64.572381 
1158.000000	64.598321 
1157.000000	64.629507 
1156.000000	64.662361 
1155.000000	64.692878 
1154.000000	64.717531 
1153.000000	64.733552 
1152.000000	64.739727 
1151.000000	64.736461 
1150.000000	64.725852 
1149.000000	64.711189 
1148.000000	64.696550 
1147.000000	64.685940 
1146.000000	64.682221 
1145.000000	64.686107 
1144.000000	64.696502 
1143.000000	64.710497 
1142.000000	64.724159 
1141.000000	64.733314 
1140.000000	64.735245 
1139.000000	64.728856 
1138.000000	64.715003 
1137.000000	64.696168 
1136.000000	64.675736 
1135.000000	64.657163 
1134.000000	64.642858 
1133.000000	64.634060 
1132.000000	64.630317 
1131.000000	64.630341 
1130.000000	64.632320 
1129.000000	64.634799 
1128.000000	64.637088 
1127.000000	64.639687 
1126.000000	64.644289 
1125.000000	64.653062 
1124.000000	64.667654 
1123.000000	64.689207 
1122.000000	64.717745 
1121.000000	64.752030 
1120.000000	64.789795 
1119.000000	64.828443 
1118.000000	64.865684 
1117.000000	64.899897 
1116.000000	64.930415 
1115.000000	64.957594 
1114.000000	64.982533 
1113.000000	65.006685 
1112.000000	65.031385 
1111.000000	65.057206 
1110.000000	65.083646 
1109.000000	65.109658 
1108.000000	65.133261 
1107.000000	65.152478 
1106.000000	65.164995 
1105.000000	65.169310 
1104.000000	65.164136 
1103.000000	65.148830 
1102.000000	65.123152 
1101.000000	65.087628 
1100.000000	65.043210 
1099.000000	64.991831 
1098.000000	64.935874 
1097.000000	64.878368 
1096.000000	64.822101 
1095.000000	64.769506 
1094.000000	64.721941 
1093.000000	64.679670 
1092.000000	64.641976 
1091.000000	64.607691 
1090.000000	64.575672 
1089.000000	64.545655 
1088.000000	64.518666 
1087.000000	64.497351 
1086.000000	64.484977 
1085.000000	64.485001 
1084.000000	64.499902 
1083.000000	64.530277 
1082.000000	64.574027 
1081.000000	64.626407 
1080.000000	64.680719 
1079.000000	64.729332 
1078.000000	64.765095 
1077.000000	64.782881 
1076.000000	64.780211 
1075.000000	64.758205 
1074.000000	64.720892 
1073.000000	64.674901 
1072.000000	64.627933 
1071.000000	64.587545 
1070.000000	64.559793 
1069.000000	64.548158 
1068.000000	64.553403 
1067.000000	64.573407 
1066.000000	64.604091 
1065.000000	64.640378 
1064.000000	64.677429 
1063.000000	64.711403 
1062.000000	64.740276 
1061.000000	64.763545 
1060.000000	64.782238 
1059.000000	64.798045 
1058.000000	64.812684 
1057.000000	64.827179 
1056.000000	64.841628 
1055.000000	64.855384 
1054.000000	64.867329 
1053.000000	64.876437 
1052.000000	64.882230 
1051.000000	64.885354 
1050.000000	64.886975 
1049.000000	64.888715 
1048.000000	64.891457 
1047.000000	64.895629 
1046.000000	64.900207 
1045.000000	64.903068 
1044.000000	64.901161 
1043.000000	64.891672 
1042.000000	64.872455 
1041.000000	64.842724 
1040.000000	64.803338 
1039.000000	64.757037 
1038.000000	64.707922 
1037.000000	64.660882 
1036.000000	64.620661 
1035.000000	64.590907 
1034.000000	64.573454 
1033.000000	64.568305 
1032.000000	64.573073 
1031.000000	64.584302 
1030.000000	64.597964 
1029.000000	64.611101 
1028.000000	64.621257 
1027.000000	64.628100 
1026.000000	64.632821 
1025.000000	64.638566 
1024.000000	64.648747 
1023.000000	64.667272 
1022.000000	64.697408 
1021.000000	64.741015 
1020.000000	64.798235 
1019.000000	64.866614 
1018.000000	64.941477 
1017.000000	65.015983 
1016.000000	65.082263 
1015.000000	65.132451 
1014.000000	65.160489 
1013.000000	65.163230 
1012.000000	65.141320 
1011.000000	65.099668 
1010.000000	65.046381 
1009.000000	64.991807 
1008.000000	64.945626 
1007.000000	64.914941 
1006.000000	64.902091 
1005.000000	64.904880 
1004.000000	64.916658 
1003.000000	64.928221 
1002.000000	64.930343 
1001.000000	64.916372 
1000.000000	64.883875 
999.000000	 64.835143 
998.000000	 64.776778 
997.000000	 64.717459 
996.000000	 64.666223 
995.000000	 64.630174 
994.000000	 64.612531 
993.000000	 64.612388 
992.000000	 64.624381 
991.000000	 64.640545 
990.000000	 64.651846 
989.000000	 64.650893 
988.000000	 64.632940 
987.000000	 64.597129 
986.000000	 64.546346 
985.000000	 64.486455 
984.000000	 64.425277 
983.000000	 64.370965 
982.000000	 64.330196 
981.000000	 64.307022 
980.000000	 64.301943 
979.000000	 64.312338 
978.000000	 64.333391 
977.000000	 64.359450 
976.000000	 64.385390 
975.000000	 64.407801 
974.000000	 64.425468 
973.000000	 64.439201 
972.000000	 64.449977 
971.000000	 64.459180 
970.000000	 64.466643 
969.000000	 64.471960 
968.000000	 64.474678 
967.000000	 64.475679 
966.000000	 64.477300 
965.000000	 64.483976 
964.000000	 64.501571 
963.000000	 64.535450 
962.000000	 64.589023 
961.000000	 64.661431 
960.000000	 64.747166 
959.000000	 64.836549 
958.000000	 64.917874 
957.000000	 64.980030 
956.000000	 65.015435 
955.000000	 65.022349 
954.000000	 65.005159 
953.000000	 64.972901 
952.000000	 64.936709 
951.000000	 64.907240 
950.000000	 64.891743 
949.000000	 64.893126 
948.000000	 64.909029 
947.000000	 64.934325 
946.000000	 64.961099 
945.000000	 64.982509 
944.000000	 64.992213 
943.000000	 64.986324 
942.000000	 64.962863 
941.000000	 64.921641 
940.000000	 64.864063 
939.000000	 64.791679 
938.000000	 64.707922 
937.000000	 64.617776 
936.000000	 64.528369 
935.000000	 64.448070 
934.000000	 64.386296 
933.000000	 64.351916 
932.000000	 64.350962 
931.000000	 64.385223 
930.000000	 64.451456 
929.000000	 64.541697 
928.000000	 64.644408 
927.000000	 64.746618 
926.000000	 64.835977 
925.000000	 64.903259 
924.000000	 64.943599 
923.000000	 64.956951 
922.000000	 64.947628 
921.000000	 64.922380 
920.000000	 64.889359 
919.000000	 64.855003 
918.000000	 64.823603 
917.000000	 64.795684 
916.000000	 64.769840 
915.000000	 64.742088 
914.000000	 64.708495 
913.000000	 64.665436 
912.000000	 64.611387 
911.000000	 64.546990 
910.000000	 64.475035 
909.000000	 64.399981 
908.000000	 64.326643 
907.000000	 64.260005 
906.000000	 64.203929 
905.000000	 64.161729 
904.000000	 64.135909 
903.000000	 64.129137 
902.000000	 64.144039 
901.000000	 64.182662 
900.000000	 64.245533 
899.000000	 64.330148 
898.000000	 64.430451 
897.000000	 64.536380 
896.000000	 64.635562 
895.000000	 64.715647 
894.000000	 64.766931 
893.000000	 64.784312 
892.000000	 64.768576 
891.000000	 64.726495 
890.000000	 64.668655 
889.000000	 64.607381 
888.000000	 64.553236 
887.000000	 64.512825 
886.000000	 64.487552 
885.000000	 64.474725 
884.000000	 64.468479 
883.000000	 64.462780 
882.000000	 64.452719 
881.000000	 64.436841 
880.000000	 64.415526 
879.000000	 64.390444 
878.000000	 64.363574 
877.000000	 64.336037 
876.000000	 64.308238 
875.000000	 64.280009 
874.000000	 64.251971 
873.000000	 64.225721 
872.000000	 64.203810 
871.000000	 64.189028 
870.000000	 64.183211 
869.000000	 64.186668 
868.000000	 64.197444 
867.000000	 64.211821 
866.000000	 64.225029 
865.000000	 64.232063 
864.000000	 64.229583 
863.000000	 64.216041 
862.000000	 64.192104 
861.000000	 64.160013 
860.000000	 64.122629 
859.000000	 64.083266 
858.000000	 64.044284 
857.000000	 64.008522 
856.000000	 63.978600 
855.000000	 63.958048 
854.000000	 63.951182 
853.000000	 63.961648 
852.000000	 63.991594 
851.000000	 64.040207 
850.000000	 64.103031 
849.000000	 64.172315 
848.000000	 64.238333 
847.000000	 64.291405 
846.000000	 64.323973 
845.000000	 64.332747 
844.000000	 64.319610 
843.000000	 64.290904 
842.000000	 64.255976 
841.000000	 64.224863 
840.000000	 64.205813 
839.000000	 64.203834 
838.000000	 64.219403 
837.000000	 64.249348 
836.000000	 64.287328 
835.000000	 64.326834 
834.000000	 64.361548 
833.000000	 64.386701 
832.000000	 64.399695 
831.000000	 64.399790 
830.000000	 64.388227 
829.000000	 64.367389 
828.000000	 64.340639 
827.000000	 64.311766 
826.000000	 64.284491 
825.000000	 64.262127 
824.000000	 64.246726 
823.000000	 64.238643 
822.000000	 64.235997 
821.000000	 64.234924 
820.000000	 64.230036 
819.000000	 64.215779 
818.000000	 64.187312 
817.000000	 64.142584 
816.000000	 64.082717 
815.000000	 64.012980 
814.000000	 63.941836 
813.000000	 63.879871 
812.000000	 63.837289 
811.000000	 63.821911 
810.000000	 63.837361 
809.000000	 63.882279 
808.000000	 63.950777 
807.000000	 64.033317 
806.000000	 64.118766 
805.000000	 64.196133 
804.000000	 64.256381 
803.000000	 64.293074 
802.000000	 64.302945 
801.000000	 64.285373 
800.000000	 64.241814 
799.000000	 64.175820 
798.000000	 64.092445 
797.000000	 63.998651 
796.000000	 63.903093 
795.000000	 63.815927 
794.000000	 63.747763 
793.000000	 63.708329 
792.000000	 63.704442 
791.000000	 63.737702 
790.000000	 63.804101 
789.000000	 63.893890 
788.000000	 63.993811 
787.000000	 64.089131 
786.000000	 64.167356 
785.000000	 64.219856 
784.000000	 64.244055 
783.000000	 64.243006 
782.000000	 64.224243 
781.000000	 64.196610 
780.000000	 64.168310 
779.000000	 64.145255 
778.000000	 64.129781 
777.000000	 64.121055 
776.000000	 64.115738 
775.000000	 64.110851 
774.000000	 64.103317 
773.000000	 64.091944 
772.000000	 64.076209 
771.000000	 64.056468 
770.000000	 64.033293 
769.000000	 64.007186 
768.000000	 63.979506 
767.000000	 63.952565 
766.000000	 63.930988 
765.000000	 63.920855 
764.000000	 63.928341 
763.000000	 63.957166 
762.000000	 64.008116 
761.000000	 64.076185 
760.000000	 64.150929 
759.000000	 64.216709 
758.000000	 64.256572 
757.000000	 64.254903 
756.000000	 64.201664 
755.000000	 64.094424 
754.000000	 63.939476 
753.000000	 63.750529 
752.000000	 63.545870 
751.000000	 63.345170 
750.000000	 63.165545 
749.000000	 63.019895 
748.000000	 62.915396 
747.000000	 62.853884 
746.000000	 62.832832 
745.000000	 62.846827 
744.000000	 62.889313 
743.000000	 62.953448 
742.000000	 63.032460 
741.000000	 63.121318 
740.000000	 63.216662 
739.000000	 63.316035 
738.000000	 63.417649 
737.000000	 63.519930 
736.000000	 63.620567 
735.000000	 63.716316 
734.000000	 63.802742 
733.000000	 63.874697 
732.000000	 63.927507 
731.000000	 63.958573 
730.000000	 63.968157 
729.000000	 63.960409 
728.000000	 63.942217 
727.000000	 63.923525 
726.000000	 63.913154 
725.000000	 63.917517 
724.000000	 63.937544 
723.000000	 63.969421 
722.000000	 64.004349 
721.000000	 64.031100 
720.000000	 64.039278 
719.000000	 64.022469 
718.000000	 63.979315 
717.000000	 63.913893 
716.000000	 63.834095 
715.000000	 63.749480 
714.000000	 63.668560 
713.000000	 63.596749 
712.000000	 63.535165 
711.000000	 63.481330 
710.000000	 63.431286 
709.000000	 63.382124 
708.000000	 63.332819 
707.000000	 63.286471 
706.000000	 63.249802 
705.000000	 63.232159 
704.000000	 63.241124 
703.000000	 63.281631 
702.000000	 63.353347 
701.000000	 63.450813 
700.000000	 63.563632 
699.000000	 63.678932 
698.000000	 63.784265 
697.000000	 63.869261 
696.000000	 63.928103 
695.000000	 63.958191 
694.000000	 63.960027 
693.000000	 63.935446 
692.000000	 63.887190 
691.000000	 63.817954 
690.000000	 63.730549 
689.000000	 63.629198 
688.000000	 63.520073 
687.000000	 63.411498 
686.000000	 63.312983 
685.000000	 63.233900 
684.000000	 63.181233 
683.000000	 63.157248 
682.000000	 63.158988 
681.000000	 63.178110 
680.000000	 63.203716 
679.000000	 63.224458 
678.000000	 63.232588 
677.000000	 63.224673 
676.000000	 63.203382 
675.000000	 63.175702 
674.000000	 63.151264 
673.000000	 63.138341 
672.000000	 63.142609 
671.000000	 63.165044 
670.000000	 63.202643 
669.000000	 63.249301 
668.000000	 63.298082 
667.000000	 63.343501 
666.000000	 63.382387 
665.000000	 63.414406 
664.000000	 63.441395 
663.000000	 63.466048 
662.000000	 63.490414 
661.000000	 63.514828 
660.000000	 63.537359 
659.000000	 63.553953 
658.000000	 63.560628 
657.000000	 63.554167 
656.000000	 63.532900 
655.000000	 63.496541 
654.000000	 63.447070 
653.000000	 63.387393 
652.000000	 63.320446 
651.000000	 63.248944 
650.000000	 63.174748 
649.000000	 63.099598 
648.000000	 63.025999 
647.000000	 62.957358 
646.000000	 62.897419 
645.000000	 62.850522 
644.000000	 62.821269 
643.000000	 62.812876 
642.000000	 62.825298 
641.000000	 62.856006 
640.000000	 62.899613 
639.000000	 62.949681 
638.000000	 62.999033 
637.000000	 63.042783 
636.000000	 63.078808 
635.000000	 63.108706 
634.000000	 63.136696 
633.000000	 63.168215 
632.000000	 63.207530 
631.000000	 63.256549 
630.000000	 63.313555 
629.000000	 63.373541 
628.000000	 63.428711 
627.000000	 63.471221 
626.000000	 63.493466 
625.000000	 63.490843 
624.000000	 63.460755 
623.000000	 63.404583 
622.000000	 63.324999 
621.000000	 63.225913 
620.000000	 63.110685 
619.000000	 62.982892 
618.000000	 62.845110 
617.000000	 62.699675 
616.000000	 62.549614 
615.000000	 62.399268 
614.000000	 62.255764 
613.000000	 62.127804 
612.000000	 62.026381 
611.000000	 61.961960 
610.000000	 61.943817 
609.000000	 61.977124 
608.000000	 62.061762 
607.000000	 62.190818 
606.000000	 62.351727 
605.000000	 62.527513 
604.000000	 62.698316 
603.000000	 62.844944 
602.000000	 62.952089 
601.000000	 63.011193 
600.000000	 63.021278 
599.000000	 62.988996 
598.000000	 62.927699 
597.000000	 62.853574 
596.000000	 62.783837 
595.000000	 62.731575 
594.000000	 62.704730 
593.000000	 62.703323 
592.000000	 62.722182 
591.000000	 62.751245 
590.000000	 62.779068 
589.000000	 62.796139 
588.000000	 62.797260 
587.000000	 62.783455 
586.000000	 62.760853 
585.000000	 62.739205 
584.000000	 62.728667 
583.000000	 62.735557 
582.000000	 62.760210 
581.000000	 62.796092 
580.000000	 62.831282 
579.000000	 62.850952 
578.000000	 62.841200 
577.000000	 62.792944 
576.000000	 62.704563 
575.000000	 62.582397 
574.000000	 62.439966 
573.000000	 62.293767 
572.000000	 62.160968 
571.000000	 62.056231 
570.000000	 61.989307 
569.000000	 61.963987 
568.000000	 61.977505 
567.000000	 62.022709 
566.000000	 62.088513 
565.000000	 62.162351 
564.000000	 62.231206 
563.000000	 62.283039 
562.000000	 62.308549 
561.000000	 62.301015 
560.000000	 62.258839 
559.000000	 62.184667 
558.000000	 62.086629 
557.000000	 61.976671 
556.000000	 61.869597 
555.000000	 61.780595 
554.000000	 61.722087 
553.000000	 61.701416 
552.000000	 61.718678 
551.000000	 61.766982 
550.000000	 61.833882 
549.000000	 61.904525 
548.000000	 61.964797 
547.000000	 62.005257 
546.000000	 62.022542 
545.000000	 62.019944 
544.000000	 62.005901 
543.000000	 61.990523 
542.000000	 61.982536 
541.000000	 61.985921 
540.000000	 61.998796 
539.000000	 62.013959 
538.000000	 62.021827 
537.000000	 62.013173 
536.000000	 61.983251 
535.000000	 61.932611 
534.000000	 61.868000 
533.000000	 61.799407 
532.000000	 61.737680 
531.000000	 61.690616 
530.000000	 61.660504 
529.000000	 61.644196 
528.000000	 61.634302 
527.000000	 61.622524 
526.000000	 61.602640 
525.000000	 61.573648 
524.000000	 61.540222 
523.000000	 61.511087 
522.000000	 61.495709 
521.000000	 61.500501 
520.000000	 61.525940 
519.000000	 61.564588 
518.000000	 61.602711 
517.000000	 61.624741 
516.000000	 61.616969 
515.000000	 61.571979 
514.000000	 61.490273 
513.000000	 61.380028 
512.000000	 61.255192 
511.000000	 61.132049 
510.000000	 61.025619 
509.000000	 60.945415 
508.000000	 60.895562 
507.000000	 60.875415 
506.000000	 60.879945 
505.000000	 60.902023 
504.000000	 60.933589 
503.000000	 60.967993 
502.000000	 60.998630 
501.000000	 61.019086 
500.000000	 61.023068 
499.000000	 61.004686 
498.000000	 60.958433 
497.000000	 60.880422 
496.000000	 60.769987 
495.000000	 60.630178 
494.000000	 60.468101 
493.000000	 60.294151 
492.000000	 60.119104 
491.000000	 59.954428 
490.000000	 59.810686 
489.000000	 59.698581 
488.000000	 59.624910 
487.000000	 59.596323 
486.000000	 59.617304 
485.000000	 59.691786 
484.000000	 59.819626 
483.000000	 59.998011 
482.000000	 60.218739 
481.000000	 60.469555 
480.000000	 60.732865 
479.000000	 60.989570 
478.000000	 61.220431 
477.000000	 61.410284 
476.000000	 61.549663 
475.000000	 61.637234 
474.000000	 61.679315 
473.000000	 61.688256 
472.000000	 61.678957 
471.000000	 61.664485 
470.000000	 61.651325 
469.000000	 61.639595 
468.000000	 61.620998 
467.000000	 61.579918 
466.000000	 61.496663 
465.000000	 61.354970 
464.000000	 61.146044 
463.000000	 60.870242 
462.000000	 60.540628 
461.000000	 60.182428 
460.000000	 59.829115 
459.000000	 59.515571 
458.000000	 59.271693 
457.000000	 59.117364 
456.000000	 59.057044 
455.000000	 59.080004 
454.000000	 59.161162 
453.000000	 59.265589 
452.000000	 59.357452 
451.000000	 59.407567 
450.000000	 59.398412 
449.000000	 59.322667 
448.000000	 59.193038 
447.000000	 59.039211 
446.000000	 58.894515 
445.000000	 58.786606 
444.000000	 58.740258 
443.000000	 58.772349 
442.000000	 58.884859 
441.000000	 59.067893 
440.000000	 59.304046 
439.000000	 59.573984 
438.000000	 59.864187 
437.000000	 60.167050 
436.000000	 60.474348 
435.000000	 60.777950 
434.000000	 61.073923 
433.000000	 61.354422 
432.000000	 61.600017 
431.000000	 61.787581 
430.000000	 61.903452 
429.000000	 61.937451 
428.000000	 61.891150 
427.000000	 61.769080 
426.000000	 61.590385 
425.000000	 61.360096 
424.000000	 61.080741 
423.000000	 60.718798 
422.000000	 60.213637 
421.000000	 59.490895 
420.000000	 58.493161 
419.000000	 57.181119 
418.000000	 55.557560 
417.000000	 53.685474 
416.000000	 51.694583 
415.000000	 49.757957 
414.000000	 48.077869 
413.000000	 46.850252 
412.000000	 46.241116 
411.000000	 46.347332 
410.000000	 47.191905 
409.000000	 48.696994 
408.000000	 50.722575 
407.000000	 53.073358 
406.000000	 55.555248 
405.000000	 57.994890 
404.000000	 60.265040 
403.000000	 62.296366 
402.000000	 64.040112 
401.000000	 65.475797 
400.000000	 66.535401 
399.000000	 67.126250 
398.000000	 67.088365 
397.000000	 66.256618 
396.000000	 64.478611 
395.000000	 61.698198 
394.000000	 57.972192 
393.000000	 53.508281 
392.000000	 48.635339 
391.000000	 43.767666 
390.000000	 39.353632 
389.000000	 35.806775 
388.000000	 33.418130 
387.000000	 32.326531 
386.000000	 32.483553 
385.000000	 33.708190 
384.000000	 35.723423 
383.000000	 38.247489 
382.000000	 41.029763 
381.000000	 43.886876 
380.000000	 46.728777 
379.000000	 49.488615 
378.000000	 51.983952 
377.000000	 53.987455 
376.000000	 55.322337 
375.000000	 55.811071 
374.000000	 55.287003 
373.000000	 53.702306 
372.000000	 51.158738 
371.000000	 47.962594 
370.000000	 44.634795 

