PE IR       SPECTRUM    SPECTRUM    ASCII       PEDS        1.60        
  -1
C-1BEF~1.ASC
17/03/27
17:30:04.00
17/03/27
17:30:04.00
tln
$C-4040-8_t0037$<tbV0>[5.2,-5.2,8.0,0.0,27,1,0]
370.000000
64









2002,4.07    
MIRTGS : RIGHTBACK : INTERNAL 2
MIR : ON : INTERNAL 2
OPTKBR

0.200000
8
8.000000
FILLER
RATIO
SPECTRUM
UNLOCKED 256

DOUBLE
64
COMBINED
1
0
0


1.000000
RATIO


1
0
TRUE
51149
0
LEFT NOT FITTED RIGHT NOT FITTED 0
NONE
NONE
15600
12.000000
4.427000
51148
TRUE
1 0 8 72 0 0 0 0 

15798.010000






#HDR
-1
-1
#GR
CM-1
%T
0.00002384185791015625
0.0
5000.000000
-1.000000
4631
8
65.117239
-5.736422
#DATA
5000.000000	63.031101 
4999.000000	63.054895 
4998.000000	63.081288 
4997.000000	63.106012 
4996.000000	63.125157 
4995.000000	63.136339 
4994.000000	63.137888 
4993.000000	63.129186 
4992.000000	63.109374 
4991.000000	63.077592 
4990.000000	63.032484 
4989.000000	62.972688 
4988.000000	62.898087 
4987.000000	62.810564 
4986.000000	62.715005 
4985.000000	62.619113 
4984.000000	62.532567 
4983.000000	62.465214 
4982.000000	62.424921 
4981.000000	62.415790 
4980.000000	62.437081 
4979.000000	62.483406 
4978.000000	62.545228 
4977.000000	62.611293 
4976.000000	62.670898 
4975.000000	62.716436 
4974.000000	62.744116 
4973.000000	62.754988 
4972.000000	62.753415 
4971.000000	62.745952 
4970.000000	62.739372 
4969.000000	62.739229 
4968.000000	62.749123 
4967.000000	62.769937 
4966.000000	62.800574 
4965.000000	62.838149 
4964.000000	62.879848 
4963.000000	62.922930 
4962.000000	62.965512 
4961.000000	63.006758 
4960.000000	63.046598 
4959.000000	63.085341 
4958.000000	63.123250 
4957.000000	63.159036 
4956.000000	63.189458 
4955.000000	63.209867 
4954.000000	63.215255 
4953.000000	63.200879 
4952.000000	63.164234 
4951.000000	63.106298 
4950.000000	63.032341 
4949.000000	62.951207 
4948.000000	62.873888 
4947.000000	62.812209 
4946.000000	62.775516 
4945.000000	62.769198 
4944.000000	62.792325 
4943.000000	62.838006 
4942.000000	62.894225 
4941.000000	62.946271 
4940.000000	62.980055 
4939.000000	62.984442 
4938.000000	62.954854 
4937.000000	62.893342 
4936.000000	62.809324 
4935.000000	62.716674 
4934.000000	62.631869 
4933.000000	62.569785 
4932.000000	62.540721 
4931.000000	62.548398 
4930.000000	62.588596 
4929.000000	62.650823 
4928.000000	62.720394 
4927.000000	62.782645 
4926.000000	62.826371 
4925.000000	62.846922 
4924.000000	62.846851 
4923.000000	62.835216 
4922.000000	62.824392 
4921.000000	62.826490 
4920.000000	62.849926 
4919.000000	62.896609 
4918.000000	62.961673 
4917.000000	63.034391 
4916.000000	63.102102 
4915.000000	63.152551 
4914.000000	63.177847 
4913.000000	63.175988 
4912.000000	63.151311 
4911.000000	63.112902 
4910.000000	63.071370 
4909.000000	63.036775 
4908.000000	63.015723 
4907.000000	63.010907 
4906.000000	63.020992 
4905.000000	63.042163 
4904.000000	63.070154 
4903.000000	63.101339 
4902.000000	63.133835 
4901.000000	63.167309 
4900.000000	63.202404 
4899.000000	63.239955 
4898.000000	63.280057 
4897.000000	63.321399 
4896.000000	63.360953 
4895.000000	63.395237 
4894.000000	63.420343 
4893.000000	63.433051 
4892.000000	63.431143 
4891.000000	63.414597 
4890.000000	63.385462 
4889.000000	63.346934 
4888.000000	63.304162 
4887.000000	63.263344 
4886.000000	63.231754 
4885.000000	63.215851 
4884.000000	63.221096 
4883.000000	63.251185 
4882.000000	63.306260 
4881.000000	63.382959 
4880.000000	63.473343 
4879.000000	63.566040 
4878.000000	63.647627 
4877.000000	63.705182 
4876.000000	63.728237 
4875.000000	63.710975 
4874.000000	63.653779 
4873.000000	63.563394 
4872.000000	63.451957 
4871.000000	63.334393 
4870.000000	63.225960 
4869.000000	63.138175 
4868.000000	63.077545 
4867.000000	63.043379 
4866.000000	63.029146 
4865.000000	63.023519 
4864.000000	63.013505 
4863.000000	62.987828 
4862.000000	62.938809 
4861.000000	62.865233 
4860.000000	62.770938 
4859.000000	62.666058 
4858.000000	62.562966 
4857.000000	62.475538 
4856.000000	62.415432 
4855.000000	62.390947 
4854.000000	62.405371 
4853.000000	62.456536 
4852.000000	62.537431 
4851.000000	62.637400 
4850.000000	62.743902 
4849.000000	62.844657 
4848.000000	62.929368 
4847.000000	62.990593 
4846.000000	63.024473 
4845.000000	63.031053 
4844.000000	63.013577 
4843.000000	62.977552 
4842.000000	62.929320 
4841.000000	62.875103 
4840.000000	62.820172 
4839.000000	62.769293 
4838.000000	62.726259 
4837.000000	62.694334 
4836.000000	62.676191 
4835.000000	62.674236 
4834.000000	62.690019 
4833.000000	62.723326 
4832.000000	62.771940 
4831.000000	62.831139 
4830.000000	62.895011 
4829.000000	62.957000 
4828.000000	63.011741 
4827.000000	63.055706 
4826.000000	63.087749 
4825.000000	63.108825 
4824.000000	63.121294 
4823.000000	63.127946 
4822.000000	63.130736 
4821.000000	63.130116 
4820.000000	63.124775 
4819.000000	63.112330 
4818.000000	63.090825 
4817.000000	63.059568 
4816.000000	63.019752 
4815.000000	62.974524 
4814.000000	62.929034 
4813.000000	62.888860 
4812.000000	62.858724 
4811.000000	62.841224 
4810.000000	62.836718 
4809.000000	62.842798 
4808.000000	62.855410 
4807.000000	62.869143 
4806.000000	62.878203 
4805.000000	62.877726 
4804.000000	62.864446 
4803.000000	62.837719 
4802.000000	62.799048 
4801.000000	62.752318 
4800.000000	62.702727 
4799.000000	62.655997 
4798.000000	62.616968 
4797.000000	62.588930 
4796.000000	62.572884 
4795.000000	62.567758 
4794.000000	62.570786 
4793.000000	62.578082 
4792.000000	62.585282 
4791.000000	62.588405 
4790.000000	62.584328 
4789.000000	62.570738 
4788.000000	62.546634 
4787.000000	62.511658 
4786.000000	62.466859 
4785.000000	62.414169 
4784.000000	62.357091 
4783.000000	62.300229 
4782.000000	62.249326 
4781.000000	62.210679 
4780.000000	62.189960 
4779.000000	62.190723 
4778.000000	62.214255 
4777.000000	62.258291 
4776.000000	62.318444 
4775.000000	62.388467 
4774.000000	62.461948 
4773.000000	62.533164 
4772.000000	62.597894 
4771.000000	62.653422 
4770.000000	62.698364 
4769.000000	62.732195 
4768.000000	62.754106 
4767.000000	62.762665 
4766.000000	62.756395 
4765.000000	62.734127 
4764.000000	62.695932 
4763.000000	62.643790 
4762.000000	62.581872 
4761.000000	62.516450 
4760.000000	62.454891 
4759.000000	62.404632 
4758.000000	62.371397 
4757.000000	62.358498 
4756.000000	62.366390 
4755.000000	62.392616 
4754.000000	62.432432 
4753.000000	62.479615 
4752.000000	62.527465 
4751.000000	62.570047 
4750.000000	62.602591 
4749.000000	62.622642 
4748.000000	62.629723 
4747.000000	62.626028 
4746.000000	62.615466 
4745.000000	62.603306 
4744.000000	62.594842 
4743.000000	62.594342 
4742.000000	62.604141 
4741.000000	62.623834 
4740.000000	62.650394 
4739.000000	62.678265 
4738.000000	62.700748 
4737.000000	62.711739 
4736.000000	62.707138 
4735.000000	62.685632 
4734.000000	62.649011 
4733.000000	62.601518 
4732.000000	62.548828 
4731.000000	62.496519 
4730.000000	62.448811 
4729.000000	62.407827 
4728.000000	62.373661 
4727.000000	62.345242 
4726.000000	62.321305 
4725.000000	62.300896 
4724.000000	62.284731 
4723.000000	62.274479 
4722.000000	62.273383 
4721.000000	62.284684 
4720.000000	62.311053 
4719.000000	62.352776 
4718.000000	62.407565 
4717.000000	62.470555 
4716.000000	62.534713 
4715.000000	62.592005 
4714.000000	62.634468 
4713.000000	62.655472 
4712.000000	62.650942 
4711.000000	62.620186 
4710.000000	62.565326 
4709.000000	62.491226 
4708.000000	62.404751 
4707.000000	62.313938 
4706.000000	62.226963 
4705.000000	62.150955 
4704.000000	62.091565 
4703.000000	62.052392 
4702.000000	62.034821 
4701.000000	62.038159 
4700.000000	62.059354 
4699.000000	62.094068 
4698.000000	62.136673 
4697.000000	62.181544 
4696.000000	62.223219 
4695.000000	62.257456 
4694.000000	62.281346 
4693.000000	62.293791 
4692.000000	62.295341 
4691.000000	62.288141 
4690.000000	62.275338 
4689.000000	62.260913 
4688.000000	62.249088 
4687.000000	62.243890 
4686.000000	62.248682 
4685.000000	62.266063 
4684.000000	62.297129 
4683.000000	62.341785 
4682.000000	62.398052 
4681.000000	62.462139 
4680.000000	62.528109 
4679.000000	62.588715 
4678.000000	62.635946 
4677.000000	62.662458 
4676.000000	62.662696 
4675.000000	62.634301 
4674.000000	62.578892 
4673.000000	62.502408 
4672.000000	62.413930 
4671.000000	62.324690 
4670.000000	62.245583 
4669.000000	62.185597 
4668.000000	62.149953 
4667.000000	62.139344 
4666.000000	62.150406 
4665.000000	62.176847 
4664.000000	62.211608 
4663.000000	62.248611 
4662.000000	62.284159 
4661.000000	62.316966 
4660.000000	62.347579 
4659.000000	62.376904 
4658.000000	62.404870 
4657.000000	62.429499 
4656.000000	62.447214 
4655.000000	62.453079 
4654.000000	62.442851 
4653.000000	62.413716 
4652.000000	62.365770 
4651.000000	62.301540 
4650.000000	62.226295 
4649.000000	62.146496 
4648.000000	62.068414 
4647.000000	61.997437 
4646.000000	61.936879 
4645.000000	61.888647 
4644.000000	61.853241 
4643.000000	61.830854 
4642.000000	61.821532 
4641.000000	61.825752 
4640.000000	61.843395 
4639.000000	61.874318 
4638.000000	61.917018 
4637.000000	61.969542 
4636.000000	62.028717 
4635.000000	62.091040 
4634.000000	62.152695 
4633.000000	62.209653 
4632.000000	62.258124 
4631.000000	62.294530 
4630.000000	62.316083 
4629.000000	62.321591 
4628.000000	62.312078 
4627.000000	62.291121 
4626.000000	62.264466 
4625.000000	62.239551 
4624.000000	62.223768 
4623.000000	62.223744 
4622.000000	62.243366 
4621.000000	62.283086 
4620.000000	62.339472 
4619.000000	62.406301 
4618.000000	62.475371 
4617.000000	62.538528 
4616.000000	62.588810 
4615.000000	62.621998 
4614.000000	62.636494 
4613.000000	62.633395 
4612.000000	62.615561 
4611.000000	62.586712 
4610.000000	62.551164 
4609.000000	62.513303 
4608.000000	62.477326 
4607.000000	62.447047 
4606.000000	62.425303 
4605.000000	62.414073 
4604.000000	62.413668 
4603.000000	62.422871 
4602.000000	62.439608 
4601.000000	62.461471 
4600.000000	62.486052 
4599.000000	62.511706 
4598.000000	62.537646 
4597.000000	62.563562 
4596.000000	62.589907 
4595.000000	62.616372 
4594.000000	62.641596 
4593.000000	62.662267 
4592.000000	62.674331 
4591.000000	62.672853 
4590.000000	62.653613 
4589.000000	62.613677 
4588.000000	62.552881 
4587.000000	62.473773 
4586.000000	62.381911 
4585.000000	62.284588 
4584.000000	62.189936 
4583.000000	62.105774 
4582.000000	62.038516 
4581.000000	61.992168 
4580.000000	61.968088 
4579.000000	61.964631 
4578.000000	61.977887 
4577.000000	62.002205 
4576.000000	62.031769 
4575.000000	62.061595 
4574.000000	62.089252 
4573.000000	62.114691 
4572.000000	62.140703 
4571.000000	62.172031 
4570.000000	62.213754 
4569.000000	62.269854 
4568.000000	62.341094 
4567.000000	62.424731 
4566.000000	62.513947 
4565.000000	62.599086 
4564.000000	62.669897 
4563.000000	62.717676 
4562.000000	62.737464 
4561.000000	62.729787 
4560.000000	62.700223 
4559.000000	62.658405 
4558.000000	62.615513 
4557.000000	62.581968 
4556.000000	62.564778 
4555.000000	62.566399 
4554.000000	62.584161 
4553.000000	62.611842 
4552.000000	62.640738 
4551.000000	62.662506 
4550.000000	62.670946 
4549.000000	62.663888 
4548.000000	62.643122 
4547.000000	62.613773 
4546.000000	62.582683 
4545.000000	62.556338 
4544.000000	62.538981 
4543.000000	62.531590 
4542.000000	62.531924 
4541.000000	62.535548 
4540.000000	62.537527 
4539.000000	62.534165 
4538.000000	62.524533 
4537.000000	62.510657 
4536.000000	62.497234 
4535.000000	62.489819 
4534.000000	62.492895 
4533.000000	62.507939 
4532.000000	62.532687 
4531.000000	62.560868 
4530.000000	62.583756 
4529.000000	62.592434 
4528.000000	62.580418 
4527.000000	62.545537 
4526.000000	62.490963 
4525.000000	62.424182 
4524.000000	62.355613 
4523.000000	62.296223 
4522.000000	62.255454 
4521.000000	62.239575 
4520.000000	62.251114 
4519.000000	62.288784 
4518.000000	62.348365 
4517.000000	62.423992 
4516.000000	62.509322 
4515.000000	62.597894 
4514.000000	62.684369 
4513.000000	62.764048 
4512.000000	62.833809 
4511.000000	62.891578 
4510.000000	62.936687 
4509.000000	62.969589 
4508.000000	62.991642 
4507.000000	63.005375 
4506.000000	63.013052 
4505.000000	63.017129 
4504.000000	63.018774 
4503.000000	63.018631 
4502.000000	63.016510 
4501.000000	63.012337 
4500.000000	63.006591 
4499.000000	63.000917 
4498.000000	62.997651 
4497.000000	62.999653 
4496.000000	63.009309 
4495.000000	63.027787 
4494.000000	63.054156 
4493.000000	63.085532 
4492.000000	63.117241 
4491.000000	63.144159 
4490.000000	63.161396 
4489.000000	63.166141 
4488.000000	63.158130 
4487.000000	63.140177 
4486.000000	63.117957 
4485.000000	63.098406 
4484.000000	63.088130 
4483.000000	63.091230 
4482.000000	63.109111 
4481.000000	63.138580 
4480.000000	63.173127 
4479.000000	63.204050 
4478.000000	63.222813 
4477.000000	63.223266 
4476.000000	63.203001 
4475.000000	63.164639 
4474.000000	63.115167 
4473.000000	63.064670 
4472.000000	63.023734 
4471.000000	63.001036 
4470.000000	63.001060 
4469.000000	63.023161 
4468.000000	63.061738 
4467.000000	63.107514 
4466.000000	63.149857 
4465.000000	63.179111 
4464.000000	63.189148 
4463.000000	63.178586 
4462.000000	63.150811 
4461.000000	63.112783 
4460.000000	63.073229 
4459.000000	63.040137 
4458.000000	63.018870 
4457.000000	63.011407 
4456.000000	63.015818 
4455.000000	63.027787 
4454.000000	63.041710 
4453.000000	63.053011 
4452.000000	63.058757 
4451.000000	63.057899 
4450.000000	63.051772 
4449.000000	63.042712 
4448.000000	63.034224 
4447.000000	63.029742 
4446.000000	63.032269 
4445.000000	63.043451 
4444.000000	63.063216 
4443.000000	63.089823 
4442.000000	63.120055 
4441.000000	63.150000 
4440.000000	63.175916 
4439.000000	63.194990 
4438.000000	63.205885 
4437.000000	63.208866 
4436.000000	63.204765 
4435.000000	63.195109 
4434.000000	63.181304 
4433.000000	63.164901 
4432.000000	63.147091 
4431.000000	63.129615 
4430.000000	63.114905 
4429.000000	63.105845 
4428.000000	63.104915 
4427.000000	63.113880 
4426.000000	63.133931 
4425.000000	63.164019 
4424.000000	63.200736 
4423.000000	63.238811 
4422.000000	63.271617 
4421.000000	63.293743 
4420.000000	63.302469 
4419.000000	63.298416 
4418.000000	63.285803 
4417.000000	63.268780 
4416.000000	63.250255 
4415.000000	63.230299 
4414.000000	63.206481 
4413.000000	63.178730 
4412.000000	63.149738 
4411.000000	63.125061 
4410.000000	63.111639 
4409.000000	63.114237 
4408.000000	63.135266 
4407.000000	63.172841 
4406.000000	63.223600 
4405.000000	63.282370 
4404.000000	63.346171 
4403.000000	63.417005 
4402.000000	63.498711 
4401.000000	63.598203 
4400.000000	63.717532 
4399.000000	63.847970 
4398.000000	63.974022 
4397.000000	64.078211 
4396.000000	64.143323 
4395.000000	64.150857 
4394.000000	64.102602 
4393.000000	64.027428 
4392.000000	63.962316 
4391.000000	63.942122 
4390.000000	63.984227 
4389.000000	64.081549 
4388.000000	64.191842 
4387.000000	64.250612 
4386.000000	64.191365 
4385.000000	63.970708 
4384.000000	63.592147 
4383.000000	63.112449 
4382.000000	62.626695 
4381.000000	62.247300 
4380.000000	62.083053 
4379.000000	62.200641 
4378.000000	62.601017 
4377.000000	63.211584 
4376.000000	63.917398 
4375.000000	64.563584 
4374.000000	65.007567 
4373.000000	65.117239 
4372.000000	64.823842 
4371.000000	64.084315 
4370.000000	62.889957 
4369.000000	61.248326 
4368.000000	59.184265 
4367.000000	56.746745 
4366.000000	54.019165 
4365.000000	51.129484 
4364.000000	48.252344 
4363.000000	45.585846 
4362.000000	43.331384 
4361.000000	41.653370 
4360.000000	40.662193 
4359.000000	40.401291 
4358.000000	40.857577 
4357.000000	41.958832 
4356.000000	43.605780 
4355.000000	45.675659 
4354.000000	48.050808 
4353.000000	50.600385 
4352.000000	53.205204 
4351.000000	55.739212 
4350.000000	58.089685 
4349.000000	60.152387 
4348.000000	61.846876 
4347.000000	63.126707 
4346.000000	63.980126 
4345.000000	64.453148 
4344.000000	64.614582 
4343.000000	64.561438 
4342.000000	64.380884 
4341.000000	64.155292 
4340.000000	63.931536 
4339.000000	63.730788 
4338.000000	63.550734 
4337.000000	63.388085 
4336.000000	63.232588 
4335.000000	63.079118 
4334.000000	62.934112 
4333.000000	62.816190 
4332.000000	62.739109 
4331.000000	62.709426 
4330.000000	62.725687 
4329.000000	62.778973 
4328.000000	62.852430 
4327.000000	62.928509 
4326.000000	62.992262 
4325.000000	63.036727 
4324.000000	63.069319 
4323.000000	63.104939 
4322.000000	63.150405 
4321.000000	63.209939 
4320.000000	63.289737 
4319.000000	63.389015 
4318.000000	63.495659 
4317.000000	63.593745 
4316.000000	63.673090 
4315.000000	63.723182 
4314.000000	63.734650 
4313.000000	63.702940 
4312.000000	63.629984 
4311.000000	63.522624 
4310.000000	63.391947 
4309.000000	63.250350 
4308.000000	63.109731 
4307.000000	62.981343 
4306.000000	62.874746 
4305.000000	62.796497 
4304.000000	62.749505 
4303.000000	62.733340 
4302.000000	62.744355 
4301.000000	62.775564 
4300.000000	62.818098 
4299.000000	62.861561 
4298.000000	62.896466 
4297.000000	62.915229 
4296.000000	62.913727 
4295.000000	62.891125 
4294.000000	62.850141 
4293.000000	62.796211 
4292.000000	62.736082 
4291.000000	62.676215 
4290.000000	62.621951 
4289.000000	62.576794 
4288.000000	62.542533 
4287.000000	62.519550 
4286.000000	62.507963 
4285.000000	62.508082 
4284.000000	62.520909 
4283.000000	62.547421 
4282.000000	62.588691 
4281.000000	62.644505 
4280.000000	62.712669 
4279.000000	62.788200 
4278.000000	62.862992 
4277.000000	62.926745 
4276.000000	62.968969 
4275.000000	62.981295 
4274.000000	62.959146 
4273.000000	62.903428 
4272.000000	62.821102 
4271.000000	62.723970 
4270.000000	62.626457 
4269.000000	62.542510 
4268.000000	62.483096 
4267.000000	62.453842 
4266.000000	62.454557 
4265.000000	62.479639 
4264.000000	62.520122 
4263.000000	62.566041 
4262.000000	62.608575 
4261.000000	62.642264 
4260.000000	62.665414 
4259.000000	62.679553 
4258.000000	62.687611 
4257.000000	62.692546 
4256.000000	62.695765 
4255.000000	62.696695 
4254.000000	62.693047 
4253.000000	62.681603 
4252.000000	62.659573 
4251.000000	62.625694 
4250.000000	62.580871 
4249.000000	62.527918 
4248.000000	62.471461 
4247.000000	62.416887 
4246.000000	62.369656 
4245.000000	62.333559 
4244.000000	62.310695 
4243.000000	62.301063 
4242.000000	62.303137 
4241.000000	62.314105 
4240.000000	62.331151 
4239.000000	62.351822 
4238.000000	62.375044 
4237.000000	62.400937 
4236.000000	62.430167 
4235.000000	62.462997 
4234.000000	62.498593 
4233.000000	62.534570 
4232.000000	62.567019 
4231.000000	62.591314 
4230.000000	62.602853 
4229.000000	62.598156 
4228.000000	62.576031 
4227.000000	62.537956 
4226.000000	62.488150 
4225.000000	62.432694 
4224.000000	62.378048 
4223.000000	62.329673 
4222.000000	62.290787 
4221.000000	62.261748 
4220.000000	62.240314 
4219.000000	62.222456 
4218.000000	62.203097 
4217.000000	62.178134 
4216.000000	62.145209 
4215.000000	62.104892 
4214.000000	62.060117 
4213.000000	62.015867 
4212.000000	61.977553 
4211.000000	61.950016 
4210.000000	61.936235 
4209.000000	61.936187 
4208.000000	61.946630 
4207.000000	61.961770 
4206.000000	61.974620 
4205.000000	61.979031 
4204.000000	61.971282 
4203.000000	61.951065 
4202.000000	61.921381 
4201.000000	61.888313 
4200.000000	61.859226 
4199.000000	61.840701 
4198.000000	61.836338 
4197.000000	61.845612 
4196.000000	61.863374 
4195.000000	61.881184 
4194.000000	61.889052 
4193.000000	61.877465 
4192.000000	61.840152 
4191.000000	61.775350 
4190.000000	61.687636 
4189.000000	61.586236 
4188.000000	61.484813 
4187.000000	61.397743 
4186.000000	61.338686 
4185.000000	61.317515 
4184.000000	61.338663 
4183.000000	61.400771 
4182.000000	61.495733 
4181.000000	61.610507 
4180.000000	61.728334 
4179.000000	61.832213 
4178.000000	61.906647 
4177.000000	61.939692 
4176.000000	61.925578 
4175.000000	61.865210 
4174.000000	61.766839 
4173.000000	61.644196 
4172.000000	61.515164 
4171.000000	61.398172 
4170.000000	61.309027 
4169.000000	61.257767 
4168.000000	61.247515 
4167.000000	61.273717 
4166.000000	61.325621 
4165.000000	61.388444 
4164.000000	61.446523 
4163.000000	61.486935 
4162.000000	61.501073 
4161.000000	61.487269 
4160.000000	61.448502 
4159.000000	61.393427 
4158.000000	61.332654 
4157.000000	61.277961 
4156.000000	61.239123 
4155.000000	61.222958 
4154.000000	61.232447 
4153.000000	61.266565 
4152.000000	61.321187 
4151.000000	61.389923 
4150.000000	61.465644 
4149.000000	61.541318 
4148.000000	61.610484 
4147.000000	61.668992 
4146.000000	61.715126 
4145.000000	61.749482 
4144.000000	61.774277 
4143.000000	61.792874 
4142.000000	61.808443 
4141.000000	61.823701 
4140.000000	61.839413 
4139.000000	61.854577 
4138.000000	61.865901 
4137.000000	61.869692 
4136.000000	61.861634 
4135.000000	61.838412 
4134.000000	61.798214 
4133.000000	61.741614 
4132.000000	61.671376 
4131.000000	61.592483 
4130.000000	61.511039 
4129.000000	61.433291 
4128.000000	61.364722 
4127.000000	61.308765 
4126.000000	61.266827 
4125.000000	61.238241 
4124.000000	61.221075 
4123.000000	61.212635 
4122.000000	61.210155 
4121.000000	61.211252 
4120.000000	61.213946 
4119.000000	61.216783 
4118.000000	61.217880 
4117.000000	61.214780 
4116.000000	61.204814 
4115.000000	61.185383 
4114.000000	61.154580 
4113.000000	61.111927 
4112.000000	61.058902 
4111.000000	60.999226 
4110.000000	60.938334 
4109.000000	60.882806 
4108.000000	60.838890 
4107.000000	60.811638 
4106.000000	60.803771 
4105.000000	60.815286 
4104.000000	60.843205 
4103.000000	60.882496 
4102.000000	60.926914 
4101.000000	60.970330 
4100.000000	61.007404 
4099.000000	61.034560 
4098.000000	61.050271 
4097.000000	61.054778 
4096.000000	61.049127 
4095.000000	61.035346 
4094.000000	61.015701 
4093.000000	60.992455 
4092.000000	60.967969 
4091.000000	60.944557 
4090.000000	60.924553 
4089.000000	60.910034 
4088.000000	60.902738 
4087.000000	60.903263 
4086.000000	60.911154 
4085.000000	60.924696 
4084.000000	60.941147 
4083.000000	60.957455 
4082.000000	60.970902 
4081.000000	60.979676 
4080.000000	60.983300 
4079.000000	60.982942 
4078.000000	60.980749 
4077.000000	60.978841 
4076.000000	60.978913 
4075.000000	60.981726 
4074.000000	60.986661 
4073.000000	60.992026 
4072.000000	60.995554 
4071.000000	60.995101 
4070.000000	60.989236 
4069.000000	60.977864 
4068.000000	60.961556 
4067.000000	60.941648 
4066.000000	60.919308 
4065.000000	60.895395 
4064.000000	60.869884 
4063.000000	60.842251 
4062.000000	60.811614 
4061.000000	60.777449 
4060.000000	60.740041 
4059.000000	60.701084 
4058.000000	60.663390 
4057.000000	60.630798 
4056.000000	60.606980 
4055.000000	60.595273 
4054.000000	60.597586 
4053.000000	60.614299 
4052.000000	60.643911 
4051.000000	60.683536 
4050.000000	60.729384 
4049.000000	60.777425 
4048.000000	60.823655 
4047.000000	60.864782 
4046.000000	60.898137 
4045.000000	60.922074 
4044.000000	60.935807 
4043.000000	60.939431 
4042.000000	60.933709 
4041.000000	60.920429 
4040.000000	60.902047 
4039.000000	60.881447 
4038.000000	60.861492 
4037.000000	60.844612 
4036.000000	60.832405 
4035.000000	60.825109 
4034.000000	60.821652 
4033.000000	60.820055 
4032.000000	60.817837 
4031.000000	60.812616 
4030.000000	60.802865 
4029.000000	60.788273 
4028.000000	60.769987 
4027.000000	60.750055 
4026.000000	60.730886 
4025.000000	60.714673 
4024.000000	60.702562 
4023.000000	60.694456 
4022.000000	60.689282 
4021.000000	60.685253 
4020.000000	60.680937 
4019.000000	60.675668 
4018.000000	60.670304 
4017.000000	60.666656 
4016.000000	60.667395 
4015.000000	60.675096 
4014.000000	60.690975 
4013.000000	60.714244 
4012.000000	60.741901 
4011.000000	60.769128 
4010.000000	60.790419 
4009.000000	60.800790 
4008.000000	60.797476 
4007.000000	60.780453 
4006.000000	60.753107 
4005.000000	60.721135 
4004.000000	60.691165 
4003.000000	60.669136 
4002.000000	60.659003 
4001.000000	60.661458 
4000.000000	60.674118 
3999.000000	60.692405 
3998.000000	60.710883 
3997.000000	60.724973 
3996.000000	60.731911 
3995.000000	60.731601 
3994.000000	60.726356 
3993.000000	60.720109 
3992.000000	60.717034 
3991.000000	60.720276 
3990.000000	60.730934 
3989.000000	60.747718 
3988.000000	60.767674 
3987.000000	60.786581 
3986.000000	60.800433 
3985.000000	60.806345 
3984.000000	60.803246 
3983.000000	60.791683 
3982.000000	60.773825 
3981.000000	60.752701 
3980.000000	60.731458 
3979.000000	60.712599 
3978.000000	60.697913 
3977.000000	60.688424 
3976.000000	60.684752 
3975.000000	60.687232 
3974.000000	60.696268 
3973.000000	60.711956 
3972.000000	60.734272 
3971.000000	60.762619 
3970.000000	60.795712 
3969.000000	60.831093 
3968.000000	60.865354 
3967.000000	60.894489 
3966.000000	60.914516 
3965.000000	60.922336 
3964.000000	60.915923 
3963.000000	60.894989 
3962.000000	60.861039 
3961.000000	60.817170 
3960.000000	60.767579 
3959.000000	60.717058 
3958.000000	60.670137 
3957.000000	60.630702 
3956.000000	60.601186 
3955.000000	60.582733 
3954.000000	60.574865 
3953.000000	60.575938 
3952.000000	60.583353 
3951.000000	60.594677 
3950.000000	60.607671 
3949.000000	60.621261 
3948.000000	60.635256 
3947.000000	60.650300 
3946.000000	60.667467 
3945.000000	60.687255 
3944.000000	60.709452 
3943.000000	60.732269 
3942.000000	60.752987 
3941.000000	60.767674 
3940.000000	60.772657 
3939.000000	60.765147 
3938.000000	60.744237 
3937.000000	60.711097 
3936.000000	60.669183 
3935.000000	60.623049 
3934.000000	60.577797 
3933.000000	60.537838 
3932.000000	60.506200 
3931.000000	60.484528 
3930.000000	60.473060 
3929.000000	60.471296 
3928.000000	60.478258 
3927.000000	60.492753 
3926.000000	60.513710 
3925.000000	60.539770 
3924.000000	60.569405 
3923.000000	60.600423 
3922.000000	60.630321 
3921.000000	60.656237 
3920.000000	60.675787 
3919.000000	60.687446 
3918.000000	60.690855 
3917.000000	60.687065 
3916.000000	60.678005 
3915.000000	60.666394 
3914.000000	60.655021 
3913.000000	60.646438 
3912.000000	60.642528 
3911.000000	60.644555 
3910.000000	60.653018 
3909.000000	60.667920 
3908.000000	60.688233 
3907.000000	60.711956 
3906.000000	60.735845 
3905.000000	60.755944 
3904.000000	60.768008 
3903.000000	60.768389 
3902.000000	60.755038 
3901.000000	60.728001 
3900.000000	60.689997 
3899.000000	60.645842 
3898.000000	60.601782 
3897.000000	60.563969 
3896.000000	60.537362 
3895.000000	60.524344 
3894.000000	60.524320 
3893.000000	60.534119 
3892.000000	60.548830 
3891.000000	60.563445 
3890.000000	60.573744 
3889.000000	60.577988 
3888.000000	60.576772 
3887.000000	60.573339 
3886.000000	60.571861 
3885.000000	60.576772 
3884.000000	60.591173 
3883.000000	60.615944 
3882.000000	60.649466 
3881.000000	60.687565 
3880.000000	60.724425 
3879.000000	60.753440 
3878.000000	60.768938 
3877.000000	60.766935 
3876.000000	60.746002 
3875.000000	60.707497 
3874.000000	60.655331 
3873.000000	60.595512 
3872.000000	60.535168 
3871.000000	60.481405 
3870.000000	60.440254 
3869.000000	60.415887 
3868.000000	60.410094 
3867.000000	60.421919 
3866.000000	60.448288 
3865.000000	60.484266 
3864.000000	60.524535 
3863.000000	60.563516 
3862.000000	60.597085 
3861.000000	60.622739 
3860.000000	60.640025 
3859.000000	60.650086 
3858.000000	60.655331 
3857.000000	60.658383 
3856.000000	60.661411 
3855.000000	60.665750 
3854.000000	60.671472 
3853.000000	60.677742 
3852.000000	60.682964 
3851.000000	60.685515 
3850.000000	60.683917 
3849.000000	60.677480 
3848.000000	60.666203 
3847.000000	60.650658 
3846.000000	60.632157 
3845.000000	60.612130 
3844.000000	60.592103 
3843.000000	60.572934 
3842.000000	60.554480 
3841.000000	60.535407 
3840.000000	60.513758 
3839.000000	60.487747 
3838.000000	60.455799 
3837.000000	60.418152 
3836.000000	60.376524 
3835.000000	60.334706 
3834.000000	60.297799 
3833.000000	60.271358 
3832.000000	60.259604 
3831.000000	60.264730 
3830.000000	60.286164 
3829.000000	60.320186 
3828.000000	60.360383 
3827.000000	60.399246 
3826.000000	60.429739 
3825.000000	60.446667 
3824.000000	60.447597 
3823.000000	60.433220 
3822.000000	60.407161 
3821.000000	60.374855 
3820.000000	60.342121 
3819.000000	60.314655 
3818.000000	60.296678 
3817.000000	60.290622 
3816.000000	60.296773 
3815.000000	60.313463 
3814.000000	60.337400 
3813.000000	60.364460 
3812.000000	60.390377 
3811.000000	60.411000 
3810.000000	60.423183 
3809.000000	60.425257 
3808.000000	60.417032 
3807.000000	60.399675 
3806.000000	60.375213 
3805.000000	60.346531 
3804.000000	60.316133 
3803.000000	60.285758 
3802.000000	60.256028 
3801.000000	60.226821 
3800.000000	60.197138 
3799.000000	60.165834 
3798.000000	60.132122 
3797.000000	60.096049 
3796.000000	60.058259 
3795.000000	60.019922 
3794.000000	59.982275 
3793.000000	59.946680 
3792.000000	59.914374 
3791.000000	59.886741 
3790.000000	59.865212 
3789.000000	59.851384 
3788.000000	59.846735 
3787.000000	59.852528 
3786.000000	59.869122 
3785.000000	59.895896 
3784.000000	59.930896 
3783.000000	59.970855 
3782.000000	60.011315 
3781.000000	60.047507 
3780.000000	60.074973 
3779.000000	60.090374 
3778.000000	60.091972 
3777.000000	60.080146 
3776.000000	60.057377 
3775.000000	60.028076 
3774.000000	59.997701 
3773.000000	59.972071 
3772.000000	59.956336 
3771.000000	59.954261 
3770.000000	59.967756 
3769.000000	59.996223 
3768.000000	60.036730 
3767.000000	60.084247 
3766.000000	60.132908 
3765.000000	60.176444 
3764.000000	60.209536 
3763.000000	60.228610 
3762.000000	60.232424 
3761.000000	60.221934 
3760.000000	60.200190 
3759.000000	60.171556 
3758.000000	60.140609 
3757.000000	60.111594 
3756.000000	60.087060 
3755.000000	60.068273 
3754.000000	60.054826 
3753.000000	60.045266 
3752.000000	60.037636 
3751.000000	60.029935 
3750.000000	60.020780 
3749.000000	60.009860 
3748.000000	59.997773 
3747.000000	59.985375 
3746.000000	59.973835 
3745.000000	59.964084 
3744.000000	59.956645 
3743.000000	59.951424 
3742.000000	59.948015 
3741.000000	59.945821 
3740.000000	59.944295 
3739.000000	59.943151 
3738.000000	59.942221 
3737.000000	59.941601 
3736.000000	59.941148 
3735.000000	59.940814 
3734.000000	59.940719 
3733.000000	59.941101 
3732.000000	59.942483 
3731.000000	59.945201 
3730.000000	59.950017 
3729.000000	59.957194 
3728.000000	59.966516 
3727.000000	59.976863 
3726.000000	59.986233 
3725.000000	59.992051 
3724.000000	59.991669 
3723.000000	59.982991 
3722.000000	59.965157 
3721.000000	59.938907 
3720.000000	59.906530 
3719.000000	59.871411 
3718.000000	59.837436 
3717.000000	59.807848 
3716.000000	59.784793 
3715.000000	59.768772 
3714.000000	59.758853 
3713.000000	59.753131 
3712.000000	59.749388 
3711.000000	59.745931 
3710.000000	59.741902 
3709.000000	59.737420 
3708.000000	59.733414 
3707.000000	59.731078 
3706.000000	59.731101 
3705.000000	59.733343 
3704.000000	59.736609 
3703.000000	59.738922 
3702.000000	59.737801 
3701.000000	59.731054 
3700.000000	59.717059 
3699.000000	59.695577 
3698.000000	59.667325 
3697.000000	59.633779 
3696.000000	59.597086 
3695.000000	59.559416 
3694.000000	59.522747 
3693.000000	59.488344 
3692.000000	59.457325 
3691.000000	59.430456 
3690.000000	59.408450 
3689.000000	59.392046 
3688.000000	59.381961 
3687.000000	59.378671 
3686.000000	59.382200 
3685.000000	59.392070 
3684.000000	59.407258 
3683.000000	59.426045 
3682.000000	59.446525 
3681.000000	59.466624 
3680.000000	59.484267 
3679.000000	59.497642 
3678.000000	59.505248 
3677.000000	59.506106 
3676.000000	59.499549 
3675.000000	59.485363 
3674.000000	59.463977 
3673.000000	59.436273 
3672.000000	59.403514 
3671.000000	59.367370 
3670.000000	59.329867 
3669.000000	59.293222 
3668.000000	59.259772 
3667.000000	59.231495 
3666.000000	59.209871 
3665.000000	59.195661 
3664.000000	59.188580 
3663.000000	59.187531 
3662.000000	59.190583 
3661.000000	59.195423 
3660.000000	59.199690 
3659.000000	59.201598 
3658.000000	59.200358 
3657.000000	59.196281 
3656.000000	59.190750 
3655.000000	59.185981 
3654.000000	59.184336 
3653.000000	59.187602 
3652.000000	59.196472 
3651.000000	59.210395 
3650.000000	59.227585 
3649.000000	59.245753 
3648.000000	59.262275 
3647.000000	59.275245 
3646.000000	59.283041 
3645.000000	59.285044 
3644.000000	59.280800 
3643.000000	59.270405 
3642.000000	59.253907 
3641.000000	59.231281 
3640.000000	59.202814 
3639.000000	59.169316 
3638.000000	59.132266 
3637.000000	59.093976 
3636.000000	59.057474 
3635.000000	59.026098 
3634.000000	59.003162 
3633.000000	58.991289 
3632.000000	58.991789 
3631.000000	59.004497 
3630.000000	59.028387 
3629.000000	59.061455 
3628.000000	59.101200 
3627.000000	59.144806 
3626.000000	59.189343 
3625.000000	59.231901 
3624.000000	59.269523 
3623.000000	59.299349 
3622.000000	59.319019 
3621.000000	59.326744 
3620.000000	59.321904 
3619.000000	59.305214 
3618.000000	59.278917 
3617.000000	59.246253 
3616.000000	59.211397 
3615.000000	59.178280 
3614.000000	59.150505 
3613.000000	59.130120 
3612.000000	59.117889 
3611.000000	59.112501 
3610.000000	59.111332 
3609.000000	59.110689 
3608.000000	59.106779 
3607.000000	59.096002 
3606.000000	59.075689 
3605.000000	59.044718 
3604.000000	59.003925 
3603.000000	58.955860 
3602.000000	58.904743 
3601.000000	58.855652 
3600.000000	58.814048 
3599.000000	58.784627 
3598.000000	58.770442 
3597.000000	58.772158 
3596.000000	58.787822 
3595.000000	58.813714 
3594.000000	58.844828 
3593.000000	58.875274 
3592.000000	58.900141 
3591.000000	58.915996 
3590.000000	58.921790 
3589.000000	58.918237 
3588.000000	58.907842 
3587.000000	58.893847 
3586.000000	58.879446 
3585.000000	58.867335 
3584.000000	58.859062 
3583.000000	58.854866 
3582.000000	58.854126 
3581.000000	58.856034 
3580.000000	58.859777 
3579.000000	58.864927 
3578.000000	58.871626 
3577.000000	58.880281 
3576.000000	58.891415 
3575.000000	58.904981 
3574.000000	58.920383 
3573.000000	58.935689 
3572.000000	58.947777 
3571.000000	58.952212 
3570.000000	58.944725 
3569.000000	58.921360 
3568.000000	58.879804 
3567.000000	58.819937 
3566.000000	58.744430 
3565.000000	58.658790 
3564.000000	58.570837 
3563.000000	58.489584 
3562.000000	58.423519 
3561.000000	58.379578 
3560.000000	58.361768 
3559.000000	58.370614 
3558.000000	58.402705 
3557.000000	58.451747 
3556.000000	58.509659 
3555.000000	58.567953 
3554.000000	58.618855 
3553.000000	58.656883 
3552.000000	58.679127 
3551.000000	58.685374 
3550.000000	58.677744 
3549.000000	58.660316 
3548.000000	58.637905 
3547.000000	58.615660 
3546.000000	58.597922 
3545.000000	58.587694 
3544.000000	58.585810 
3543.000000	58.591675 
3542.000000	58.602738 
3541.000000	58.615541 
3540.000000	58.625936 
3539.000000	58.630156 
3538.000000	58.625650 
3537.000000	58.611226 
3536.000000	58.587813 
3535.000000	58.557868 
3534.000000	58.525323 
3533.000000	58.494472 
3532.000000	58.469343 
3531.000000	58.453011 
3530.000000	58.446478 
3529.000000	58.448529 
3528.000000	58.456110 
3527.000000	58.465099 
3526.000000	58.471488 
3525.000000	58.472657 
3524.000000	58.467674 
3523.000000	58.457779 
3522.000000	58.446288 
3521.000000	58.437657 
3520.000000	58.436107 
3519.000000	58.444476 
3518.000000	58.463835 
3517.000000	58.492827 
3516.000000	58.528399 
3515.000000	58.566021 
3514.000000	58.600807 
3513.000000	58.628010 
3512.000000	58.644318 
3511.000000	58.648061 
3510.000000	58.639621 
3509.000000	58.621215 
3508.000000	58.596181 
3507.000000	58.568453 
3506.000000	58.541822 
3505.000000	58.519458 
3504.000000	58.503723 
3503.000000	58.495640 
3502.000000	58.495235 
3501.000000	58.501410 
3500.000000	58.512449 
3499.000000	58.525753 
3498.000000	58.538269 
3497.000000	58.546566 
3496.000000	58.547520 
3495.000000	58.538937 
3494.000000	58.520174 
3493.000000	58.492231 
3492.000000	58.457899 
3491.000000	58.421802 
3490.000000	58.388972 
3489.000000	58.364224 
3488.000000	58.350586 
3487.000000	58.348488 
3486.000000	58.355665 
3485.000000	58.367323 
3484.000000	58.377838 
3483.000000	58.382010 
3482.000000	58.376836 
3481.000000	58.361768 
3480.000000	58.339452 
3479.000000	58.314538 
3478.000000	58.292603 
3477.000000	58.278131 
3476.000000	58.273744 
3475.000000	58.279347 
3474.000000	58.292412 
3473.000000	58.308744 
3472.000000	58.323431 
3471.000000	58.332014 
3470.000000	58.331251 
3469.000000	58.319783 
3468.000000	58.297872 
3467.000000	58.267045 
3466.000000	58.229637 
3465.000000	58.188629 
3464.000000	58.147048 
3463.000000	58.108091 
3462.000000	58.075118 
3461.000000	58.051252 
3460.000000	58.038783 
3459.000000	58.038592 
3458.000000	58.050084 
3457.000000	58.070659 
3456.000000	58.096170 
3455.000000	58.121490 
3454.000000	58.141160 
3453.000000	58.150649 
3452.000000	58.147239 
3451.000000	58.130764 
3450.000000	58.103060 
3449.000000	58.068346 
3448.000000	58.031964 
3447.000000	57.999563 
3446.000000	57.976031 
3445.000000	57.964754 
3444.000000	57.967019 
3443.000000	57.982087 
3442.000000	58.007764 
3441.000000	58.040666 
3440.000000	58.077025 
3439.000000	58.113288 
3438.000000	58.146715 
3437.000000	58.175706 
3436.000000	58.199691 
3435.000000	58.218979 
3434.000000	58.233690 
3433.000000	58.243656 
3432.000000	58.247423 
3431.000000	58.243346 
3430.000000	58.229041 
3429.000000	58.202815 
3428.000000	58.164072 
3427.000000	58.114314 
3426.000000	58.056831 
3425.000000	57.996559 
3424.000000	57.938790 
3423.000000	57.888603 
3422.000000	57.849550 
3421.000000	57.823395 
3420.000000	57.809734 
3419.000000	57.806444 
3418.000000	57.810711 
3417.000000	57.819676 
3416.000000	57.831239 
3415.000000	57.844138 
3414.000000	57.857847 
3413.000000	57.871961 
3412.000000	57.885622 
3411.000000	57.897233 
3410.000000	57.904624 
3409.000000	57.905340 
3408.000000	57.897329 
3407.000000	57.879447 
3406.000000	57.852244 
3405.000000	57.817554 
3404.000000	57.778787 
3403.000000	57.739663 
3402.000000	57.704234 
3401.000000	57.675647 
3400.000000	57.655954 
3399.000000	57.645416 
3398.000000	57.642960 
3397.000000	57.646226 
3396.000000	57.652235 
3395.000000	57.657861 
3394.000000	57.660484 
3393.000000	57.658433 
3392.000000	57.651090 
3391.000000	57.639241 
3390.000000	57.624578 
3389.000000	57.609629 
3388.000000	57.596945 
3387.000000	57.588648 
3386.000000	57.585692 
3385.000000	57.587957 
3384.000000	57.594132 
3383.000000	57.602143 
3382.000000	57.609534 
3381.000000	57.614111 
3380.000000	57.614541 
3379.000000	57.610034 
3378.000000	57.600855 
3377.000000	57.587957 
3376.000000	57.572650 
3375.000000	57.556438 
3374.000000	57.540488 
3373.000000	57.526111 
3372.000000	57.513833 
3371.000000	57.503509 
3370.000000	57.494235 
3369.000000	57.484769 
3368.000000	57.473373 
3367.000000	57.458019 
3366.000000	57.437157 
3365.000000	57.409763 
3364.000000	57.376360 
3363.000000	57.339024 
3362.000000	57.301425 
3361.000000	57.268047 
3360.000000	57.243633 
3359.000000	57.232046 
3358.000000	57.235360 
3357.000000	57.253360 
3356.000000	57.283353 
3355.000000	57.320952 
3354.000000	57.360529 
3353.000000	57.396626 
3352.000000	57.424831 
3351.000000	57.442831 
3350.000000	57.450151 
3349.000000	57.448935 
3348.000000	57.442975 
3347.000000	57.436990 
3346.000000	57.435631 
3345.000000	57.442021 
3344.000000	57.457494 
3343.000000	57.480621 
3342.000000	57.508134 
3341.000000	57.534742 
3340.000000	57.554697 
3339.000000	57.562828 
3338.000000	57.555818 
3337.000000	57.532835 
3336.000000	57.495808 
3335.000000	57.449078 
3334.000000	57.398486 
3333.000000	57.350206 
3332.000000	57.309532 
3331.000000	57.279920 
3330.000000	57.262468 
3329.000000	57.255768 
3328.000000	57.256507 
3327.000000	57.260394 
3326.000000	57.263159 
3325.000000	57.261371 
3324.000000	57.253050 
3323.000000	57.237482 
3322.000000	57.215380 
3321.000000	57.188034 
3320.000000	57.157444 
3319.000000	57.125067 
3318.000000	57.092499 
3317.000000	57.061314 
3316.000000	57.033205 
3315.000000	57.009959 
3314.000000	56.993293 
3313.000000	56.984567 
3312.000000	56.984186 
3311.000000	56.991362 
3310.000000	57.003784 
3309.000000	57.017970 
3308.000000	57.029914 
3307.000000	57.036042 
3306.000000	57.033967 
3305.000000	57.023048 
3304.000000	57.004714 
3303.000000	56.981873 
3302.000000	56.958270 
3301.000000	56.937050 
3300.000000	56.920266 
3299.000000	56.908154 
3298.000000	56.899380 
3297.000000	56.891274 
3296.000000	56.881046 
3295.000000	56.866121 
3294.000000	56.845164 
3293.000000	56.818103 
3292.000000	56.786179 
3291.000000	56.751632 
3290.000000	56.716656 
3289.000000	56.683683 
3288.000000	56.654572 
3287.000000	56.631064 
3286.000000	56.614422 
3285.000000	56.606006 
3284.000000	56.607031 
3283.000000	56.618475 
3282.000000	56.640625 
3281.000000	56.672453 
3280.000000	56.711721 
3279.000000	56.754708 
3278.000000	56.796693 
3277.000000	56.832408 
3276.000000	56.856822 
3275.000000	56.865882 
3274.000000	56.857371 
3273.000000	56.831383 
3272.000000	56.790542 
3271.000000	56.739687 
3270.000000	56.685328 
3269.000000	56.634831 
3268.000000	56.595182 
3267.000000	56.571888 
3266.000000	56.567716 
3265.000000	56.582689 
3264.000000	56.613683 
3263.000000	56.655192 
3262.000000	56.700468 
3261.000000	56.742501 
3260.000000	56.775712 
3259.000000	56.796717 
3258.000000	56.804680 
3257.000000	56.800889 
3256.000000	56.787967 
3255.000000	56.768918 
3254.000000	56.746101 
3253.000000	56.720948 
3252.000000	56.694245 
3251.000000	56.666612 
3250.000000	56.639075 
3249.000000	56.613516 
3248.000000	56.592726 
3247.000000	56.579875 
3246.000000	56.577372 
3245.000000	56.586122 
3244.000000	56.605052 
3243.000000	56.631135 
3242.000000	56.659388 
3241.000000	56.684684 
3240.000000	56.702351 
3239.000000	56.709599 
3238.000000	56.706047 
3237.000000	56.693220 
3236.000000	56.674051 
3235.000000	56.651639 
3234.000000	56.628441 
3233.000000	56.605458 
3232.000000	56.582307 
3231.000000	56.557512 
3230.000000	56.529545 
3229.000000	56.497526 
3228.000000	56.461811 
3227.000000	56.423902 
3226.000000	56.386303 
3225.000000	56.351661 
3224.000000	56.322240 
3223.000000	56.298971 
3222.000000	56.281399 
3221.000000	56.267714 
3220.000000	56.255412 
3219.000000	56.241869 
3218.000000	56.225395 
3217.000000	56.205463 
3216.000000	56.183052 
3215.000000	56.159925 
3214.000000	56.138396 
3213.000000	56.120014 
3212.000000	56.105780 
3211.000000	56.095266 
3210.000000	56.087589 
3209.000000	56.081581 
3208.000000	56.076669 
3207.000000	56.072807 
3206.000000	56.071186 
3205.000000	56.073713 
3204.000000	56.082344 
3203.000000	56.098175 
3202.000000	56.120944 
3201.000000	56.148695 
3200.000000	56.178092 
3199.000000	56.204915 
3198.000000	56.225037 
3197.000000	56.235408 
3196.000000	56.234622 
3195.000000	56.223154 
3194.000000	56.202912 
3193.000000	56.176567 
3192.000000	56.147170 
3191.000000	56.117725 
3190.000000	56.090712 
3189.000000	56.068110 
3188.000000	56.051492 
3187.000000	56.041646 
3186.000000	56.038689 
3185.000000	56.041741 
3184.000000	56.048846 
3183.000000	56.057214 
3182.000000	56.063437 
3181.000000	56.064248 
3180.000000	56.056904 
3179.000000	56.040048 
3178.000000	56.013965 
3177.000000	55.980253 
3176.000000	55.941772 
3175.000000	55.901813 
3174.000000	55.863690 
3173.000000	55.829954 
3172.000000	55.802249 
3171.000000	55.781841 
3170.000000	55.769395 
3169.000000	55.765390 
3168.000000	55.769968 
3167.000000	55.782556 
3166.000000	55.801582 
3165.000000	55.824112 
3164.000000	55.846309 
3163.000000	55.863690 
3162.000000	55.872249 
3161.000000	55.869245 
3160.000000	55.853915 
3159.000000	55.827713 
3158.000000	55.793976 
3157.000000	55.757403 
3156.000000	55.722641 
3155.000000	55.693626 
3154.000000	55.672454 
3153.000000	55.659484 
3152.000000	55.653309 
3151.000000	55.651736 
3150.000000	55.652379 
3149.000000	55.653429 
3148.000000	55.654001 
3147.000000	55.654001 
3146.000000	55.654191 
3145.000000	55.655765 
3144.000000	55.659890 
3143.000000	55.667567 
3142.000000	55.679512 
3141.000000	55.695939 
3140.000000	55.716109 
3139.000000	55.738329 
3138.000000	55.760169 
3137.000000	55.778431 
3136.000000	55.789923 
3135.000000	55.791687 
3134.000000	55.781865 
3133.000000	55.760025 
3132.000000	55.727767 
3131.000000	55.688118 
3130.000000	55.645060 
3129.000000	55.602908 
3128.000000	55.565547 
3127.000000	55.535697 
3126.000000	55.514764 
3125.000000	55.502891 
3124.000000	55.499482 
3123.000000	55.503797 
3122.000000	55.515098 
3121.000000	55.532765 
3120.000000	55.556058 
3119.000000	55.583906 
3118.000000	55.614447 
3117.000000	55.645298 
3116.000000	55.673575 
3115.000000	55.696463 
3114.000000	55.711603 
3113.000000	55.717849 
3112.000000	55.714893 
3111.000000	55.703783 
3110.000000	55.685997 
3109.000000	55.663204 
3108.000000	55.636548 
3107.000000	55.606484 
3106.000000	55.572652 
3105.000000	55.534839 
3104.000000	55.492782 
3103.000000	55.447149 
3102.000000	55.399274 
3101.000000	55.351114 
3100.000000	55.305075 
3099.000000	55.263447 
3098.000000	55.228161 
3097.000000	55.200386 
3096.000000	55.180668 
3095.000000	55.168795 
3094.000000	55.163908 
3093.000000	55.164647 
3092.000000	55.169200 
3091.000000	55.175399 
3090.000000	55.181312 
3089.000000	55.185294 
3088.000000	55.186057 
3087.000000	55.183029 
3086.000000	55.176258 
3085.000000	55.166316 
3084.000000	55.154085 
3083.000000	55.140376 
3082.000000	55.125665 
3081.000000	55.110216 
3080.000000	55.093765 
3079.000000	55.076193 
3078.000000	55.057692 
3077.000000	55.039119 
3076.000000	55.022120 
3075.000000	55.008602 
3074.000000	55.000257 
3073.000000	54.998016 
3072.000000	55.001640 
3071.000000	55.009460 
3070.000000	55.018591 
3069.000000	55.025601 
3068.000000	55.027318 
3067.000000	55.021405 
3066.000000	55.006742 
3065.000000	54.983997 
3064.000000	54.955244 
3063.000000	54.923605 
3062.000000	54.892539 
3061.000000	54.865264 
3060.000000	54.843997 
3059.000000	54.829740 
3058.000000	54.822182 
3057.000000	54.819822 
3056.000000	54.820275 
3055.000000	54.820919 
3054.000000	54.819273 
3053.000000	54.813432 
3052.000000	54.802560 
3051.000000	54.786801 
3050.000000	54.767370 
3049.000000	54.746127 
3048.000000	54.725408 
3047.000000	54.707098 
3046.000000	54.692578 
3045.000000	54.682207 
3044.000000	54.675626 
3043.000000	54.671883 
3042.000000	54.669713 
3041.000000	54.668021 
3040.000000	54.665875 
3039.000000	54.662966 
3038.000000	54.659175 
3037.000000	54.654765 
3036.000000	54.649949 
3035.000000	54.644751 
3034.000000	54.638934 
3033.000000	54.632163 
3032.000000	54.624104 
3031.000000	54.614496 
3030.000000	54.603624 
3029.000000	54.592108 
3028.000000	54.580926 
3027.000000	54.571056 
3026.000000	54.563546 
3025.000000	54.558944 
3024.000000	54.557585 
3023.000000	54.558873 
3022.000000	54.561805 
3021.000000	54.564785 
3020.000000	54.566073 
3019.000000	54.563713 
3018.000000	54.556107 
3017.000000	54.542326 
3016.000000	54.522275 
3015.000000	54.497170 
3014.000000	54.469084 
3013.000000	54.441213 
3012.000000	54.417061 
3011.000000	54.399895 
3010.000000	54.391980 
3009.000000	54.394006 
3008.000000	54.404711 
3007.000000	54.421067 
3006.000000	54.438924 
3005.000000	54.453945 
3004.000000	54.462623 
3003.000000	54.463028 
3002.000000	54.455327 
3001.000000	54.441404 
3000.000000	54.424500 
2999.000000	54.408001 
2998.000000	54.394412 
2997.000000	54.384875 
2996.000000	54.378628 
2995.000000	54.373598 
2994.000000	54.366660 
2993.000000	54.355072 
2992.000000	54.337143 
2991.000000	54.312586 
2990.000000	54.282832 
2989.000000	54.250502 
2988.000000	54.218792 
2987.000000	54.190444 
2986.000000	54.167437 
2985.000000	54.150605 
2984.000000	54.139471 
2983.000000	54.132556 
2982.000000	54.127860 
2981.000000	54.123401 
2980.000000	54.117679 
2979.000000	54.109835 
2978.000000	54.099750 
2977.000000	54.088139 
2976.000000	54.076147 
2975.000000	54.064965 
2974.000000	54.055595 
2973.000000	54.048395 
2972.000000	54.043030 
2971.000000	54.038333 
2970.000000	54.032516 
2969.000000	54.023528 
2968.000000	54.009604 
2967.000000	53.989815 
2966.000000	53.964257 
2965.000000	53.934454 
2964.000000	53.903007 
2963.000000	53.872990 
2962.000000	53.847312 
2961.000000	53.827738 
2960.000000	53.814458 
2959.000000	53.805899 
2958.000000	53.799295 
2957.000000	53.791213 
2956.000000	53.778576 
2955.000000	53.759551 
2954.000000	53.734159 
2953.000000	53.704094 
2952.000000	53.672623 
2951.000000	53.643655 
2950.000000	53.620934 
2949.000000	53.606939 
2948.000000	53.602528 
2947.000000	53.606724 
2946.000000	53.617143 
2945.000000	53.630805 
2944.000000	53.644895 
2943.000000	53.657531 
2942.000000	53.667831 
2941.000000	53.675961 
2940.000000	53.682637 
2939.000000	53.688097 
2938.000000	53.691935 
2937.000000	53.692746 
2936.000000	53.688549 
2935.000000	53.677344 
2934.000000	53.657770 
2933.000000	53.629970 
2932.000000	53.595232 
2931.000000	53.556036 
2930.000000	53.515315 
2929.000000	53.475809 
2928.000000	53.439402 
2927.000000	53.406810 
2926.000000	53.377819 
2925.000000	53.351521 
2924.000000	53.327155 
2923.000000	53.304505 
2922.000000	53.284168 
2921.000000	53.267526 
2920.000000	53.255963 
2919.000000	53.250789 
2918.000000	53.252291 
2917.000000	53.260064 
2916.000000	53.272438 
2915.000000	53.287363 
2914.000000	53.302597 
2913.000000	53.316092 
2912.000000	53.326487 
2911.000000	53.332805 
2910.000000	53.334379 
2909.000000	53.330993 
2908.000000	53.322672 
2907.000000	53.309822 
2906.000000	53.293180 
2905.000000	53.273844 
2904.000000	53.253126 
2903.000000	53.232741 
2902.000000	53.214430 
2901.000000	53.199553 
2900.000000	53.188824 
2899.000000	53.182339 
2898.000000	53.179550 
2897.000000	53.179121 
2896.000000	53.179454 
2895.000000	53.179049 
2894.000000	53.177094 
2893.000000	53.173589 
2892.000000	53.169274 
2891.000000	53.165245 
2890.000000	53.162550 
2889.000000	53.161716 
2888.000000	53.162169 
2887.000000	53.162336 
2886.000000	53.159999 
2885.000000	53.152847 
2884.000000	53.139162 
2883.000000	53.118300 
2882.000000	53.091216 
2881.000000	53.060245 
2880.000000	53.028798 
2879.000000	53.000354 
2878.000000	52.978134 
2877.000000	52.964425 
2876.000000	52.960324 
2875.000000	52.965688 
2874.000000	52.979207 
2873.000000	52.998828 
2872.000000	53.022170 
2871.000000	53.046822 
2870.000000	53.070020 
2869.000000	53.088998 
2868.000000	53.100967 
2867.000000	53.103494 
2866.000000	53.094649 
2865.000000	53.073430 
2864.000000	53.040361 
2863.000000	52.997159 
2862.000000	52.947092 
2861.000000	52.894258 
2860.000000	52.843213 
2859.000000	52.797865 
2858.000000	52.761149 
2857.000000	52.734279 
2856.000000	52.716708 
2855.000000	52.706599 
2854.000000	52.701163 
2853.000000	52.697539 
2852.000000	52.693295 
2851.000000	52.687215 
2850.000000	52.679705 
2849.000000	52.672481 
2848.000000	52.668023 
2847.000000	52.669262 
2846.000000	52.678418 
2845.000000	52.696609 
2844.000000	52.723073 
2843.000000	52.755236 
2842.000000	52.788853 
2841.000000	52.818751 
2840.000000	52.839922 
2839.000000	52.848410 
2838.000000	52.842330 
2837.000000	52.822256 
2836.000000	52.790760 
2835.000000	52.752375 
2834.000000	52.711915 
2833.000000	52.674031 
2832.000000	52.641654 
2831.000000	52.615809 
2830.000000	52.595424 
2829.000000	52.578043 
2828.000000	52.560639 
2827.000000	52.540659 
2826.000000	52.516698 
2825.000000	52.489042 
2824.000000	52.459502 
2823.000000	52.430772 
2822.000000	52.405738 
2821.000000	52.386474 
2820.000000	52.374053 
2819.000000	52.368068 
2818.000000	52.367138 
2817.000000	52.369165 
2816.000000	52.372384 
2815.000000	52.375531 
2814.000000	52.377939 
2813.000000	52.379679 
2812.000000	52.380895 
2811.000000	52.381730 
2810.000000	52.381491 
2809.000000	52.379059 
2808.000000	52.373147 
2807.000000	52.362489 
2806.000000	52.346420 
2805.000000	52.325034 
2804.000000	52.299237 
2803.000000	52.270555 
2802.000000	52.240824 
2801.000000	52.211904 
2800.000000	52.185177 
2799.000000	52.161765 
2798.000000	52.142405 
2797.000000	52.127552 
2796.000000	52.117395 
2795.000000	52.112102 
2794.000000	52.111387 
2793.000000	52.114844 
2792.000000	52.121400 
2791.000000	52.129530 
2790.000000	52.137184 
2789.000000	52.141904 
2788.000000	52.141213 
2787.000000	52.133202 
2786.000000	52.116823 
2785.000000	52.092266 
2784.000000	52.061033 
2783.000000	52.025556 
2782.000000	51.988697 
2781.000000	51.953411 
2780.000000	51.921963 
2779.000000	51.895737 
2778.000000	51.875138 
2777.000000	51.859664 
2776.000000	51.848268 
2775.000000	51.839733 
2774.000000	51.832962 
2773.000000	51.827120 
2772.000000	51.821708 
2771.000000	51.816320 
2770.000000	51.810574 
2769.000000	51.803994 
2768.000000	51.796150 
2767.000000	51.786613 
2766.000000	51.775360 
2765.000000	51.762723 
2764.000000	51.749444 
2763.000000	51.736474 
2762.000000	51.724791 
2761.000000	51.714968 
2760.000000	51.707053 
2759.000000	51.700472 
2758.000000	51.694297 
2757.000000	51.687765 
2756.000000	51.680326 
2755.000000	51.672244 
2754.000000	51.664423 
2753.000000	51.658606 
2752.000000	51.656627 
2751.000000	51.659774 
2750.000000	51.668119 
2749.000000	51.680445 
2748.000000	51.694154 
2747.000000	51.705789 
2746.000000	51.711797 
2745.000000	51.709151 
2744.000000	51.696205 
2743.000000	51.672768 
2742.000000	51.640176 
2741.000000	51.600885 
2740.000000	51.557874 
2739.000000	51.514291 
2738.000000	51.472830 
2737.000000	51.435518 
2736.000000	51.403379 
2735.000000	51.376533 
2734.000000	51.354122 
2733.000000	51.334762 
2732.000000	51.316857 
2731.000000	51.298856 
2730.000000	51.280140 
2729.000000	51.260614 
2728.000000	51.241397 
2727.000000	51.224160 
2726.000000	51.211094 
2725.000000	51.204109 
2724.000000	51.204395 
2723.000000	51.211762 
2722.000000	51.224613 
2721.000000	51.240086 
2720.000000	51.254463 
2719.000000	51.264047 
2718.000000	51.266002 
2717.000000	51.258778 
2716.000000	51.242423 
2715.000000	51.218342 
2714.000000	51.188874 
2713.000000	51.156640 
2712.000000	51.124024 
2711.000000	51.092743 
2710.000000	51.063799 
2709.000000	51.037406 
2708.000000	51.013231 
2707.000000	50.990891 
2706.000000	50.970172 
2705.000000	50.951528 
2704.000000	50.935649 
2703.000000	50.923776 
2702.000000	50.917124 
2701.000000	50.916671 
2700.000000	50.922584 
2699.000000	50.934195 
2698.000000	50.949883 
2697.000000	50.967335 
2696.000000	50.983929 
2695.000000	50.997114 
2694.000000	51.004862 
2693.000000	51.005840 
2692.000000	50.999689 
2691.000000	50.986886 
2690.000000	50.968480 
2689.000000	50.945973 
2688.000000	50.920844 
2687.000000	50.894427 
2686.000000	50.867748 
2685.000000	50.841426 
2684.000000	50.815582 
2683.000000	50.790190 
2682.000000	50.765204 
2681.000000	50.740551 
2680.000000	50.716567 
2679.000000	50.693774 
2678.000000	50.673222 
2677.000000	50.656294 
2676.000000	50.644779 
2675.000000	50.640034 
2674.000000	50.642871 
2673.000000	50.653147 
2672.000000	50.669312 
2671.000000	50.688767 
2670.000000	50.708007 
2669.000000	50.723481 
2668.000000	50.732183 
2667.000000	50.732207 
2666.000000	50.723075 
2665.000000	50.705695 
2664.000000	50.682139 
2663.000000	50.654935 
2662.000000	50.626826 
2661.000000	50.600075 
2660.000000	50.576424 
2659.000000	50.556612 
2658.000000	50.540733 
2657.000000	50.528168 
2656.000000	50.517845 
2655.000000	50.508403 
2654.000000	50.498175 
2653.000000	50.485539 
2652.000000	50.469040 
2651.000000	50.447869 
2650.000000	50.421953 
2649.000000	50.392436 
2648.000000	50.361204 
2647.000000	50.330924 
2646.000000	50.304174 
2645.000000	50.283217 
2644.000000	50.269126 
2643.000000	50.261878 
2642.000000	50.260329 
2641.000000	50.262570 
2640.000000	50.266289 
2639.000000	50.269484 
2638.000000	50.270771 
2637.000000	50.269508 
2636.000000	50.265693 
2635.000000	50.259852 
2634.000000	50.252699 
2633.000000	50.244951 
2632.000000	50.236892 
2631.000000	50.228500 
2630.000000	50.219178 
2629.000000	50.208210 
2628.000000	50.194811 
2627.000000	50.178241 
2626.000000	50.157952 
2625.000000	50.133728 
2624.000000	50.105905 
2623.000000	50.075435 
2622.000000	50.043940 
2621.000000	50.013422 
2620.000000	49.986195 
2619.000000	49.964118 
2618.000000	49.948477 
2617.000000	49.939584 
2616.000000	49.936747 
2615.000000	49.938201 
2614.000000	49.941635 
2613.000000	49.944472 
2612.000000	49.944591 
2611.000000	49.940490 
2610.000000	49.931812 
2609.000000	49.919080 
2608.000000	49.903845 
2607.000000	49.888134 
2606.000000	49.874067 
2605.000000	49.863219 
2604.000000	49.856233 
2603.000000	49.852728 
2602.000000	49.851250 
2601.000000	49.849772 
2600.000000	49.846076 
2599.000000	49.838304 
2598.000000	49.825453 
2597.000000	49.807739 
2596.000000	49.786424 
2595.000000	49.763679 
2594.000000	49.742197 
2593.000000	49.724316 
2592.000000	49.711537 
2591.000000	49.704265 
2590.000000	49.701642 
2589.000000	49.701738 
2588.000000	49.702239 
2587.000000	49.700808 
2586.000000	49.695658 
2585.000000	49.685692 
2584.000000	49.670743 
2583.000000	49.651193 
2582.000000	49.627971 
2581.000000	49.602460 
2580.000000	49.576401 
2579.000000	49.551677 
2578.000000	49.530053 
2577.000000	49.512910 
2576.000000	49.500918 
2575.000000	49.493908 
2574.000000	49.491024 
2573.000000	49.490976 
2572.000000	49.492335 
2571.000000	49.493837 
2570.000000	49.494528 
2569.000000	49.493813 
2568.000000	49.491262 
2567.000000	49.486398 
2566.000000	49.478816 
2565.000000	49.468207 
2564.000000	49.454307 
2563.000000	49.437236 
2562.000000	49.417376 
2561.000000	49.395394 
2560.000000	49.372172 
2559.000000	49.348688 
2558.000000	49.325871 
2557.000000	49.304556 
2556.000000	49.285411 
2555.000000	49.268865 
2554.000000	49.255061 
2553.000000	49.243760 
2552.000000	49.234843 
2551.000000	49.227905 
2550.000000	49.222707 
2549.000000	49.218916 
2548.000000	49.216222 
2547.000000	49.214410 
2546.000000	49.213051 
2545.000000	49.211573 
2544.000000	49.209356 
2543.000000	49.205851 
2542.000000	49.200582 
2541.000000	49.193263 
2540.000000	49.184179 
2539.000000	49.173665 
2538.000000	49.162507 
2537.000000	49.151372 
2536.000000	49.140906 
2535.000000	49.131131 
2534.000000	49.121570 
2533.000000	49.111366 
2532.000000	49.099612 
2531.000000	49.085640 
2530.000000	49.069595 
2529.000000	49.052309 
2528.000000	49.035429 
2527.000000	49.020910 
2526.000000	49.010491 
2525.000000	49.005055 
2524.000000	49.004268 
2523.000000	49.006557 
2522.000000	49.009728 
2521.000000	49.011254 
2520.000000	49.008917 
2519.000000	49.001693 
2518.000000	48.989772 
2517.000000	48.974442 
2516.000000	48.957538 
2515.000000	48.940658 
2514.000000	48.924779 
2513.000000	48.909711 
2512.000000	48.894453 
2511.000000	48.877668 
2510.000000	48.858356 
2509.000000	48.836374 
2508.000000	48.812580 
2507.000000	48.788833 
2506.000000	48.767161 
2505.000000	48.749279 
2504.000000	48.735928 
2503.000000	48.726511 
2502.000000	48.719215 
2501.000000	48.711299 
2500.000000	48.699617 
2499.000000	48.681592 
2498.000000	48.655581 
2497.000000	48.621582 
2496.000000	48.580956 
2495.000000	48.536276 
2494.000000	48.490858 
2493.000000	48.448324 
2492.000000	48.411703 
2491.000000	48.383069 
2490.000000	48.363447 
2489.000000	48.352599 
2488.000000	48.349261 
2487.000000	48.351383 
2486.000000	48.356342 
2485.000000	48.361563 
2484.000000	48.364806 
2483.000000	48.364615 
2482.000000	48.360013 
2481.000000	48.350882 
2480.000000	48.337626 
2479.000000	48.321056 
2478.000000	48.301911 
2477.000000	48.281216 
2476.000000	48.259878 
2475.000000	48.238873 
2474.000000	48.219251 
2473.000000	48.202252 
2472.000000	48.189258 
2471.000000	48.181653 
2470.000000	48.180389 
2469.000000	48.186087 
2468.000000	48.198676 
2467.000000	48.217082 
2466.000000	48.239564 
2465.000000	48.263716 
2464.000000	48.286676 
2463.000000	48.305869 
2462.000000	48.319244 
2461.000000	48.325324 
2460.000000	48.323440 
2459.000000	48.313975 
2458.000000	48.297619 
2457.000000	48.275709 
2456.000000	48.249268 
2455.000000	48.219490 
2454.000000	48.187160 
2453.000000	48.153090 
2452.000000	48.117733 
2451.000000	48.081946 
2450.000000	48.046326 
2449.000000	48.011589 
2448.000000	47.978234 
2447.000000	47.946453 
2446.000000	47.916173 
2445.000000	47.886919 
2444.000000	47.858071 
2443.000000	47.828817 
2442.000000	47.798633 
2441.000000	47.767496 
2440.000000	47.735857 
2439.000000	47.704768 
2438.000000	47.675871 
2437.000000	47.650933 
2436.000000	47.631359 
2435.000000	47.617769 
2434.000000	47.609829 
2433.000000	47.606158 
2432.000000	47.604370 
2431.000000	47.601962 
2430.000000	47.596645 
2429.000000	47.587227 
2428.000000	47.573828 
2427.000000	47.558021 
2426.000000	47.542524 
2425.000000	47.530150 
2424.000000	47.523331 
2423.000000	47.522807 
2422.000000	47.527265 
2421.000000	47.533512 
2420.000000	47.537207 
2419.000000	47.533798 
2418.000000	47.519755 
2417.000000	47.493410 
2416.000000	47.455692 
2415.000000	47.409510 
2414.000000	47.359085 
2413.000000	47.309064 
2412.000000	47.263622 
2411.000000	47.225785 
2410.000000	47.197198 
2409.000000	47.178316 
2408.000000	47.168850 
2407.000000	47.168040 
2406.000000	47.174835 
2405.000000	47.188019 
2404.000000	47.206187 
2403.000000	47.227168 
2402.000000	47.248625 
2401.000000	47.267484 
2400.000000	47.281241 
2399.000000	47.288107 
2398.000000	47.287774 
2397.000000	47.281384 
2396.000000	47.271347 
2395.000000	47.260594 
2394.000000	47.251868 
2393.000000	47.246885 
2392.000000	47.246098 
2391.000000	47.248649 
2390.000000	47.252559 
2389.000000	47.255396 
2388.000000	47.254729 
2387.000000	47.248625 
2386.000000	47.235703 
2385.000000	47.215485 
2384.000000	47.188282 
2383.000000	47.155332 
2382.000000	47.118473 
2381.000000	47.080159 
2380.000000	47.043037 
2379.000000	47.010064 
2378.000000	46.983671 
2377.000000	46.965765 
2376.000000	46.957159 
2375.000000	46.957445 
2374.000000	46.964740 
2373.000000	46.976399 
2372.000000	46.989464 
2371.000000	47.001194 
2370.000000	47.009444 
2369.000000	47.013044 
2368.000000	47.011709 
2367.000000	47.005820 
2366.000000	46.995925 
2365.000000	46.982526 
2364.000000	46.965837 
2363.000000	46.945714 
2362.000000	46.921849 
2361.000000	46.893906 
2360.000000	46.861743 
2359.000000	46.825647 
2358.000000	46.786355 
2357.000000	46.745181 
2356.000000	46.703791 
2355.000000	46.663951 
2354.000000	46.627449 
2353.000000	46.595549 
2352.000000	46.569180 
2351.000000	46.548509 
2350.000000	46.533393 
2349.000000	46.522855 
2348.000000	46.515893 
2347.000000	46.511077 
2346.000000	46.507287 
2345.000000	46.503663 
2344.000000	46.499991 
2343.000000	46.496200 
2342.000000	46.492624 
2341.000000	46.489715 
2340.000000	46.487641 
2339.000000	46.485972 
2338.000000	46.483707 
2337.000000	46.479415 
2336.000000	46.471428 
2335.000000	46.458363 
2334.000000	46.439337 
2333.000000	46.414566 
2332.000000	46.385288 
2331.000000	46.353912 
2330.000000	46.323394 
2329.000000	46.297073 
2328.000000	46.277666 
2327.000000	46.267104 
2326.000000	46.265769 
2325.000000	46.272635 
2324.000000	46.285414 
2323.000000	46.300911 
2322.000000	46.315526 
2321.000000	46.325850 
2320.000000	46.329236 
2319.000000	46.323966 
2318.000000	46.309375 
2317.000000	46.285796 
2316.000000	46.254539 
2315.000000	46.217679 
2314.000000	46.177768 
2313.000000	46.137595 
2312.000000	46.099972 
2311.000000	46.067214 
2310.000000	46.041154 
2309.000000	46.022558 
2308.000000	46.011114 
2307.000000	46.005558 
2306.000000	46.003866 
2305.000000	46.003413 
2304.000000	46.001815 
2303.000000	45.997023 
2302.000000	45.987772 
2301.000000	45.973777 
2300.000000	45.955538 
2299.000000	45.933794 
2298.000000	45.909380 
2297.000000	45.883083 
2296.000000	45.855784 
2295.000000	45.828127 
2294.000000	45.800900 
2293.000000	45.775294 
2292.000000	45.752596 
2291.000000	45.734119 
2290.000000	45.720815 
2289.000000	45.712804 
2288.000000	45.709347 
2287.000000	45.708727 
2286.000000	45.708680 
2285.000000	45.706748 
2284.000000	45.700860 
2283.000000	45.689725 
2282.000000	45.673179 
2281.000000	45.652294 
2280.000000	45.628690 
2279.000000	45.604324 
2278.000000	45.580768 
2277.000000	45.559239 
2276.000000	45.540308 
2275.000000	45.523953 
2274.000000	45.509934 
2273.000000	45.498085 
2272.000000	45.488119 
2271.000000	45.480012 
2270.000000	45.473790 
2269.000000	45.469403 
2268.000000	45.466494 
2267.000000	45.464515 
2266.000000	45.462656 
2265.000000	45.460081 
2264.000000	45.455765 
2263.000000	45.449042 
2262.000000	45.439481 
2261.000000	45.427274 
2260.000000	45.413184 
2259.000000	45.398211 
2258.000000	45.383572 
2257.000000	45.370388 
2256.000000	45.359396 
2255.000000	45.350861 
2254.000000	45.344161 
2253.000000	45.338082 
2252.000000	45.331072 
2251.000000	45.321488 
2250.000000	45.308136 
2249.000000	45.290827 
2248.000000	45.270466 
2247.000000	45.249128 
2246.000000	45.229554 
2245.000000	45.214557 
2244.000000	45.206117 
2243.000000	45.205140 
2242.000000	45.210838 
2241.000000	45.221138 
2240.000000	45.232725 
2239.000000	45.242023 
2238.000000	45.245695 
2237.000000	45.241284 
2236.000000	45.227599 
2235.000000	45.204710 
2234.000000	45.173788 
2233.000000	45.136833 
2232.000000	45.095992 
2231.000000	45.053291 
2230.000000	45.010519 
2229.000000	44.969081 
2228.000000	44.930005 
2227.000000	44.894146 
2226.000000	44.862294 
2225.000000	44.835329 
2224.000000	44.813895 
2223.000000	44.798612 
2222.000000	44.789958 
2221.000000	44.787931 
2220.000000	44.792008 
2219.000000	44.801068 
2218.000000	44.813251 
2217.000000	44.826292 
2216.000000	44.837665 
2215.000000	44.845080 
2214.000000	44.846868 
2213.000000	44.842267 
2212.000000	44.831633 
2211.000000	44.816303 
2210.000000	44.798326 
2209.000000	44.779777 
2208.000000	44.762611 
2207.000000	44.747829 
2206.000000	44.735813 
2205.000000	44.725918 
2204.000000	44.716906 
2203.000000	44.707393 
2202.000000	44.696235 
2201.000000	44.682812 
2200.000000	44.667124 
2199.000000	44.649505 
2198.000000	44.630622 
2197.000000	44.611120 
2196.000000	44.591450 
2195.000000	44.572114 
2194.000000	44.553518 
2193.000000	44.536209 
2192.000000	44.520759 
2191.000000	44.508051 
2190.000000	44.498848 
2189.000000	44.493389 
2188.000000	44.491624 
2187.000000	44.492912 
2186.000000	44.496202 
2185.000000	44.499826 
2184.000000	44.502162 
2183.000000	44.501662 
2182.000000	44.497251 
2181.000000	44.488430 
2180.000000	44.475126 
2179.000000	44.457602 
2178.000000	44.436383 
2177.000000	44.412064 
2176.000000	44.385170 
2175.000000	44.356012 
2174.000000	44.324874 
2173.000000	44.292044 
2172.000000	44.257688 
2171.000000	44.221973 
2170.000000	44.185018 
2169.000000	44.147086 
2168.000000	44.108605 
2167.000000	44.070291 
2166.000000	44.032979 
2165.000000	43.997573 
2164.000000	43.964695 
2163.000000	43.934726 
2162.000000	43.907427 
2161.000000	43.882489 
2160.000000	43.859195 
2159.000000	43.837308 
2158.000000	43.816614 
2157.000000	43.797898 
2156.000000	43.782281 
2155.000000	43.771362 
2154.000000	43.766427 
2153.000000	43.768262 
2152.000000	43.776464 
2151.000000	43.789649 
2150.000000	43.805241 
2149.000000	43.820381 
2148.000000	43.832254 
2147.000000	43.838882 
2146.000000	43.839406 
2145.000000	43.833684 
2144.000000	43.822240 
2143.000000	43.806004 
2142.000000	43.785953 
2141.000000	43.763041 
2140.000000	43.738055 
2139.000000	43.712091 
2138.000000	43.686389 
2137.000000	43.662428 
2136.000000	43.641376 
2135.000000	43.624472 
2134.000000	43.612027 
2133.000000	43.603754 
2132.000000	43.598294 
2131.000000	43.593811 
2130.000000	43.588232 
2129.000000	43.579697 
2128.000000	43.567132 
2127.000000	43.550229 
2126.000000	43.529725 
2125.000000	43.506932 
2124.000000	43.483519 
2123.000000	43.461036 
2122.000000	43.440914 
2121.000000	43.424153 
2120.000000	43.411445 
2119.000000	43.403053 
2118.000000	43.398666 
2117.000000	43.397688 
2116.000000	43.398904 
2115.000000	43.400740 
2114.000000	43.401718 
2113.000000	43.400621 
2112.000000	43.396639 
2111.000000	43.389606 
2110.000000	43.380188 
2109.000000	43.369483 
2108.000000	43.358850 
2107.000000	43.349409 
2106.000000	43.341612 
2105.000000	43.335056 
2104.000000	43.328809 
2103.000000	43.321299 
2102.000000	43.311262 
2101.000000	43.297743 
2100.000000	43.280601 
2099.000000	43.260288 
2098.000000	43.238043 
2097.000000	43.215394 
2096.000000	43.193626 
2095.000000	43.174123 
2094.000000	43.158173 
2093.000000	43.146848 
2092.000000	43.140912 
2091.000000	43.140506 
2090.000000	43.144822 
2089.000000	43.152236 
2088.000000	43.160009 
2087.000000	43.164706 
2086.000000	43.162727 
2085.000000	43.151164 
2084.000000	43.128252 
2083.000000	43.093991 
2082.000000	43.049955 
2081.000000	42.999386 
2080.000000	42.946124 
2079.000000	42.893815 
2078.000000	42.844986 
2077.000000	42.800784 
2076.000000	42.760705 
2075.000000	42.723155 
2074.000000	42.685985 
2073.000000	42.647385 
2072.000000	42.606449 
2071.000000	42.563247 
2070.000000	42.519116 
2069.000000	42.476034 
2068.000000	42.436647 
2067.000000	42.403364 
2066.000000	42.378306 
2065.000000	42.362809 
2064.000000	42.357373 
2063.000000	42.361569 
2062.000000	42.374205 
2061.000000	42.393541 
2060.000000	42.417597 
2059.000000	42.444419 
2058.000000	42.472076 
2057.000000	42.499065 
2056.000000	42.523980 
2055.000000	42.545723 
2054.000000	42.563343 
2053.000000	42.576026 
2052.000000	42.583012 
2051.000000	42.583680 
2050.000000	42.578029 
2049.000000	42.566466 
2048.000000	42.550110 
2047.000000	42.530608 
2046.000000	42.510342 
2045.000000	42.491531 
2044.000000	42.476129 
2043.000000	42.465233 
2042.000000	42.459201 
2041.000000	42.457389 
2040.000000	42.458510 
2039.000000	42.461061 
2038.000000	42.463755 
2037.000000	42.465567 
2036.000000	42.465710 
2035.000000	42.463922 
2034.000000	42.459964 
2033.000000	42.453503 
2032.000000	42.444252 
2031.000000	42.431688 
2030.000000	42.415452 
2029.000000	42.395734 
2028.000000	42.373156 
2027.000000	42.349004 
2026.000000	42.324566 
2025.000000	42.301368 
2024.000000	42.280364 
2023.000000	42.261624 
2022.000000	42.244315 
2021.000000	42.227125 
2020.000000	42.208456 
2019.000000	42.187070 
2018.000000	42.162513 
2017.000000	42.135334 
2016.000000	42.107224 
2015.000000	42.080593 
2014.000000	42.057919 
2013.000000	42.041230 
2012.000000	42.031383 
2011.000000	42.027997 
2010.000000	42.029547 
2009.000000	42.033672 
2008.000000	42.037701 
2007.000000	42.039084 
2006.000000	42.036080 
2005.000000	42.027711 
2004.000000	42.013883 
2003.000000	41.995215 
2002.000000	41.972756 
2001.000000	41.947531 
2000.000000	41.920447 
1999.000000	41.892075 
1998.000000	41.862869 
1997.000000	41.833186 
1996.000000	41.803455 
1995.000000	41.774463 
1994.000000	41.747212 
1993.000000	41.723132 
1992.000000	41.703510 
1991.000000	41.689729 
1990.000000	41.682648 
1989.000000	41.682410 
1988.000000	41.688179 
1987.000000	41.698050 
1986.000000	41.709280 
1985.000000	41.718578 
1984.000000	41.722989 
1983.000000	41.720581 
1982.000000	41.710782 
1981.000000	41.694855 
1980.000000	41.675376 
1979.000000	41.655707 
1978.000000	41.638851 
1977.000000	41.626787 
1976.000000	41.619586 
1975.000000	41.615605 
1974.000000	41.611576 
1973.000000	41.603755 
1972.000000	41.588711 
1971.000000	41.564393 
1970.000000	41.530513 
1969.000000	41.489005 
1968.000000	41.443347 
1967.000000	41.397619 
1966.000000	41.355800 
1965.000000	41.320776 
1964.000000	41.293931 
1963.000000	41.274929 
1962.000000	41.262006 
1961.000000	41.252899 
1960.000000	41.245198 
1959.000000	41.237020 
1958.000000	41.227388 
1957.000000	41.216135 
1956.000000	41.204047 
1955.000000	41.192221 
1954.000000	41.181802 
1953.000000	41.173219 
1952.000000	41.166377 
1951.000000	41.160392 
1950.000000	41.153883 
1949.000000	41.145205 
1948.000000	41.133069 
1947.000000	41.116809 
1946.000000	41.096735 
1945.000000	41.074085 
1944.000000	41.050744 
1943.000000	41.028738 
1942.000000	41.009855 
1941.000000	40.995144 
1940.000000	40.984606 
1939.000000	40.977239 
1938.000000	40.971350 
1937.000000	40.965056 
1936.000000	40.956759 
1935.000000	40.945553 
1934.000000	40.931487 
1933.000000	40.915417 
1932.000000	40.898418 
1931.000000	40.881633 
1930.000000	40.865826 
1929.000000	40.851116 
1928.000000	40.837121 
1927.000000	40.823268 
1926.000000	40.808868 
1925.000000	40.793776 
1924.000000	40.778040 
1923.000000	40.762257 
1922.000000	40.747046 
1921.000000	40.732955 
1920.000000	40.719890 
1919.000000	40.707349 
1918.000000	40.694236 
1917.000000	40.679383 
1916.000000	40.661859 
1915.000000	40.641355 
1914.000000	40.618395 
1913.000000	40.594220 
1912.000000	40.570473 
1911.000000	40.549015 
1910.000000	40.531206 
1909.000000	40.517735 
1908.000000	40.508317 
1907.000000	40.501928 
1906.000000	40.496969 
1905.000000	40.491700 
1904.000000	40.484619 
1903.000000	40.474677 
1902.000000	40.461516 
1901.000000	40.445446 
1900.000000	40.427184 
1899.000000	40.407729 
1898.000000	40.387940 
1897.000000	40.368461 
1896.000000	40.349698 
1895.000000	40.331864 
1894.000000	40.314960 
1893.000000	40.299057 
1892.000000	40.284228 
1891.000000	40.270781 
1890.000000	40.259051 
1889.000000	40.249562 
1888.000000	40.242409 
1887.000000	40.237593 
1886.000000	40.234494 
1885.000000	40.232253 
1884.000000	40.229630 
1883.000000	40.225195 
1882.000000	40.217733 
1881.000000	40.206289 
1880.000000	40.190482 
1879.000000	40.170264 
1878.000000	40.146160 
1877.000000	40.119028 
1876.000000	40.089988 
1875.000000	40.060353 
1874.000000	40.031433 
1873.000000	40.004563 
1872.000000	39.980959 
1871.000000	39.961743 
1870.000000	39.947581 
1869.000000	39.938640 
1868.000000	39.934372 
1867.000000	39.933466 
1866.000000	39.934039 
1865.000000	39.933586 
1864.000000	39.929986 
1863.000000	39.921593 
1862.000000	39.907836 
1861.000000	39.889335 
1860.000000	39.867639 
1859.000000	39.844965 
1858.000000	39.823603 
1857.000000	39.805316 
1856.000000	39.791035 
1855.000000	39.780783 
1854.000000	39.773750 
1853.000000	39.768695 
1852.000000	39.764285 
1851.000000	39.759635 
1850.000000	39.754271 
1849.000000	39.748215 
1848.000000	39.741778 
1847.000000	39.735293 
1846.000000	39.728832 
1845.000000	39.721989 
1844.000000	39.714097 
1843.000000	39.704132 
1842.000000	39.691209 
1841.000000	39.674735 
1840.000000	39.654588 
1839.000000	39.631199 
1838.000000	39.605474 
1837.000000	39.578557 
1836.000000	39.551901 
1835.000000	39.526605 
1834.000000	39.503574 
1833.000000	39.483261 
1832.000000	39.465546 
1831.000000	39.449977 
1830.000000	39.435720 
1829.000000	39.421796 
1828.000000	39.407229 
1827.000000	39.391469 
1826.000000	39.374065 
1825.000000	39.355158 
1824.000000	39.334988 
1823.000000	39.314055 
1822.000000	39.292979 
1821.000000	39.272236 
1820.000000	39.252209 
1819.000000	39.233160 
1818.000000	39.214920 
1817.000000	39.197039 
1816.000000	39.178800 
1815.000000	39.159440 
1814.000000	39.138174 
1813.000000	39.114427 
1812.000000	39.088034 
1811.000000	39.059472 
1810.000000	39.029669 
1809.000000	38.999938 
1808.000000	38.971972 
1807.000000	38.947224 
1806.000000	38.926863 
1805.000000	38.911318 
1804.000000	38.900375 
1803.000000	38.893151 
1802.000000	38.888287 
1801.000000	38.884115 
1800.000000	38.879108 
1799.000000	38.872098 
1798.000000	38.862490 
1797.000000	38.850140 
1796.000000	38.835430 
1795.000000	38.819122 
1794.000000	38.802194 
1793.000000	38.785505 
1792.000000	38.769769 
1791.000000	38.755583 
1790.000000	38.742995 
1789.000000	38.731718 
1788.000000	38.721179 
1787.000000	38.710808 
1786.000000	38.699984 
1785.000000	38.688278 
1784.000000	38.675713 
1783.000000	38.662481 
1782.000000	38.649034 
1781.000000	38.635993 
1780.000000	38.623833 
1779.000000	38.612914 
1778.000000	38.603377 
1777.000000	38.594961 
1776.000000	38.587284 
1775.000000	38.579821 
1774.000000	38.572072 
1773.000000	38.563585 
1772.000000	38.554191 
1771.000000	38.544034 
1770.000000	38.533639 
1769.000000	38.523697 
1768.000000	38.514828 
1767.000000	38.507509 
1766.000000	38.502001 
1765.000000	38.498044 
1764.000000	38.494920 
1763.000000	38.491749 
1762.000000	38.487529 
1761.000000	38.481450 
1760.000000	38.472962 
1759.000000	38.462066 
1758.000000	38.449025 
1757.000000	38.434529 
1756.000000	38.419055 
1755.000000	38.402938 
1754.000000	38.386106 
1753.000000	38.368153 
1752.000000	38.348269 
1751.000000	38.325881 
1750.000000	38.300609 
1749.000000	38.272595 
1748.000000	38.242340 
1747.000000	38.210749 
1746.000000	38.178706 
1745.000000	38.147091 
1744.000000	38.116574 
1743.000000	38.087439 
1742.000000	38.059735 
1741.000000	38.033342 
1740.000000	38.007950 
1739.000000	37.983250 
1738.000000	37.958836 
1737.000000	37.934470 
1736.000000	37.910032 
1735.000000	37.885713 
1734.000000	37.861847 
1733.000000	37.839126 
1732.000000	37.818336 
1731.000000	37.800312 
1730.000000	37.785673 
1729.000000	37.774729 
1728.000000	37.767004 
1727.000000	37.761664 
1726.000000	37.757253 
1725.000000	37.752366 
1724.000000	37.745761 
1723.000000	37.736940 
1722.000000	37.726187 
1721.000000	37.714552 
1720.000000	37.703633 
1719.000000	37.695026 
1718.000000	37.690019 
1717.000000	37.689185 
1716.000000	37.692332 
1715.000000	37.698507 
1714.000000	37.706089 
1713.000000	37.713193 
1712.000000	37.717914 
1711.000000	37.718629 
1710.000000	37.714433 
1709.000000	37.704777 
1708.000000	37.689757 
1707.000000	37.670183 
1706.000000	37.647390 
1705.000000	37.623143 
1704.000000	37.599396 
1703.000000	37.578296 
1702.000000	37.561798 
1701.000000	37.551212 
1700.000000	37.546896 
1699.000000	37.548351 
1698.000000	37.554025 
1697.000000	37.561821 
1696.000000	37.569093 
1695.000000	37.573194 
1694.000000	37.571835 
1693.000000	37.563276 
1692.000000	37.546563 
1691.000000	37.521433 
1690.000000	37.488555 
1689.000000	37.449407 
1688.000000	37.406086 
1687.000000	37.361073 
1686.000000	37.317109 
1685.000000	37.276911 
1684.000000	37.242770 
1683.000000	37.216329 
1682.000000	37.198352 
1681.000000	37.188768 
1680.000000	37.186455 
1679.000000	37.189674 
1678.000000	37.196373 
1677.000000	37.204480 
1676.000000	37.212038 
1675.000000	37.217569 
1674.000000	37.219834 
1673.000000	37.218022 
1672.000000	37.211561 
1671.000000	37.200236 
1670.000000	37.184309 
1669.000000	37.164354 
1668.000000	37.141466 
1667.000000	37.116789 
1666.000000	37.091612 
1665.000000	37.066745 
1664.000000	37.042808 
1663.000000	37.019705 
1662.000000	36.997175 
1661.000000	36.974620 
1660.000000	36.951661 
1659.000000	36.928343 
1658.000000	36.905193 
1657.000000	36.883211 
1656.000000	36.863803 
1655.000000	36.848139 
1654.000000	36.836767 
1653.000000	36.829638 
1652.000000	36.825966 
1651.000000	36.824393 
1650.000000	36.823296 
1649.000000	36.821198 
1648.000000	36.816954 
1647.000000	36.809802 
1646.000000	36.799502 
1645.000000	36.785936 
1644.000000	36.769127 
1643.000000	36.749434 
1642.000000	36.727428 
1641.000000	36.703801 
1640.000000	36.679458 
1639.000000	36.655569 
1638.000000	36.633205 
1637.000000	36.613297 
1636.000000	36.596322 
1635.000000	36.582279 
1634.000000	36.570715 
1633.000000	36.560750 
1632.000000	36.551475 
1631.000000	36.542177 
1630.000000	36.532402 
1629.000000	36.522150 
1628.000000	36.511659 
1627.000000	36.501336 
1626.000000	36.491441 
1625.000000	36.481809 
1624.000000	36.472105 
1623.000000	36.461639 
1622.000000	36.449766 
1621.000000	36.436033 
1620.000000	36.420345 
1619.000000	36.402845 
1618.000000	36.384272 
1617.000000	36.365485 
1616.000000	36.347365 
1615.000000	36.330652 
1614.000000	36.315774 
1613.000000	36.302852 
1612.000000	36.291670 
1611.000000	36.281776 
1610.000000	36.272692 
1609.000000	36.263680 
1608.000000	36.253976 
1607.000000	36.242818 
1606.000000	36.229443 
1605.000000	36.213254 
1604.000000	36.193823 
1603.000000	36.171126 
1602.000000	36.145496 
1601.000000	36.117577 
1600.000000	36.088299 
1599.000000	36.058712 
1598.000000	36.030054 
1597.000000	36.003637 
1596.000000	35.980868 
1595.000000	35.962891 
1594.000000	35.950779 
1593.000000	35.945296 
1592.000000	35.946559 
1591.000000	35.953927 
1590.000000	35.965824 
1589.000000	35.979890 
1588.000000	35.993337 
1587.000000	36.003112 
1586.000000	36.006546 
1585.000000	36.001825 
1584.000000	35.988402 
1583.000000	35.967183 
1582.000000	35.940098 
1581.000000	35.909819 
1580.000000	35.879087 
1579.000000	35.850214 
1578.000000	35.824632 
1577.000000	35.802698 
1576.000000	35.783743 
1575.000000	35.766434 
1574.000000	35.749149 
1573.000000	35.730361 
1572.000000	35.709095 
1571.000000	35.685157 
1570.000000	35.659098 
1569.000000	35.631990 
1568.000000	35.605120 
1567.000000	35.579729 
1566.000000	35.556530 
1565.000000	35.535812 
1564.000000	35.517024 
1563.000000	35.499477 
1562.000000	35.482287 
1561.000000	35.465097 
1560.000000	35.447859 
1559.000000	35.431456 
1558.000000	35.417151 
1557.000000	35.406494 
1556.000000	35.400652 
1555.000000	35.399913 
1554.000000	35.403680 
1553.000000	35.410237 
1552.000000	35.417008 
1551.000000	35.421252 
1550.000000	35.420751 
1549.000000	35.414385 
1548.000000	35.402488 
1547.000000	35.386610 
1546.000000	35.369133 
1545.000000	35.352730 
1544.000000	35.339426 
1543.000000	35.330295 
1542.000000	35.324859 
1541.000000	35.321736 
1540.000000	35.318636 
1539.000000	35.313415 
1538.000000	35.304284 
1537.000000	35.290765 
1536.000000	35.273337 
1535.000000	35.253381 
1534.000000	35.232663 
1533.000000	35.212802 
1532.000000	35.194873 
1531.000000	35.179257 
1530.000000	35.165381 
1529.000000	35.152268 
1528.000000	35.138845 
1527.000000	35.124301 
1526.000000	35.108208 
1525.000000	35.090637 
1524.000000	35.072040 
1523.000000	35.053062 
1522.000000	35.034060 
1521.000000	35.015034 
1520.000000	34.995675 
1519.000000	34.975409 
1518.000000	34.953618 
1517.000000	34.930038 
1516.000000	34.904813 
1515.000000	34.878873 
1514.000000	34.853529 
1513.000000	34.830665 
1512.000000	34.811925 
1511.000000	34.798693 
1510.000000	34.791421 
1509.000000	34.789943 
1508.000000	34.793090 
1507.000000	34.798955 
1506.000000	34.805178 
1505.000000	34.809255 
1504.000000	34.809017 
1503.000000	34.802865 
1502.000000	34.790039 
1501.000000	34.770870 
1500.000000	34.746694 
1499.000000	34.719562 
1498.000000	34.692025 
1497.000000	34.666395 
1496.000000	34.644365 
1495.000000	34.626770 
1494.000000	34.613537 
1493.000000	34.603810 
1492.000000	34.596252 
1491.000000	34.589529 
1490.000000	34.582543 
1489.000000	34.574460 
1488.000000	34.564709 
1487.000000	34.553074 
1486.000000	34.539532 
1485.000000	34.524202 
1484.000000	34.507203 
1483.000000	34.488940 
1482.000000	34.469819 
1481.000000	34.450602 
1480.000000	34.431982 
1479.000000	34.414672 
1478.000000	34.399032 
1477.000000	34.384989 
1476.000000	34.372138 
1475.000000	34.359598 
1474.000000	34.346723 
1473.000000	34.333300 
1472.000000	34.319615 
1471.000000	34.306454 
1470.000000	34.295082 
1469.000000	34.286761 
1468.000000	34.282374 
1467.000000	34.282183 
1466.000000	34.285616 
1465.000000	34.291672 
1464.000000	34.299087 
1463.000000	34.306573 
1462.000000	34.313297 
1461.000000	34.318399 
1460.000000	34.321451 
1459.000000	34.321761 
1458.000000	34.318232 
1457.000000	34.309387 
1456.000000	34.293532 
1455.000000	34.269547 
1454.000000	34.237241 
1453.000000	34.197854 
1452.000000	34.154295 
1451.000000	34.110331 
1450.000000	34.069967 
1449.000000	34.036302 
1448.000000	34.010815 
1447.000000	33.992838 
1446.000000	33.979892 
1445.000000	33.968162 
1444.000000	33.953595 
1443.000000	33.932900 
1442.000000	33.904433 
1441.000000	33.868455 
1440.000000	33.827328 
1439.000000	33.784866 
1438.000000	33.745765 
1437.000000	33.714294 
1436.000000	33.693480 
1435.000000	33.684659 
1434.000000	33.687233 
1433.000000	33.698749 
1432.000000	33.715891 
1431.000000	33.734798 
1430.000000	33.752298 
1429.000000	33.765912 
1428.000000	33.774352 
1427.000000	33.777475 
1426.000000	33.775734 
1425.000000	33.769941 
1424.000000	33.760499 
1423.000000	33.747458 
1422.000000	33.730363 
1421.000000	33.708643 
1420.000000	33.681821 
1419.000000	33.649969 
1418.000000	33.614063 
1417.000000	33.575987 
1416.000000	33.538031 
1415.000000	33.502531 
1414.000000	33.471202 
1413.000000	33.444952 
1412.000000	33.423876 
1411.000000	33.407354 
1410.000000	33.394289 
1409.000000	33.383464 
1408.000000	33.373999 
1407.000000	33.365678 
1406.000000	33.358502 
1405.000000	33.352971 
1404.000000	33.349442 
1403.000000	33.348035 
1402.000000	33.348369 
1401.000000	33.349680 
1400.000000	33.350849 
1399.000000	33.350634 
1398.000000	33.347988 
1397.000000	33.342289 
1396.000000	33.333802 
1395.000000	33.323311 
1394.000000	33.312129 
1393.000000	33.301520 
1392.000000	33.292627 
1391.000000	33.285903 
1390.000000	33.281064 
1389.000000	33.276653 
1388.000000	33.270239 
1387.000000	33.259034 
1386.000000	33.240437 
1385.000000	33.212590 
1384.000000	33.175134 
1383.000000	33.129477 
1382.000000	33.078765 
1381.000000	33.027195 
1380.000000	32.979393 
1379.000000	32.939362 
1378.000000	32.910037 
1377.000000	32.892441 
1376.000000	32.885766 
1375.000000	32.887363 
1374.000000	32.893586 
1373.000000	32.900238 
1372.000000	32.903623 
1371.000000	32.901048 
1370.000000	32.891583 
1369.000000	32.875847 
1368.000000	32.856035 
1367.000000	32.835006 
1366.000000	32.815670 
1365.000000	32.800292 
1364.000000	32.789945 
1363.000000	32.784247 
1362.000000	32.781767 
1361.000000	32.780504 
1360.000000	32.778310 
1359.000000	32.773637 
1358.000000	32.765769 
1357.000000	32.754826 
1356.000000	32.741522 
1355.000000	32.726716 
1354.000000	32.710742 
1353.000000	32.693433 
1352.000000	32.673931 
1351.000000	32.651329 
1350.000000	32.624793 
1349.000000	32.594394 
1348.000000	32.561612 
1347.000000	32.528853 
1346.000000	32.499265 
1345.000000	32.475805 
1344.000000	32.460808 
1343.000000	32.455039 
1342.000000	32.457613 
1341.000000	32.465934 
1340.000000	32.476282 
1339.000000	32.484436 
1338.000000	32.486557 
1337.000000	32.479691 
1336.000000	32.462596 
1335.000000	32.435560 
1334.000000	32.400369 
1333.000000	32.359910 
1332.000000	32.317566 
1331.000000	32.276725 
1330.000000	32.239913 
1329.000000	32.208776 
1328.000000	32.183766 
1327.000000	32.164144 
1326.000000	32.148504 
1325.000000	32.134771 
1324.000000	32.121181 
1323.000000	32.106351 
1322.000000	32.089948 
1321.000000	32.072424 
1320.000000	32.055211 
1319.000000	32.039856 
1318.000000	32.028007 
1317.000000	32.020711 
1316.000000	32.018351 
1315.000000	32.020139 
1314.000000	32.024717 
1313.000000	32.030391 
1312.000000	32.035374 
1311.000000	32.038164 
1310.000000	32.037854 
1309.000000	32.034158 
1308.000000	32.027292 
1307.000000	32.017707 
1306.000000	32.005977 
1305.000000	31.992340 
1304.000000	31.976747 
1303.000000	31.959056 
1302.000000	31.939220 
1301.000000	31.917500 
1300.000000	31.894445 
1299.000000	31.871342 
1298.000000	31.849861 
1297.000000	31.831645 
1296.000000	31.818032 
1295.000000	31.809735 
1294.000000	31.806516 
1293.000000	31.807279 
1292.000000	31.810474 
1291.000000	31.814336 
1290.000000	31.817269 
1289.000000	31.818389 
1288.000000	31.817579 
1287.000000	31.815457 
1286.000000	31.812906 
1285.000000	31.810832 
1284.000000	31.809639 
1283.000000	31.809091 
1282.000000	31.808114 
1281.000000	31.805014 
1280.000000	31.797814 
1279.000000	31.784796 
1278.000000	31.764745 
1277.000000	31.737446 
1276.000000	31.703853 
1275.000000	31.665778 
1274.000000	31.625843 
1273.000000	31.587100 
1272.000000	31.552410 
1271.000000	31.524348 
1270.000000	31.504416 
1269.000000	31.493353 
1268.000000	31.490564 
1267.000000	31.494426 
1266.000000	31.502294 
1265.000000	31.511068 
1264.000000	31.517434 
1263.000000	31.518435 
1262.000000	31.512260 
1261.000000	31.498312 
1260.000000	31.477475 
1259.000000	31.451940 
1258.000000	31.424760 
1257.000000	31.399202 
1256.000000	31.378006 
1255.000000	31.362867 
1254.000000	31.353998 
1253.000000	31.350302 
1252.000000	31.349754 
1251.000000	31.349849 
1250.000000	31.348228 
1249.000000	31.343317 
1248.000000	31.334400 
1247.000000	31.321787 
1246.000000	31.306314 
1245.000000	31.289196 
1244.000000	31.271553 
1243.000000	31.254076 
1242.000000	31.237030 
1241.000000	31.220126 
1240.000000	31.203103 
1239.000000	31.185722 
1238.000000	31.168079 
1237.000000	31.150412 
1236.000000	31.133103 
1235.000000	31.116533 
1234.000000	31.100749 
1233.000000	31.085443 
1232.000000	31.069922 
1231.000000	31.053280 
1230.000000	31.034779 
1229.000000	31.014180 
1228.000000	30.991744 
1227.000000	30.968332 
1226.000000	30.945134 
1225.000000	30.923390 
1224.000000	30.904126 
1223.000000	30.887913 
1222.000000	30.874848 
1221.000000	30.864357 
1220.000000	30.855584 
1219.000000	30.847620 
1218.000000	30.839800 
1217.000000	30.831480 
1216.000000	30.822467 
1215.000000	30.812835 
1214.000000	30.802869 
1213.000000	30.792689 
1212.000000	30.782413 
1211.000000	30.771827 
1210.000000	30.760622 
1209.000000	30.748510 
1208.000000	30.735540 
1207.000000	30.722093 
1206.000000	30.708980 
1205.000000	30.697321 
1204.000000	30.688571 
1203.000000	30.684041 
1202.000000	30.684566 
1201.000000	30.690217 
1200.000000	30.700087 
1199.000000	30.712342 
1198.000000	30.724430 
1197.000000	30.733442 
1196.000000	30.736780 
1195.000000	30.732512 
1194.000000	30.719733 
1193.000000	30.698513 
1192.000000	30.669808 
1191.000000	30.635094 
1190.000000	30.596256 
1189.000000	30.555319 
1188.000000	30.514359 
1187.000000	30.475378 
1186.000000	30.440449 
1185.000000	30.411243 
1184.000000	30.388975 
1183.000000	30.373859 
1182.000000	30.365204 
1181.000000	30.361008 
1180.000000	30.358576 
1179.000000	30.354881 
1178.000000	30.346941 
1177.000000	30.332660 
1176.000000	30.311083 
1175.000000	30.282664 
1174.000000	30.249118 
1173.000000	30.212569 
1172.000000	30.175042 
1171.000000	30.138015 
1170.000000	30.102181 
1169.000000	30.067443 
1168.000000	30.033445 
1167.000000	29.999685 
1166.000000	29.966306 
1165.000000	29.934144 
1164.000000	29.904913 
1163.000000	29.880332 
1162.000000	29.862213 
1161.000000	29.851651 
1160.000000	29.848790 
1159.000000	29.852533 
1158.000000	29.860568 
1157.000000	29.869461 
1156.000000	29.875612 
1155.000000	29.875588 
1154.000000	29.867219 
1153.000000	29.849720 
1152.000000	29.824376 
1151.000000	29.794263 
1150.000000	29.763793 
1149.000000	29.737567 
1148.000000	29.719877 
1147.000000	29.713511 
1146.000000	29.718875 
1145.000000	29.733347 
1144.000000	29.752278 
1143.000000	29.769468 
1142.000000	29.778289 
1141.000000	29.773020 
1140.000000	29.750251 
1139.000000	29.709434 
1138.000000	29.652881 
1137.000000	29.585218 
1136.000000	29.512548 
1135.000000	29.441046 
1134.000000	29.375886 
1133.000000	29.320454 
1132.000000	29.275965 
1131.000000	29.241800 
1130.000000	29.216194 
1129.000000	29.196929 
1128.000000	29.181933 
1127.000000	29.170274 
1126.000000	29.161977 
1125.000000	29.158520 
1124.000000	29.161643 
1123.000000	29.173564 
1122.000000	29.195785 
1121.000000	29.229283 
1120.000000	29.273653 
1119.000000	29.327058 
1118.000000	29.385876 
1117.000000	29.445409 
1116.000000	29.500269 
1115.000000	29.545116 
1114.000000	29.575300 
1113.000000	29.587817 
1112.000000	29.581451 
1111.000000	29.557514 
1110.000000	29.518914 
1109.000000	29.470443 
1108.000000	29.416942 
1107.000000	29.363226 
1106.000000	29.312610 
1105.000000	29.267144 
1104.000000	29.227089 
1103.000000	29.191565 
1102.000000	29.159235 
1101.000000	29.128885 
1100.000000	29.100823 
1099.000000	29.076576 
1098.000000	29.059529 
1097.000000	29.053235 
1096.000000	29.061484 
1095.000000	29.086589 
1094.000000	29.128599 
1093.000000	29.184508 
1092.000000	29.248714 
1091.000000	29.313707 
1090.000000	29.371094 
1089.000000	29.412984 
1088.000000	29.433631 
1087.000000	29.430174 
1086.000000	29.403328 
1085.000000	29.356694 
1084.000000	29.296565 
1083.000000	29.229807 
1082.000000	29.163575 
1081.000000	29.102611 
1080.000000	29.049539 
1079.000000	29.003739 
1078.000000	28.962588 
1077.000000	28.922057 
1076.000000	28.878259 
1075.000000	28.828668 
1074.000000	28.772878 
1073.000000	28.712749 
1072.000000	28.651976 
1071.000000	28.594923 
1070.000000	28.545451 
1069.000000	28.505849 
1068.000000	28.476262 
1067.000000	28.454923 
1066.000000	28.438806 
1065.000000	28.424668 
1064.000000	28.410482 
1063.000000	28.395676 
1062.000000	28.381633 
1061.000000	28.370976 
1060.000000	28.367018 
1059.000000	28.371882 
1058.000000	28.386092 
1057.000000	28.408169 
1056.000000	28.434777 
1055.000000	28.461408 
1054.000000	28.482770 
1053.000000	28.494286 
1052.000000	28.492593 
1051.000000	28.476333 
1050.000000	28.446173 
1049.000000	28.404068 
1048.000000	28.353428 
1047.000000	28.298521 
1046.000000	28.244209 
1045.000000	28.195381 
1044.000000	28.156566 
1043.000000	28.131651 
1042.000000	28.122925 
1041.000000	28.130769 
1040.000000	28.153538 
1039.000000	28.187680 
1038.000000	28.228282 
1037.000000	28.269672 
1036.000000	28.306603 
1035.000000	28.334712 
1034.000000	28.350806 
1033.000000	28.353095 
1032.000000	28.341078 
1031.000000	28.315472 
1030.000000	28.277969 
1029.000000	28.231382 
1028.000000	28.179264 
1027.000000	28.125810 
1026.000000	28.075718 
1025.000000	28.033208 
1024.000000	28.001666 
1023.000000	27.982854 
1022.000000	27.976989 
1021.000000	27.982282 
1020.000000	27.995181 
1019.000000	28.011512 
1018.000000	28.027534 
1017.000000	28.040552 
1016.000000	28.049421 
1015.000000	28.054285 
1014.000000	28.056025 
1013.000000	28.055787 
1012.000000	28.054094 
1011.000000	28.050994 
1010.000000	28.045773 
1009.000000	28.037619 
1008.000000	28.025794 
1007.000000	28.010153 
1006.000000	27.991127 
1005.000000	27.969646 
1004.000000	27.946853 
1003.000000	27.924084 
1002.000000	27.902412 
1001.000000	27.882385 
1000.000000	27.863645 
999.000000	 27.845287 
998.000000	 27.825617 
997.000000	 27.803134 
996.000000	 27.776527 
995.000000	 27.744960 
994.000000	 27.708530 
993.000000	 27.668237 
992.000000	 27.625608 
991.000000	 27.582454 
990.000000	 27.540493 
989.000000	 27.500987 
988.000000	 27.464675 
987.000000	 27.431535 
986.000000	 27.401065 
985.000000	 27.372598 
984.000000	 27.345824 
983.000000	 27.320837 
982.000000	 27.298116 
981.000000	 27.278137 
980.000000	 27.260947 
979.000000	 27.246212 
978.000000	 27.232384 
977.000000	 27.217793 
976.000000	 27.200722 
975.000000	 27.180433 
974.000000	 27.157378 
973.000000	 27.133131 
972.000000	 27.109980 
971.000000	 27.090477 
970.000000	 27.076387 
969.000000	 27.068448 
968.000000	 27.066063 
967.000000	 27.067780 
966.000000	 27.071738 
965.000000	 27.076339 
964.000000	 27.080488 
963.000000	 27.084040 
962.000000	 27.087640 
961.000000	 27.092146 
960.000000	 27.097988 
959.000000	 27.104783 
958.000000	 27.110958 
957.000000	 27.113914 
956.000000	 27.110385 
955.000000	 27.097535 
954.000000	 27.073502 
953.000000	 27.037954 
952.000000	 26.992392 
951.000000	 26.939821 
950.000000	 26.884341 
949.000000	 26.830148 
948.000000	 26.781082 
947.000000	 26.739835 
946.000000	 26.707768 
945.000000	 26.684689 
944.000000	 26.669406 
943.000000	 26.660275 
942.000000	 26.656246 
941.000000	 26.656556 
940.000000	 26.661372 
939.000000	 26.671051 
938.000000	 26.685595 
937.000000	 26.704049 
936.000000	 26.723837 
935.000000	 26.740908 
934.000000	 26.750540 
933.000000	 26.748466 
932.000000	 26.731514 
931.000000	 26.698589 
930.000000	 26.651024 
929.000000	 26.592493 
928.000000	 26.527857 
927.000000	 26.462340 
926.000000	 26.400494 
925.000000	 26.345634 
924.000000	 26.299405 
923.000000	 26.262617 
922.000000	 26.235365 
921.000000	 26.218056 
920.000000	 26.211428 
919.000000	 26.216673 
918.000000	 26.234126 
917.000000	 26.263284 
916.000000	 26.301884 
915.000000	 26.345896 
914.000000	 26.389789 
913.000000	 26.427078 
912.000000	 26.452064 
911.000000	 26.459836 
910.000000	 26.447677 
909.000000	 26.414680 
908.000000	 26.362180 
907.000000	 26.293087 
906.000000	 26.211690 
905.000000	 26.122760 
904.000000	 26.031374 
903.000000	 25.942420 
902.000000	 25.860333 
901.000000	 25.788784 
900.000000	 25.730490 
899.000000	 25.686860 
898.000000	 25.657963 
897.000000	 25.642490 
896.000000	 25.638270 
895.000000	 25.642204 
894.000000	 25.651502 
893.000000	 25.663352 
892.000000	 25.676035 
891.000000	 25.688099 
890.000000	 25.699114 
889.000000	 25.708460 
888.000000	 25.716185 
887.000000	 25.722289 
886.000000	 25.726795 
885.000000	 25.729703 
884.000000	 25.730895 
883.000000	 25.730443 
882.000000	 25.728154 
881.000000	 25.723695 
880.000000	 25.716519 
879.000000	 25.706052 
878.000000	 25.691747 
877.000000	 25.673294 
876.000000	 25.650906 
875.000000	 25.625324 
874.000000	 25.598192 
873.000000	 25.571632 
872.000000	 25.547671 
871.000000	 25.527739 
870.000000	 25.512671 
869.000000	 25.502133 
868.000000	 25.494980 
867.000000	 25.489306 
866.000000	 25.483155 
865.000000	 25.474739 
864.000000	 25.463032 
863.000000	 25.447511 
862.000000	 25.428366 
861.000000	 25.406146 
860.000000	 25.381565 
859.000000	 25.355148 
858.000000	 25.327229 
857.000000	 25.297737 
856.000000	 25.266504 
855.000000	 25.233364 
854.000000	 25.198340 
853.000000	 25.161767 
852.000000	 25.124597 
851.000000	 25.087928 
850.000000	 25.053095 
849.000000	 25.021219 
848.000000	 24.993133 
847.000000	 24.969172 
846.000000	 24.949216 
845.000000	 24.932551 
844.000000	 24.918246 
843.000000	 24.905133 
842.000000	 24.892377 
841.000000	 24.879598 
840.000000	 24.867153 
839.000000	 24.855637 
838.000000	 24.846005 
837.000000	 24.839282 
836.000000	 24.836134 
835.000000	 24.836707 
834.000000	 24.840426 
833.000000	 24.846148 
832.000000	 24.852085 
831.000000	 24.856305 
830.000000	 24.856734 
829.000000	 24.851751 
828.000000	 24.840164 
827.000000	 24.821591 
826.000000	 24.796342 
825.000000	 24.765658 
824.000000	 24.731683 
823.000000	 24.697351 
822.000000	 24.666070 
821.000000	 24.640846 
820.000000	 24.624276 
819.000000	 24.617409 
818.000000	 24.619317 
817.000000	 24.626779 
816.000000	 24.634790 
815.000000	 24.637556 
814.000000	 24.629402 
813.000000	 24.606466 
812.000000	 24.567532 
811.000000	 24.514627 
810.000000	 24.452733 
809.000000	 24.388504 
808.000000	 24.328947 
807.000000	 24.279427 
806.000000	 24.242806 
805.000000	 24.218606 
804.000000	 24.203276 
803.000000	 24.191689 
802.000000	 24.178934 
801.000000	 24.161624 
800.000000	 24.138689 
799.000000	 24.111866 
798.000000	 24.084734 
797.000000	 24.061465 
796.000000	 24.045491 
795.000000	 24.038600 
794.000000	 24.040460 
793.000000	 24.049139 
792.000000	 24.061679 
791.000000	 24.075078 
790.000000	 24.086904 
789.000000	 24.095892 
788.000000	 24.101614 
787.000000	 24.104642 
786.000000	 24.105310 
785.000000	 24.103355 
784.000000	 24.097466 
783.000000	 24.085760 
782.000000	 24.065852 
781.000000	 24.035930 
780.000000	 23.994827 
779.000000	 23.942971 
778.000000	 23.882150 
777.000000	 23.815798 
776.000000	 23.747873 
775.000000	 23.682212 
774.000000	 23.622202 
773.000000	 23.570251 
772.000000	 23.527765 
771.000000	 23.495125 
770.000000	 23.472213 
769.000000	 23.458504 
768.000000	 23.453569 
767.000000	 23.456692 
766.000000	 23.467040 
765.000000	 23.482823 
764.000000	 23.500990 
763.000000	 23.516821 
762.000000	 23.524713 
761.000000	 23.518872 
760.000000	 23.494243 
759.000000	 23.447990 
758.000000	 23.380231 
757.000000	 23.294377 
756.000000	 23.196792 
755.000000	 23.096084 
754.000000	 23.001122 
753.000000	 22.920298 
752.000000	 22.860336 
751.000000	 22.825050 
750.000000	 22.814989 
749.000000	 22.827482 
748.000000	 22.856974 
747.000000	 22.896242 
746.000000	 22.937393 
745.000000	 22.973513 
744.000000	 22.999668 
743.000000	 23.013877 
742.000000	 23.017048 
741.000000	 23.012733 
740.000000	 23.006057 
739.000000	 23.002552 
738.000000	 23.006796 
737.000000	 23.021483 
736.000000	 23.046565 
735.000000	 23.079562 
734.000000	 23.115468 
733.000000	 23.148894 
732.000000	 23.173713 
731.000000	 23.184943 
730.000000	 23.178625 
729.000000	 23.152804 
728.000000	 23.107337 
727.000000	 23.043870 
726.000000	 22.966027 
725.000000	 22.879099 
724.000000	 22.789359 
723.000000	 22.704052 
722.000000	 22.629141 
721.000000	 22.568750 
720.000000	 22.524142 
719.000000	 22.493696 
718.000000	 22.473359 
717.000000	 22.457790 
716.000000	 22.441697 
715.000000	 22.420930 
714.000000	 22.393560 
713.000000	 22.359919 
712.000000	 22.321844 
711.000000	 22.281455 
710.000000	 22.240114 
709.000000	 22.197508 
708.000000	 22.151374 
707.000000	 22.098398 
706.000000	 22.036051 
705.000000	 21.963262 
704.000000	 21.881461 
703.000000	 21.794629 
702.000000	 21.708536 
701.000000	 21.629571 
700.000000	 21.562504 
699.000000	 21.510434 
698.000000	 21.473693 
697.000000	 21.450495 
696.000000	 21.437621 
695.000000	 21.431136 
694.000000	 21.427083 
693.000000	 21.422481 
692.000000	 21.415543 
691.000000	 21.406006 
690.000000	 21.394515 
689.000000	 21.383047 
688.000000	 21.373772 
687.000000	 21.369171 
686.000000	 21.370816 
685.000000	 21.379494 
684.000000	 21.393847 
683.000000	 21.410512 
682.000000	 21.423840 
681.000000	 21.426820 
680.000000	 21.412563 
679.000000	 21.375656 
678.000000	 21.314167 
677.000000	 21.230530 
676.000000	 21.131682 
675.000000	 21.027660 
674.000000	 20.930409 
673.000000	 20.851087 
672.000000	 20.798015 
671.000000	 20.775198 
670.000000	 20.781373 
669.000000	 20.811009 
668.000000	 20.854759 
667.000000	 20.901679 
666.000000	 20.941138 
665.000000	 20.964646 
664.000000	 20.967221 
663.000000	 20.947647 
662.000000	 20.908308 
661.000000	 20.854091 
660.000000	 20.791435 
659.000000	 20.726871 
658.000000	 20.665836 
657.000000	 20.611858 
656.000000	 20.566487 
655.000000	 20.529341 
654.000000	 20.498728 
653.000000	 20.472383 
652.000000	 20.448160 
651.000000	 20.424890 
650.000000	 20.402216 
649.000000	 20.380663 
648.000000	 20.360898 
647.000000	 20.343351 
646.000000	 20.327448 
645.000000	 20.312190 
644.000000	 20.295906 
643.000000	 20.277285 
642.000000	 20.255541 
641.000000	 20.230937 
640.000000	 20.204544 
639.000000	 20.178079 
638.000000	 20.153474 
637.000000	 20.131921 
636.000000	 20.113587 
635.000000	 20.096921 
634.000000	 20.079231 
633.000000	 20.056343 
632.000000	 20.023846 
631.000000	 19.977903 
630.000000	 19.916963 
629.000000	 19.842457 
628.000000	 19.759202 
627.000000	 19.674754 
626.000000	 19.598031 
625.000000	 19.537353 
624.000000	 19.498562 
623.000000	 19.483399 
622.000000	 19.488954 
621.000000	 19.508194 
620.000000	 19.531202 
619.000000	 19.547510 
618.000000	 19.548034 
617.000000	 19.526696 
616.000000	 19.481730 
615.000000	 19.415473 
614.000000	 19.334387 
613.000000	 19.247031 
612.000000	 19.163441 
611.000000	 19.092774 
610.000000	 19.043159 
609.000000	 19.020295 
608.000000	 19.026875 
607.000000	 19.062042 
606.000000	 19.121003 
605.000000	 19.195294 
604.000000	 19.272971 
603.000000	 19.340658 
602.000000	 19.385480 
601.000000	 19.397521 
600.000000	 19.371461 
599.000000	 19.308042 
598.000000	 19.213676 
597.000000	 19.099640 
596.000000	 18.979907 
595.000000	 18.868732 
594.000000	 18.778347 
593.000000	 18.716764 
592.000000	 18.687319 
591.000000	 18.687534 
590.000000	 18.710732 
589.000000	 18.746972 
588.000000	 18.785047 
587.000000	 18.814992 
586.000000	 18.829488 
585.000000	 18.824911 
584.000000	 18.801069 
583.000000	 18.760657 
582.000000	 18.708062 
581.000000	 18.648004 
580.000000	 18.584275 
579.000000	 18.519115 
578.000000	 18.453001 
577.000000	 18.385195 
576.000000	 18.314743 
575.000000	 18.241620 
574.000000	 18.167114 
573.000000	 18.093776 
572.000000	 18.024587 
571.000000	 17.962241 
570.000000	 17.908215 
569.000000	 17.861723 
568.000000	 17.820525 
567.000000	 17.781424 
566.000000	 17.741799 
565.000000	 17.700171 
564.000000	 17.656683 
563.000000	 17.612886 
562.000000	 17.571330 
561.000000	 17.534208 
560.000000	 17.502903 
559.000000	 17.477178 
558.000000	 17.455387 
557.000000	 17.434883 
556.000000	 17.412662 
555.000000	 17.386007 
554.000000	 17.352938 
553.000000	 17.312574 
552.000000	 17.264771 
551.000000	 17.210340 
550.000000	 17.150306 
549.000000	 17.085862 
548.000000	 17.018699 
547.000000	 16.950988 
546.000000	 16.885566 
545.000000	 16.825461 
544.000000	 16.773295 
543.000000	 16.730141 
542.000000	 16.695594 
541.000000	 16.667127 
540.000000	 16.640377 
539.000000	 16.610264 
538.000000	 16.571903 
537.000000	 16.522383 
536.000000	 16.460585 
535.000000	 16.389298 
534.000000	 16.313958 
533.000000	 16.243100 
532.000000	 16.185998 
531.000000	 16.151142 
530.000000	 16.144013 
529.000000	 16.164922 
528.000000	 16.208291 
527.000000	 16.263103 
526.000000	 16.314816 
525.000000	 16.348314 
524.000000	 16.351294 
523.000000	 16.317152 
522.000000	 16.246891 
521.000000	 16.148638 
520.000000	 16.035842 
519.000000	 15.923738 
518.000000	 15.825867 
517.000000	 15.751576 
516.000000	 15.704298 
515.000000	 15.680623 
514.000000	 15.673065 
513.000000	 15.672850 
512.000000	 15.673232 
511.000000	 15.670752 
510.000000	 15.666580 
509.000000	 15.664887 
508.000000	 15.671038 
507.000000	 15.688419 
506.000000	 15.716862 
505.000000	 15.751767 
504.000000	 15.785026 
503.000000	 15.807151 
502.000000	 15.810060 
501.000000	 15.789484 
500.000000	 15.747189 
499.000000	 15.690279 
498.000000	 15.629935 
497.000000	 15.577507 
496.000000	 15.541601 
495.000000	 15.524077 
494.000000	 15.518212 
493.000000	 15.508794 
492.000000	 15.476322 
491.000000	 15.401339 
490.000000	 15.269994 
489.000000	 15.078616 
488.000000	 14.836001 
487.000000	 14.562797 
486.000000	 14.286422 
485.000000	 14.036226 
484.000000	 13.837027 
483.000000	 13.704061 
482.000000	 13.639831 
481.000000	 13.634943 
480.000000	 13.671135 
479.000000	 13.726663 
478.000000	 13.781404 
477.000000	 13.821291 
476.000000	 13.839721 
475.000000	 13.837575 
474.000000	 13.820505 
473.000000	 13.795924 
472.000000	 13.769531 
471.000000	 13.746881 
470.000000	 13.732457 
469.000000	 13.729691 
468.000000	 13.740897 
467.000000	 13.767981 
466.000000	 13.811755 
465.000000	 13.870620 
464.000000	 13.940668 
463.000000	 14.014744 
462.000000	 14.084553 
461.000000	 14.141678 
460.000000	 14.180088 
459.000000	 14.198255 
458.000000	 14.199066 
457.000000	 14.187932 
456.000000	 14.172768 
455.000000	 14.162468 
454.000000	 14.164638 
453.000000	 14.183998 
452.000000	 14.221310 
451.000000	 14.274621 
450.000000	 14.337277 
449.000000	 14.400577 
448.000000	 14.450931 
447.000000	 14.472889 
446.000000	 14.447569 
445.000000	 14.357161 
444.000000	 14.188480 
443.000000	 13.938283 
442.000000	 13.615918 
441.000000	 13.245058 
440.000000	 12.863302 
439.000000	 12.514805 
438.000000	 12.243795 
437.000000	 12.081027 
436.000000	 12.039661 
435.000000	 12.105393 
434.000000	 12.238097 
433.000000	 12.378334 
432.000000	 12.461304 
431.000000	 12.431049 
430.000000	 12.253904 
429.000000	 11.926031 
428.000000	 11.468958 
427.000000	 10.930681 
426.000000	 10.373425 
425.000000	 9.861516  
424.000000	 9.448027  
423.000000	 9.163761  
422.000000	 9.013724  
421.000000	 8.976316  
420.000000	 9.012126  
419.000000	 9.072661  
418.000000	 9.113788  
417.000000	 9.106445  
416.000000	 9.042334  
415.000000	 8.936977  
414.000000	 8.818244  
413.000000	 8.719754  
412.000000	 8.663153  
411.000000	 8.630061  
410.000000	 8.576679  
409.000000	 8.451128  
408.000000	 8.214592  
407.000000	 7.865023  
406.000000	 7.443451  
405.000000	 7.005286  
404.000000	 6.637668  
403.000000	 6.434512  
402.000000	 6.486129  
401.000000	 6.859254  
400.000000	 7.568144  
399.000000	 8.604884  
398.000000	 9.854555  
397.000000	 11.076664 
396.000000	 12.014293 
395.000000	 12.462306 
394.000000	 12.319636 
393.000000	 11.595511 
392.000000	 10.539603 
391.000000	 9.580183  
390.000000	 9.070467  
389.000000	 9.176015  
388.000000	 9.761023  
387.000000	 10.425329 
386.000000	 10.674500 
385.000000	 10.070347 
384.000000	 8.371663  
383.000000	 5.646967  
382.000000	 2.245855  
381.000000	 -1.223111 
380.000000	 -4.095458 
379.000000	 -5.736422 
378.000000	 -5.713272 
377.000000	 -3.854417 
376.000000	 -0.319862 
375.000000	 4.520368  
374.000000	 10.036778 
373.000000	 15.751194 
372.000000	 21.344637 
371.000000	 26.970052 
370.000000	 33.106422 

