PE IR       SPECTRUM    SPECTRUM    ASCII       PEDS        1.60        
  -1
C-1D6E~1.ASC
17/03/27
20:44:20.00
17/03/27
20:44:20.00
tln
$C-4040-8_t0076$<tbV0>[-10.4,2.6,8.0,0.0,27,1,0]
370.000000
64









2002,4.07    
MIRTGS : RIGHTBACK : INTERNAL 2
MIR : ON : INTERNAL 2
OPTKBR

0.200000
8
8.000000
FILLER
RATIO
SPECTRUM
UNLOCKED 256

DOUBLE
64
COMBINED
1
0
0


1.000000
RATIO


1
0
TRUE
51149
0
LEFT NOT FITTED RIGHT NOT FITTED 0
NONE
NONE
15600
12.000000
4.427000
51148
TRUE
1 0 8 72 0 0 0 0 

15798.010000






#HDR
-1
-1
#GR
CM-1
%T
0.00002384185791015625
0.0
5000.000000
-1.000000
4631
8
83.084726
25.919723
#DATA
5000.000000	65.312528 
4999.000000	65.350675 
4998.000000	65.379619 
4997.000000	65.392851 
4996.000000	65.383410 
4995.000000	65.345978 
4994.000000	65.278911 
4993.000000	65.185928 
4992.000000	65.076398 
4991.000000	64.964413 
4990.000000	64.865779 
4989.000000	64.794898 
4988.000000	64.761137 
4987.000000	64.766883 
4986.000000	64.806532 
4985.000000	64.868044 
4984.000000	64.935851 
4983.000000	64.994955 
4982.000000	65.034604 
4981.000000	65.050673 
4980.000000	65.046215 
4979.000000	65.029931 
4978.000000	65.013837 
4977.000000	65.008592 
4976.000000	65.021038 
4975.000000	65.050315 
4974.000000	65.088963 
4973.000000	65.122628 
4972.000000	65.134835 
4971.000000	65.110278 
4970.000000	65.038943 
4969.000000	64.920163 
4968.000000	64.762997 
4967.000000	64.586281 
4966.000000	64.413833 
4965.000000	64.270615 
4964.000000	64.176869 
4963.000000	64.143943 
4962.000000	64.172053 
4961.000000	64.250659 
4960.000000	64.361333 
4959.000000	64.482855 
4958.000000	64.596104 
4957.000000	64.688849 
4956.000000	64.757418 
4955.000000	64.806771 
4954.000000	64.847111 
4953.000000	64.889407 
4952.000000	64.940762 
4951.000000	65.001678 
4950.000000	65.065217 
4949.000000	65.120053 
4948.000000	65.152692 
4947.000000	65.153741 
4946.000000	65.119171 
4945.000000	65.052342 
4944.000000	64.962720 
4943.000000	64.863586 
4942.000000	64.768886 
4941.000000	64.689660 
4940.000000	64.632320 
4939.000000	64.598155 
4938.000000	64.583349 
4937.000000	64.580965 
4936.000000	64.583277 
4935.000000	64.584183 
4934.000000	64.580392 
4933.000000	64.571404 
4932.000000	64.560031 
4931.000000	64.550733 
4930.000000	64.549088 
4929.000000	64.559912 
4928.000000	64.586257 
4927.000000	64.628219 
4926.000000	64.683580 
4925.000000	64.747834 
4924.000000	64.814424 
4923.000000	64.875793 
4922.000000	64.924979 
4921.000000	64.956712 
4920.000000	64.968609 
4919.000000	64.961552 
4918.000000	64.939308 
4917.000000	64.907956 
4916.000000	64.874458 
4915.000000	64.845561 
4914.000000	64.826989 
4913.000000	64.822292 
4912.000000	64.832973 
4911.000000	64.857959 
4910.000000	64.893889 
4909.000000	64.936280 
4908.000000	64.980840 
4907.000000	65.023112 
4906.000000	65.059089 
4905.000000	65.085101 
4904.000000	65.098476 
4903.000000	65.096974 
4902.000000	65.079236 
4901.000000	65.044951 
4900.000000	64.995455 
4899.000000	64.934611 
4898.000000	64.868831 
4897.000000	64.806628 
4896.000000	64.757180 
4895.000000	64.729237 
4894.000000	64.728498 
4893.000000	64.756059 
4892.000000	64.807152 
4891.000000	64.872169 
4890.000000	64.938092 
4889.000000	64.990282 
4888.000000	65.017271 
4887.000000	65.012240 
4886.000000	64.976716 
4885.000000	64.919161 
4884.000000	64.854645 
4883.000000	64.801001 
4882.000000	64.775156 
4881.000000	64.789199 
4880.000000	64.847016 
4879.000000	64.943456 
4878.000000	65.064764 
4877.000000	65.191984 
4876.000000	65.304446 
4875.000000	65.384602 
4874.000000	65.421104 
4873.000000	65.410876 
4872.000000	65.359139 
4871.000000	65.277409 
4870.000000	65.180993 
4869.000000	65.084910 
4868.000000	65.000557 
4867.000000	64.933514 
4866.000000	64.884805 
4865.000000	64.850497 
4864.000000	64.823818 
4863.000000	64.797830 
4862.000000	64.767575 
4861.000000	64.731621 
4860.000000	64.691781 
4859.000000	64.653182 
4858.000000	64.620900 
4857.000000	64.600157 
4856.000000	64.594292 
4855.000000	64.604091 
4854.000000	64.627051 
4853.000000	64.658570 
4852.000000	64.692854 
4851.000000	64.724016 
4850.000000	64.747405 
4849.000000	64.760017 
4848.000000	64.760780 
4847.000000	64.750790 
4846.000000	64.733338 
4845.000000	64.713740 
4844.000000	64.699149 
4843.000000	64.697265 
4842.000000	64.715600 
4841.000000	64.760851 
4840.000000	64.836812 
4839.000000	64.944028 
4838.000000	65.077781 
4837.000000	65.228486 
4836.000000	65.381741 
4835.000000	65.521502 
4834.000000	65.631127 
4833.000000	65.696787 
4832.000000	65.709280 
4831.000000	65.666818 
4830.000000	65.574383 
4829.000000	65.443015 
4828.000000	65.288400 
4827.000000	65.128517 
4826.000000	64.981055 
4825.000000	64.861130 
4824.000000	64.779877 
4823.000000	64.743423 
4822.000000	64.752697 
4821.000000	64.803814 
4820.000000	64.888072 
4819.000000	64.993572 
4818.000000	65.106606 
4817.000000	65.213632 
4816.000000	65.302348 
4815.000000	65.363740 
4814.000000	65.392899 
4813.000000	65.389919 
4812.000000	65.359473 
4811.000000	65.309643 
4810.000000	65.250754 
4809.000000	65.193152 
4808.000000	65.145564 
4807.000000	65.113711 
4806.000000	65.100622 
4805.000000	65.106034 
4804.000000	65.127325 
4803.000000	65.160512 
4802.000000	65.201926 
4801.000000	65.247964 
4800.000000	65.295410 
4799.000000	65.340924 
4798.000000	65.380835 
4797.000000	65.410947 
4796.000000	65.426874 
4795.000000	65.424656 
4794.000000	65.401792 
4793.000000	65.358638 
4792.000000	65.299105 
4791.000000	65.230584 
4790.000000	65.162849 
4789.000000	65.106201 
4788.000000	65.069484 
4787.000000	65.058517 
4786.000000	65.074872 
4785.000000	65.114831 
4784.000000	65.170598 
4783.000000	65.232276 
4782.000000	65.289974 
4781.000000	65.335392 
4780.000000	65.363574 
4779.000000	65.373086 
4778.000000	65.366101 
4777.000000	65.347194 
4776.000000	65.322113 
4775.000000	65.295839 
4774.000000	65.271687 
4773.000000	65.251255 
4772.000000	65.233874 
4771.000000	65.217852 
4770.000000	65.200543 
4769.000000	65.179634 
4768.000000	65.153598 
4767.000000	65.122222 
4766.000000	65.086412 
4765.000000	65.047645 
4764.000000	65.007734 
4763.000000	64.968132 
4762.000000	64.929795 
4761.000000	64.893078 
4760.000000	64.857554 
4759.000000	64.822936 
4758.000000	64.789319 
4757.000000	64.758157 
4756.000000	64.731311 
4755.000000	64.712047 
4754.000000	64.704012 
4753.000000	64.710664 
4752.000000	64.734530 
4751.000000	64.775919 
4750.000000	64.832472 
4749.000000	64.898896 
4748.000000	64.967560 
4747.000000	65.029358 
4746.000000	65.075421 
4745.000000	65.099024 
4744.000000	65.096902 
4743.000000	65.070295 
4742.000000	65.024805 
4741.000000	64.969205 
4740.000000	64.913392 
4739.000000	64.866709 
4738.000000	64.836120 
4737.000000	64.825034 
4736.000000	64.833331 
4735.000000	64.857959 
4734.000000	64.894413 
4733.000000	64.938187 
4732.000000	64.986133 
4731.000000	65.036320 
4730.000000	65.088510 
4729.000000	65.142893 
4728.000000	65.199422 
4727.000000	65.256714 
4726.000000	65.312027 
4725.000000	65.361547 
4724.000000	65.400862 
4723.000000	65.426826 
4722.000000	65.437364 
4721.000000	65.432381 
4720.000000	65.413594 
4719.000000	65.384602 
4718.000000	65.349912 
4717.000000	65.314364 
4716.000000	65.282511 
4715.000000	65.258049 
4714.000000	65.243291 
4713.000000	65.239000 
4712.000000	65.244364 
4711.000000	65.256929 
4710.000000	65.272688 
4709.000000	65.286660 
4708.000000	65.293574 
4707.000000	65.288591 
4706.000000	65.268158 
4705.000000	65.230822 
4704.000000	65.177345 
4703.000000	65.111398 
4702.000000	65.038704 
4701.000000	64.966678 
4700.000000	64.902496 
4699.000000	64.852523 
4698.000000	64.821720 
4697.000000	64.812684 
4696.000000	64.825129 
4695.000000	64.856529 
4694.000000	64.902281 
4693.000000	64.956927 
4692.000000	65.014457 
4691.000000	65.070056 
4690.000000	65.120100 
4689.000000	65.163064 
4688.000000	65.199065 
4687.000000	65.229415 
4686.000000	65.255856 
4685.000000	65.280151 
4684.000000	65.303492 
4683.000000	65.326142 
4682.000000	65.347123 
4681.000000	65.365314 
4680.000000	65.379118 
4679.000000	65.387225 
4678.000000	65.388464 
4677.000000	65.382385 
4676.000000	65.368843 
4675.000000	65.348362 
4674.000000	65.322017 
4673.000000	65.291452 
4672.000000	65.259099 
4671.000000	65.227651 
4670.000000	65.200376 
4669.000000	65.180611 
4668.000000	65.171384 
4667.000000	65.174841 
4666.000000	65.191960 
4665.000000	65.221881 
4664.000000	65.262341 
4663.000000	65.309762 
4662.000000	65.360021 
4661.000000	65.408992 
4660.000000	65.453910 
4659.000000	65.493464 
4658.000000	65.527939 
4657.000000	65.558505 
4656.000000	65.586423 
4655.000000	65.612339 
4654.000000	65.635514 
4653.000000	65.653753 
4652.000000	65.664386 
4651.000000	65.664815 
4650.000000	65.653896 
4649.000000	65.632247 
4648.000000	65.603399 
4647.000000	65.572214 
4646.000000	65.544342 
4645.000000	65.524148 
4644.000000	65.513563 
4643.000000	65.511369 
4642.000000	65.513467 
4641.000000	65.514373 
4640.000000	65.508913 
4639.000000	65.494179 
4638.000000	65.470385 
4637.000000	65.441203 
4636.000000	65.412712 
4635.000000	65.391683 
4634.000000	65.383386 
4633.000000	65.390610 
4632.000000	65.413045 
4631.000000	65.446996 
4630.000000	65.486431 
4629.000000	65.524744 
4628.000000	65.555882 
4627.000000	65.575432 
4626.000000	65.581107 
4625.000000	65.572571 
4624.000000	65.551352 
4623.000000	65.519857 
4622.000000	65.481257 
4621.000000	65.438985 
4620.000000	65.396285 
4619.000000	65.356826 
4618.000000	65.323185 
4617.000000	65.297579 
4616.000000	65.280413 
4615.000000	65.270733 
4614.000000	65.265941 
4613.000000	65.262603 
4612.000000	65.256810 
4611.000000	65.245199 
4610.000000	65.225458 
4609.000000	65.196847 
4608.000000	65.160059 
4607.000000	65.117120 
4606.000000	65.070629 
4605.000000	65.023279 
4604.000000	64.977383 
4603.000000	64.934873 
4602.000000	64.897346 
4601.000000	64.866185 
4600.000000	64.842939 
4599.000000	64.829206 
4598.000000	64.826536 
4597.000000	64.836072 
4596.000000	64.857840 
4595.000000	64.890432 
4594.000000	64.930915 
4593.000000	64.974474 
4592.000000	65.015769 
4591.000000	65.048623 
4590.000000	65.067172 
4589.000000	65.066790 
4588.000000	65.045428 
4587.000000	65.003728 
4586.000000	64.945173 
4585.000000	64.876198 
4584.000000	64.805507 
4583.000000	64.742565 
4582.000000	64.695787 
4581.000000	64.671230 
4580.000000	64.671611 
4579.000000	64.695334 
4578.000000	64.737153 
4577.000000	64.788746 
4576.000000	64.840650 
4575.000000	64.884281 
4574.000000	64.913892 
4573.000000	64.927053 
4572.000000	64.925241 
4571.000000	64.912962 
4570.000000	64.896678 
4569.000000	64.882683 
4568.000000	64.876079 
4567.000000	64.879727 
4566.000000	64.894151 
4565.000000	64.917969 
4564.000000	64.948654 
4563.000000	64.983248 
4562.000000	65.019559 
4561.000000	65.056514 
4560.000000	65.094375 
4559.000000	65.133738 
4558.000000	65.175628 
4557.000000	65.220427 
4556.000000	65.267443 
4555.000000	65.314698 
4554.000000	65.358734 
4553.000000	65.395188 
4552.000000	65.419077 
4551.000000	65.425777 
4550.000000	65.411591 
4549.000000	65.374517 
4548.000000	65.314984 
4547.000000	65.235972 
4546.000000	65.142345 
4545.000000	65.040445 
4544.000000	64.937305 
4543.000000	64.840054 
4542.000000	64.754295 
4541.000000	64.684939 
4540.000000	64.635300 
4539.000000	64.608335 
4538.000000	64.605760 
4537.000000	64.629602 
4536.000000	64.681005 
4535.000000	64.760184 
4534.000000	64.864993 
4533.000000	64.989733 
4532.000000	65.124988 
4531.000000	65.257716 
4530.000000	65.372657 
4529.000000	65.455126 
4528.000000	65.493535 
4527.000000	65.481686 
4526.000000	65.420341 
4525.000000	65.316414 
4524.000000	65.181851 
4523.000000	65.030980 
4522.000000	64.878010 
4521.000000	64.734625 
4520.000000	64.608955 
4519.000000	64.505553 
4518.000000	64.426255 
4517.000000	64.371156 
4516.000000	64.339876 
4515.000000	64.331746 
4514.000000	64.346098 
4513.000000	64.380288 
4512.000000	64.430379 
4511.000000	64.489197 
4510.000000	64.548921 
4509.000000	64.600968 
4508.000000	64.638686 
4507.000000	64.658236 
4506.000000	64.659619 
4505.000000	64.646339 
4504.000000	64.624094 
4503.000000	64.599084 
4502.000000	64.576387 
4501.000000	64.558792 
4500.000000	64.546537 
4499.000000	64.537763 
4498.000000	64.529943 
4497.000000	64.521074 
4496.000000	64.510536 
4495.000000	64.499449 
4494.000000	64.490342 
4493.000000	64.486265 
4492.000000	64.489698 
4491.000000	64.501476 
4490.000000	64.520144 
4489.000000	64.542007 
4488.000000	64.562916 
4487.000000	64.578342 
4486.000000	64.584493 
4485.000000	64.578723 
4484.000000	64.560723 
4483.000000	64.531779 
4482.000000	64.494085 
4481.000000	64.450812 
4480.000000	64.405536 
4479.000000	64.362359 
4478.000000	64.325547 
4477.000000	64.299154 
4476.000000	64.286971 
4475.000000	64.291357 
4474.000000	64.312863 
4473.000000	64.349174 
4472.000000	64.395332 
4471.000000	64.443945 
4470.000000	64.486169 
4469.000000	64.513468 
4468.000000	64.519214 
4467.000000	64.500188 
4466.000000	64.457416 
4465.000000	64.395713 
4464.000000	64.323329 
4463.000000	64.250349 
4462.000000	64.187431 
4461.000000	64.143180 
4460.000000	64.123964 
4459.000000	64.133048 
4458.000000	64.170694 
4457.000000	64.234185 
4456.000000	64.318704 
4455.000000	64.417672 
4454.000000	64.523744 
4453.000000	64.628863 
4452.000000	64.725828 
4451.000000	64.808320 
4450.000000	64.872264 
4449.000000	64.916086 
4448.000000	64.940381 
4447.000000	64.947581 
4446.000000	64.941287 
4445.000000	64.925861 
4444.000000	64.905595 
4443.000000	64.884185 
4442.000000	64.863610 
4441.000000	64.843988 
4440.000000	64.823842 
4439.000000	64.800286 
4438.000000	64.768838 
4437.000000	64.724779 
4436.000000	64.665579 
4435.000000	64.591431 
4434.000000	64.505314 
4433.000000	64.412569 
4432.000000	64.320278 
4431.000000	64.235949 
4430.000000	64.164543 
4429.000000	64.109659 
4428.000000	64.073514 
4427.000000	64.057111 
4426.000000	64.059090 
4425.000000	64.077520 
4424.000000	64.110207 
4423.000000	64.154553 
4422.000000	64.206194 
4421.000000	64.260911 
4420.000000	64.314246 
4419.000000	64.361548 
4418.000000	64.399242 
4417.000000	64.419484 
4416.000000	64.409613 
4415.000000	64.362978 
4414.000000	64.280438 
4413.000000	64.156842 
4412.000000	63.985157 
4411.000000	63.771486 
4410.000000	63.530826 
4409.000000	63.284873 
4408.000000	63.055753 
4407.000000	62.855744 
4406.000000	62.687754 
4405.000000	62.548995 
4404.000000	62.429475 
4403.000000	62.323188 
4402.000000	62.219905 
4401.000000	62.104463 
4400.000000	61.962342 
4399.000000	61.765670 
4398.000000	61.506891 
4397.000000	61.211085 
4396.000000	60.922765 
4395.000000	60.705852 
4394.000000	60.600352 
4393.000000	60.598969 
4392.000000	60.675120 
4391.000000	60.777282 
4390.000000	60.962438 
4389.000000	61.389756 
4388.000000	62.331151 
4387.000000	64.075374 
4386.000000	66.758370 
4385.000000	70.287489 
4384.000000	74.257016 
4383.000000	78.056812 
4382.000000	81.063437 
4381.000000	82.785296 
4380.000000	83.084726 
4379.000000	82.123756 
4378.000000	80.301046 
4377.000000	78.108787 
4376.000000	75.938510 
4375.000000	74.038982 
4374.000000	72.498226 
4373.000000	71.257138 
4372.000000	70.261168 
4371.000000	69.416522 
4370.000000	68.675708 
4369.000000	68.006563 
4368.000000	67.375946 
4367.000000	66.776371 
4366.000000	66.201281 
4365.000000	65.665888 
4364.000000	65.192842 
4363.000000	64.808726 
4362.000000	64.533185 
4361.000000	64.369845 
4360.000000	64.303445 
4359.000000	64.314031 
4358.000000	64.379692 
4357.000000	64.475870 
4356.000000	64.580154 
4355.000000	64.672279 
4354.000000	64.738845 
4353.000000	64.764261 
4352.000000	64.740538 
4351.000000	64.676809 
4350.000000	64.591336 
4349.000000	64.499902 
4348.000000	64.418387 
4347.000000	64.359283 
4346.000000	64.330172 
4345.000000	64.339590 
4344.000000	64.387369 
4343.000000	64.460897 
4342.000000	64.543485 
4341.000000	64.621901 
4340.000000	64.682435 
4339.000000	64.712190 
4338.000000	64.704871 
4337.000000	64.662003 
4336.000000	64.591050 
4335.000000	64.503216 
4334.000000	64.414429 
4333.000000	64.342093 
4332.000000	64.300155 
4331.000000	64.296913 
4330.000000	64.335179 
4329.000000	64.411330 
4328.000000	64.516186 
4327.000000	64.636921 
4326.000000	64.759492 
4325.000000	64.871144 
4324.000000	64.962124 
4323.000000	65.026688 
4322.000000	65.062642 
4321.000000	65.070652 
4320.000000	65.053391 
4319.000000	65.014338 
4318.000000	64.957928 
4317.000000	64.888215 
4316.000000	64.809751 
4315.000000	64.726948 
4314.000000	64.645361 
4313.000000	64.570426 
4312.000000	64.507484 
4311.000000	64.460587 
4310.000000	64.431929 
4309.000000	64.421725 
4308.000000	64.428257 
4307.000000	64.448213 
4306.000000	64.477252 
4305.000000	64.511036 
4304.000000	64.545679 
4303.000000	64.578223 
4302.000000	64.606738 
4301.000000	64.629364 
4300.000000	64.644861 
4299.000000	64.652013 
4298.000000	64.650535 
4297.000000	64.641380 
4296.000000	64.627003 
4295.000000	64.611268 
4294.000000	64.598274 
4293.000000	64.592361 
4292.000000	64.596080 
4291.000000	64.609670 
4290.000000	64.630675 
4289.000000	64.654684 
4288.000000	64.676284 
4287.000000	64.690685 
4286.000000	64.694714 
4285.000000	64.687585 
4284.000000	64.671492 
4283.000000	64.650964 
4282.000000	64.631867 
4281.000000	64.619755 
4280.000000	64.619016 
4279.000000	64.631676 
4278.000000	64.657592 
4277.000000	64.693999 
4276.000000	64.736747 
4275.000000	64.780306 
4274.000000	64.818882 
4273.000000	64.847207 
4272.000000	64.861011 
4271.000000	64.857959 
4270.000000	64.838790 
4269.000000	64.806795 
4268.000000	64.767813 
4267.000000	64.728569 
4266.000000	64.695620 
4265.000000	64.673781 
4264.000000	64.665269 
4263.000000	64.669752 
4262.000000	64.684939 
4261.000000	64.707565 
4260.000000	64.734411 
4259.000000	64.762830 
4258.000000	64.791059 
4257.000000	64.817762 
4256.000000	64.841532 
4255.000000	64.860534 
4254.000000	64.872455 
4253.000000	64.874839 
4252.000000	64.865660 
4251.000000	64.844655 
4250.000000	64.813494 
4249.000000	64.776206 
4248.000000	64.738082 
4247.000000	64.704465 
4246.000000	64.679431 
4245.000000	64.664602 
4244.000000	64.659214 
4243.000000	64.660525 
4242.000000	64.664793 
4241.000000	64.669013 
4240.000000	64.671230 
4239.000000	64.670944 
4238.000000	64.668822 
4237.000000	64.665913 
4236.000000	64.663267 
4235.000000	64.660787 
4234.000000	64.657616 
4233.000000	64.652395 
4232.000000	64.643716 
4231.000000	64.631152 
4230.000000	64.614915 
4229.000000	64.596223 
4228.000000	64.576530 
4227.000000	64.556932 
4226.000000	64.537596 
4225.000000	64.517641 
4224.000000	64.495372 
4223.000000	64.469289 
4222.000000	64.439249 
4221.000000	64.407205 
4220.000000	64.376497 
4219.000000	64.351749 
4218.000000	64.338040 
4217.000000	64.339876 
4216.000000	64.359474 
4215.000000	64.396715 
4214.000000	64.448952 
4213.000000	64.511227 
4212.000000	64.577937 
4211.000000	64.643049 
4210.000000	64.701128 
4209.000000	64.747929 
4208.000000	64.780926 
4207.000000	64.798688 
4206.000000	64.800500 
4205.000000	64.786553 
4204.000000	64.757704 
4203.000000	64.716124 
4202.000000	64.665603 
4201.000000	64.611506 
4200.000000	64.560580 
4199.000000	64.521121 
4198.000000	64.501905 
4197.000000	64.510822 
4196.000000	64.553570 
4195.000000	64.632511 
4194.000000	64.745807 
4193.000000	64.886999 
4192.000000	65.045356 
4191.000000	65.207529 
4190.000000	65.358734 
4189.000000	65.485692 
4188.000000	65.577340 
4187.000000	65.627145 
4186.000000	65.632295 
4185.000000	65.594863 
4184.000000	65.519857 
4183.000000	65.414881 
4182.000000	65.288710 
4181.000000	65.150976 
4180.000000	65.011310 
4179.000000	64.879322 
4178.000000	64.764618 
4177.000000	64.676666 
4176.000000	64.623880 
4175.000000	64.612555 
4174.000000	64.645743 
4173.000000	64.722156 
4172.000000	64.835762 
4171.000000	64.976024 
4170.000000	65.129446 
4169.000000	65.281438 
4168.000000	65.418219 
4167.000000	65.528607 
4166.000000	65.605211 
4165.000000	65.644693 
4164.000000	65.647459 
4163.000000	65.616607 
4162.000000	65.557909 
4161.000000	65.477824 
4160.000000	65.383934 
4159.000000	65.283179 
4158.000000	65.183258 
4157.000000	65.090441 
4156.000000	65.010523 
4155.000000	64.947462 
4154.000000	64.903306 
4153.000000	64.878392 
4152.000000	64.871048 
4151.000000	64.878892 
4150.000000	64.898777 
4149.000000	64.928364 
4148.000000	64.965820 
4147.000000	65.010070 
4146.000000	65.059733 
4145.000000	65.112614 
4144.000000	65.165233 
4143.000000	65.212559 
4142.000000	65.248656 
4141.000000	65.267705 
4140.000000	65.265417 
4139.000000	65.240645 
4138.000000	65.196084 
4137.000000	65.137863 
4136.000000	65.074539 
4135.000000	65.016078 
4134.000000	64.971494 
4133.000000	64.946937 
4132.000000	64.945149 
4131.000000	64.965105 
4130.000000	65.002846 
4129.000000	65.052986 
4128.000000	65.109395 
4127.000000	65.166044 
4126.000000	65.217995 
4125.000000	65.261697 
4124.000000	65.294599 
4123.000000	65.314769 
4122.000000	65.321063 
4121.000000	65.312910 
4120.000000	65.290808 
4119.000000	65.256452 
4118.000000	65.213036 
4117.000000	65.165114 
4116.000000	65.118288 
4115.000000	65.078330 
4114.000000	65.049934 
4113.000000	65.035939 
4112.000000	65.036821 
4111.000000	65.050315 
4110.000000	65.071773 
4109.000000	65.095376 
4108.000000	65.114927 
4107.000000	65.125894 
4106.000000	65.125751 
4105.000000	65.115451 
4104.000000	65.098571 
4103.000000	65.081119 
4102.000000	65.069890 
4101.000000	65.070462 
4100.000000	65.086102 
4099.000000	65.116357 
4098.000000	65.157222 
4097.000000	65.202069 
4096.000000	65.243530 
4095.000000	65.275001 
4094.000000	65.292429 
4093.000000	65.294957 
4092.000000	65.285134 
4091.000000	65.267848 
4090.000000	65.248751 
4089.000000	65.232539 
4088.000000	65.221714 
4087.000000	65.216302 
4086.000000	65.214323 
4085.000000	65.212941 
4084.000000	65.209794 
4083.000000	65.204215 
4082.000000	65.197277 
4081.000000	65.191721 
4080.000000	65.190768 
4079.000000	65.196609 
4078.000000	65.209436 
4077.000000	65.227508 
4076.000000	65.246748 
4075.000000	65.262103 
4074.000000	65.268492 
4073.000000	65.262150 
4072.000000	65.241909 
4071.000000	65.209245 
4070.000000	65.168428 
4069.000000	65.125107 
4068.000000	65.085911 
4067.000000	65.056872 
4066.000000	65.042686 
4065.000000	65.045928 
4064.000000	65.066695 
4063.000000	65.102624 
4062.000000	65.149283 
4061.000000	65.200829 
4060.000000	65.250563 
4059.000000	65.291905 
4058.000000	65.319275 
4057.000000	65.328621 
4056.000000	65.318489 
4055.000000	65.289664 
4054.000000	65.244889 
4053.000000	65.188336 
4052.000000	65.124917 
4051.000000	65.059661 
4050.000000	64.997148 
4049.000000	64.941406 
4048.000000	64.895629 
4047.000000	64.862608 
4046.000000	64.844560 
4045.000000	64.843320 
4044.000000	64.859771 
4043.000000	64.893817 
4042.000000	64.943742 
4041.000000	65.005970 
4040.000000	65.074992 
4039.000000	65.143918 
4038.000000	65.205311 
4037.000000	65.252518 
4036.000000	65.280866 
4035.000000	65.288352 
4034.000000	65.276217 
4033.000000	65.248751 
4032.000000	65.212368 
4031.000000	65.174674 
4030.000000	65.142512 
4029.000000	65.121221 
4028.000000	65.113139 
4027.000000	65.117955 
4026.000000	65.132498 
4025.000000	65.152144 
4024.000000	65.171980 
4023.000000	65.187835 
4022.000000	65.197610 
4021.000000	65.200972 
4020.000000	65.199565 
4019.000000	65.195870 
4018.000000	65.192770 
4017.000000	65.192246 
4016.000000	65.195322 
4015.000000	65.201663 
4014.000000	65.210294 
4013.000000	65.219855 
4012.000000	65.229010 
4011.000000	65.236878 
4010.000000	65.242934 
4009.000000	65.247035 
4008.000000	65.249156 
4007.000000	65.249276 
4006.000000	65.247249 
4005.000000	65.243053 
4004.000000	65.237379 
4003.000000	65.231418 
4002.000000	65.227270 
4001.000000	65.226840 
4000.000000	65.231680 
3999.000000	65.242052 
3998.000000	65.256690 
3997.000000	65.272641 
3996.000000	65.285944 
3995.000000	65.292048 
3994.000000	65.287208 
3993.000000	65.269494 
3992.000000	65.239167 
3991.000000	65.199065 
3990.000000	65.153741 
3989.000000	65.109062 
3988.000000	65.071010 
3987.000000	65.044713 
3986.000000	65.033531 
3985.000000	65.038728 
3984.000000	65.059375 
3983.000000	65.092563 
3982.000000	65.133833 
3981.000000	65.178012 
3980.000000	65.220022 
3979.000000	65.255212 
3978.000000	65.280246 
3977.000000	65.293574 
3976.000000	65.295696 
3975.000000	65.289068 
3974.000000	65.277123 
3973.000000	65.263843 
3972.000000	65.252494 
3971.000000	65.245318 
3970.000000	65.242671 
3969.000000	65.243434 
3968.000000	65.245199 
3967.000000	65.245628 
3966.000000	65.242815 
3965.000000	65.236139 
3964.000000	65.226674 
3963.000000	65.216684 
3962.000000	65.208935 
3961.000000	65.205931 
3960.000000	65.208840 
3959.000000	65.217137 
3958.000000	65.228247 
3957.000000	65.238046 
3956.000000	65.241909 
3955.000000	65.235972 
3954.000000	65.217971 
3953.000000	65.188074 
3952.000000	65.148663 
3951.000000	65.104126 
3950.000000	65.059685 
3949.000000	65.020656 
3948.000000	64.990806 
3947.000000	64.972257 
3946.000000	64.965343 
3945.000000	64.968609 
3944.000000	64.979720 
3943.000000	64.995908 
3942.000000	65.014624 
3941.000000	65.033984 
3940.000000	65.052676 
3939.000000	65.070199 
3938.000000	65.085959 
3937.000000	65.099930 
3936.000000	65.112137 
3935.000000	65.122938 
3934.000000	65.132975 
3933.000000	65.143179 
3932.000000	65.154743 
3931.000000	65.168404 
3930.000000	65.184283 
3929.000000	65.201544 
3928.000000	65.218448 
3927.000000	65.232777 
3926.000000	65.242314 
3925.000000	65.245461 
3924.000000	65.241622 
3923.000000	65.231418 
3922.000000	65.216517 
3921.000000	65.199184 
3920.000000	65.181779 
3919.000000	65.165996 
3918.000000	65.152668 
3917.000000	65.141868 
3916.000000	65.133380 
3915.000000	65.126895 
3914.000000	65.122532 
3913.000000	65.120720 
3912.000000	65.122318 
3911.000000	65.128278 
3910.000000	65.139174 
3909.000000	65.154576 
3908.000000	65.173625 
3907.000000	65.194797 
3906.000000	65.216398 
3905.000000	65.236806 
3904.000000	65.254473 
3903.000000	65.267968 
3902.000000	65.276145 
3901.000000	65.278077 
3900.000000	65.273213 
3899.000000	65.261673 
3898.000000	65.244483 
3897.000000	65.223813 
3896.000000	65.202879 
3895.000000	65.185332 
3894.000000	65.174770 
3893.000000	65.173316 
3892.000000	65.181565 
3891.000000	65.197467 
3890.000000	65.216803 
3889.000000	65.233707 
3888.000000	65.242314 
3887.000000	65.237689 
3886.000000	65.217447 
3885.000000	65.182042 
3884.000000	65.134763 
3883.000000	65.081310 
3882.000000	65.028095 
3881.000000	64.981770 
3880.000000	64.947700 
3879.000000	64.929461 
3878.000000	64.928412 
3877.000000	64.944028 
3876.000000	64.974451 
3875.000000	65.016794 
3874.000000	65.067815 
3873.000000	65.124249 
3872.000000	65.183067 
3871.000000	65.241289 
3870.000000	65.295696 
3869.000000	65.343165 
3868.000000	65.380263 
3867.000000	65.403914 
3866.000000	65.411424 
3865.000000	65.401148 
3864.000000	65.372705 
3863.000000	65.327954 
3862.000000	65.270352 
3861.000000	65.205335 
3860.000000	65.139007 
3859.000000	65.077996 
3858.000000	65.027832 
3857.000000	64.992332 
3856.000000	64.972591 
3855.000000	64.967060 
3854.000000	64.971947 
3853.000000	64.982318 
3852.000000	64.993190 
3851.000000	65.000677 
3850.000000	65.002775 
3849.000000	64.999389 
3848.000000	64.992427 
3847.000000	64.984822 
3846.000000	64.979529 
3845.000000	64.978504 
3844.000000	64.982151 
3843.000000	64.988970 
3842.000000	64.996242 
3841.000000	65.000987 
3840.000000	65.000534 
3839.000000	64.993786 
3838.000000	64.981842 
3837.000000	64.967560 
3836.000000	64.954900 
3835.000000	64.947557 
3834.000000	64.948153 
3833.000000	64.956855 
3832.000000	64.971232 
3831.000000	64.986491 
3830.000000	64.996361 
3829.000000	64.995050 
3828.000000	64.979004 
3827.000000	64.948344 
3826.000000	64.906978 
3825.000000	64.862442 
3824.000000	64.824199 
3823.000000	64.801526 
3822.000000	64.801049 
3821.000000	64.825296 
3820.000000	64.871883 
3819.000000	64.934182 
3818.000000	65.002942 
3817.000000	65.068483 
3816.000000	65.122699 
3815.000000	65.160322 
3814.000000	65.179681 
3813.000000	65.182185 
3812.000000	65.171408 
3811.000000	65.151405 
3810.000000	65.125918 
3809.000000	65.097451 
3808.000000	65.067672 
3807.000000	65.038228 
3806.000000	65.010595 
3805.000000	64.987516 
3804.000000	64.971685 
3803.000000	64.965653 
3802.000000	64.970397 
3801.000000	64.984893 
3800.000000	65.006089 
3799.000000	65.029191 
3798.000000	65.049028 
3797.000000	65.061020 
3796.000000	65.062594 
3795.000000	65.053939 
3794.000000	65.037822 
3793.000000	65.019226 
3792.000000	65.003895 
3791.000000	64.997100 
3790.000000	65.002584 
3789.000000	65.021586 
3788.000000	65.052819 
3787.000000	65.092587 
3786.000000	65.135645 
3785.000000	65.176272 
3784.000000	65.209293 
3783.000000	65.231156 
3782.000000	65.239882 
3781.000000	65.235900 
3780.000000	65.221738 
3779.000000	65.201711 
3778.000000	65.180945 
3777.000000	65.164184 
3776.000000	65.154933 
3775.000000	65.154385 
3774.000000	65.161800 
3773.000000	65.174293 
3772.000000	65.187954 
3771.000000	65.198922 
3770.000000	65.204310 
3769.000000	65.203046 
3768.000000	65.196037 
3767.000000	65.185928 
3766.000000	65.176248 
3765.000000	65.170669 
3764.000000	65.171933 
3763.000000	65.181446 
3762.000000	65.198731 
3761.000000	65.221810 
3760.000000	65.247511 
3759.000000	65.272378 
3758.000000	65.292763 
3757.000000	65.305519 
3756.000000	65.308141 
3755.000000	65.298986 
3754.000000	65.277719 
3753.000000	65.245032 
3752.000000	65.203237 
3751.000000	65.155744 
3750.000000	65.106797 
3749.000000	65.061044 
3748.000000	65.022730 
3747.000000	64.995121 
3746.000000	64.980030 
3745.000000	64.977598 
3744.000000	64.986467 
3743.000000	65.004062 
3742.000000	65.027236 
3741.000000	65.052938 
3740.000000	65.078568 
3739.000000	65.102243 
3738.000000	65.122818 
3737.000000	65.140080 
3736.000000	65.153980 
3735.000000	65.164971 
3734.000000	65.173387 
3733.000000	65.179824 
3732.000000	65.185093 
3731.000000	65.190196 
3730.000000	65.196490 
3729.000000	65.205192 
3728.000000	65.217328 
3727.000000	65.233254 
3726.000000	65.252351 
3725.000000	65.273118 
3724.000000	65.293312 
3723.000000	65.310287 
3722.000000	65.321612 
3721.000000	65.325760 
3720.000000	65.322399 
3719.000000	65.312433 
3718.000000	65.297794 
3717.000000	65.280985 
3716.000000	65.264582 
3715.000000	65.250539 
3714.000000	65.239834 
3713.000000	65.232515 
3712.000000	65.227842 
3711.000000	65.224647 
3710.000000	65.221691 
3709.000000	65.217852 
3708.000000	65.212488 
3707.000000	65.205287 
3706.000000	65.196514 
3705.000000	65.186452 
3704.000000	65.176033 
3703.000000	65.166592 
3702.000000	65.160059 
3701.000000	65.158605 
3700.000000	65.164303 
3699.000000	65.178751 
3698.000000	65.202093 
3697.000000	65.232968 
3696.000000	65.268063 
3695.000000	65.302610 
3694.000000	65.330958 
3693.000000	65.347981 
3692.000000	65.349888 
3691.000000	65.335345 
3690.000000	65.305733 
3689.000000	65.265154 
3688.000000	65.219378 
3687.000000	65.174627 
3686.000000	65.136480 
3685.000000	65.108895 
3684.000000	65.093755 
3683.000000	65.090870 
3682.000000	65.098524 
3681.000000	65.114045 
3680.000000	65.134668 
3679.000000	65.158271 
3678.000000	65.182781 
3677.000000	65.206885 
3676.000000	65.229487 
3675.000000	65.250062 
3674.000000	65.267634 
3673.000000	65.281558 
3672.000000	65.291404 
3671.000000	65.297269 
3670.000000	65.299963 
3669.000000	65.300822 
3668.000000	65.301656 
3667.000000	65.304255 
3666.000000	65.310096 
3665.000000	65.320110 
3664.000000	65.334224 
3663.000000	65.351343 
3662.000000	65.369749 
3661.000000	65.387153 
3660.000000	65.401124 
3659.000000	65.409541 
3658.000000	65.410780 
3657.000000	65.403962 
3656.000000	65.388679 
3655.000000	65.365433 
3654.000000	65.335202 
3653.000000	65.299224 
3652.000000	65.258789 
3651.000000	65.215444 
3650.000000	65.170645 
3649.000000	65.125870 
3648.000000	65.082836 
3647.000000	65.043187 
3646.000000	65.008950 
3645.000000	64.981985 
3644.000000	64.964294 
3643.000000	64.957022 
3642.000000	64.960718 
3641.000000	64.974617 
3640.000000	64.997005 
3639.000000	65.024805 
3638.000000	65.054678 
3637.000000	65.083312 
3636.000000	65.108394 
3635.000000	65.128564 
3634.000000	65.143752 
3633.000000	65.154910 
3632.000000	65.163683 
3631.000000	65.171718 
3630.000000	65.180206 
3629.000000	65.189409 
3628.000000	65.198922 
3627.000000	65.207815 
3626.000000	65.215110 
3625.000000	65.220308 
3624.000000	65.223693 
3623.000000	65.226435 
3622.000000	65.230250 
3621.000000	65.236878 
3620.000000	65.247654 
3619.000000	65.263032 
3618.000000	65.282416 
3617.000000	65.303945 
3616.000000	65.325117 
3615.000000	65.342879 
3614.000000	65.354228 
3613.000000	65.356731 
3612.000000	65.349006 
3611.000000	65.331459 
3610.000000	65.305948 
3609.000000	65.275835 
3608.000000	65.245461 
3607.000000	65.219330 
3606.000000	65.201473 
3605.000000	65.194487 
3604.000000	65.199375 
3603.000000	65.215158 
3602.000000	65.239286 
3601.000000	65.268206 
3600.000000	65.297889 
3599.000000	65.324735 
3598.000000	65.345954 
3597.000000	65.359807 
3596.000000	65.365242 
3595.000000	65.361881 
3594.000000	65.349650 
3593.000000	65.328621 
3592.000000	65.299367 
3591.000000	65.263247 
3590.000000	65.222668 
3589.000000	65.181159 
3588.000000	65.142917 
3587.000000	65.112280 
3586.000000	65.092730 
3585.000000	65.086293 
3584.000000	65.092968 
3583.000000	65.110802 
3582.000000	65.136408 
3581.000000	65.165662 
3580.000000	65.194725 
3579.000000	65.220785 
3578.000000	65.242242 
3577.000000	65.258789 
3576.000000	65.270853 
3575.000000	65.279293 
3574.000000	65.284609 
3573.000000	65.286970 
3572.000000	65.286564 
3571.000000	65.283513 
3570.000000	65.278553 
3569.000000	65.272760 
3568.000000	65.267539 
3567.000000	65.264177 
3566.000000	65.263080 
3565.000000	65.263772 
3564.000000	65.264844 
3563.000000	65.264701 
3562.000000	65.261721 
3561.000000	65.255475 
3560.000000	65.246939 
3559.000000	65.238761 
3558.000000	65.234684 
3557.000000	65.238451 
3556.000000	65.252590 
3555.000000	65.277504 
3554.000000	65.310978 
3553.000000	65.348386 
3552.000000	65.383458 
3551.000000	65.409874 
3550.000000	65.422606 
3549.000000	65.419006 
3548.000000	65.399622 
3547.000000	65.367865 
3546.000000	65.329170 
3545.000000	65.289974 
3544.000000	65.256071 
3543.000000	65.231585 
3542.000000	65.218067 
3541.000000	65.214800 
3540.000000	65.219116 
3539.000000	65.227246 
3538.000000	65.235733 
3537.000000	65.241885 
3536.000000	65.244865 
3535.000000	65.245056 
3534.000000	65.244221 
3533.000000	65.244388 
3532.000000	65.247321 
3531.000000	65.253591 
3530.000000	65.262413 
3529.000000	65.271782 
3528.000000	65.279126 
3527.000000	65.282011 
3526.000000	65.279364 
3525.000000	65.271878 
3524.000000	65.262222 
3523.000000	65.254211 
3522.000000	65.251874 
3521.000000	65.257930 
3520.000000	65.272974 
3519.000000	65.294671 
3518.000000	65.318512 
3517.000000	65.338420 
3516.000000	65.348410 
3515.000000	65.344142 
3514.000000	65.324258 
3513.000000	65.290880 
3512.000000	65.249156 
3511.000000	65.206074 
3510.000000	65.168452 
3509.000000	65.141654 
3508.000000	65.128326 
3507.000000	65.127897 
3506.000000	65.137243 
3505.000000	65.151524 
3504.000000	65.165591 
3503.000000	65.175175 
3502.000000	65.177679 
3501.000000	65.172576 
3500.000000	65.161299 
3499.000000	65.146899 
3498.000000	65.133142 
3497.000000	65.123915 
3496.000000	65.122294 
3495.000000	65.129876 
3494.000000	65.146303 
3493.000000	65.169429 
3492.000000	65.195274 
3491.000000	65.218615 
3490.000000	65.234112 
3489.000000	65.237212 
3488.000000	65.225911 
3487.000000	65.200734 
3486.000000	65.165686 
3485.000000	65.127134 
3484.000000	65.092730 
3483.000000	65.069413 
3482.000000	65.061998 
3481.000000	65.072131 
3480.000000	65.097880 
3479.000000	65.134286 
3478.000000	65.174818 
3477.000000	65.212988 
3476.000000	65.243697 
3475.000000	65.264153 
3474.000000	65.274071 
3473.000000	65.275001 
3472.000000	65.269875 
3471.000000	65.261769 
3470.000000	65.253162 
3469.000000	65.245532 
3468.000000	65.240001 
3467.000000	65.237402 
3466.000000	65.238738 
3465.000000	65.245103 
3464.000000	65.257430 
3463.000000	65.276288 
3462.000000	65.300869 
3461.000000	65.329742 
3460.000000	65.360641 
3459.000000	65.391421 
3458.000000	65.420341 
3457.000000	65.446257 
3456.000000	65.469002 
3455.000000	65.488696 
3454.000000	65.505766 
3453.000000	65.520215 
3452.000000	65.531373 
3451.000000	65.538048 
3450.000000	65.539264 
3449.000000	65.534567 
3448.000000	65.524482 
3447.000000	65.510630 
3446.000000	65.495562 
3445.000000	65.481638 
3444.000000	65.470576 
3443.000000	65.462517 
3442.000000	65.455913 
3441.000000	65.448212 
3440.000000	65.436315 
3439.000000	65.417814 
3438.000000	65.391755 
3437.000000	65.358638 
3436.000000	65.320515 
3435.000000	65.280127 
3434.000000	65.240764 
3433.000000	65.205693 
3432.000000	65.177893 
3431.000000	65.159177 
3430.000000	65.150713 
3429.000000	65.152788 
3428.000000	65.164804 
3427.000000	65.185165 
3426.000000	65.211582 
3425.000000	65.241193 
3424.000000	65.271043 
3423.000000	65.298056 
3422.000000	65.320062 
3421.000000	65.335607 
3420.000000	65.344715 
3419.000000	65.348505 
3418.000000	65.348887 
3417.000000	65.348005 
3416.000000	65.347838 
3415.000000	65.349626 
3414.000000	65.353775 
3413.000000	65.359449 
3412.000000	65.365338 
3411.000000	65.369486 
3410.000000	65.369725 
3409.000000	65.363740 
3408.000000	65.349817 
3407.000000	65.327048 
3406.000000	65.295624 
3405.000000	65.257143 
3404.000000	65.214490 
3403.000000	65.171408 
3402.000000	65.131807 
3401.000000	65.099287 
3400.000000	65.076255 
3399.000000	65.064144 
3398.000000	65.062952 
3397.000000	65.071773 
3396.000000	65.088748 
3395.000000	65.111994 
3394.000000	65.139937 
3393.000000	65.171217 
3392.000000	65.204548 
3391.000000	65.238809 
3390.000000	65.272593 
3389.000000	65.304136 
3388.000000	65.331125 
3387.000000	65.351080 
3386.000000	65.361714 
3385.000000	65.361785 
3384.000000	65.351223 
3383.000000	65.331530 
3382.000000	65.305423 
3381.000000	65.276718 
3380.000000	65.249514 
3379.000000	65.227389 
3378.000000	65.212607 
3377.000000	65.206146 
3376.000000	65.207004 
3375.000000	65.212965 
3374.000000	65.220832 
3373.000000	65.227508 
3372.000000	65.230464 
3371.000000	65.228033 
3370.000000	65.219902 
3369.000000	65.206980 
3368.000000	65.190958 
3367.000000	65.173697 
3366.000000	65.156960 
3365.000000	65.142011 
3364.000000	65.129661 
3363.000000	65.120458 
3362.000000	65.114784 
3361.000000	65.112924 
3360.000000	65.115404 
3359.000000	65.122938 
3358.000000	65.136003 
3357.000000	65.154480 
3356.000000	65.177583 
3355.000000	65.203666 
3354.000000	65.230417 
3353.000000	65.255260 
3352.000000	65.275669 
3351.000000	65.289855 
3350.000000	65.297293 
3349.000000	65.298533 
3348.000000	65.295338 
3347.000000	65.290069 
3346.000000	65.285325 
3345.000000	65.283179 
3344.000000	65.284895 
3343.000000	65.290474 
3342.000000	65.298986 
3341.000000	65.308570 
3340.000000	65.317058 
3339.000000	65.322184 
3338.000000	65.322399 
3337.000000	65.316891 
3336.000000	65.305662 
3335.000000	65.289568 
3334.000000	65.270042 
3333.000000	65.248799 
3332.000000	65.227389 
3331.000000	65.207314 
3330.000000	65.189838 
3329.000000	65.176129 
3328.000000	65.167140 
3327.000000	65.163588 
3326.000000	65.165829 
3325.000000	65.173435 
3324.000000	65.185165 
3323.000000	65.198659 
3322.000000	65.211176 
3321.000000	65.219664 
3320.000000	65.221858 
3319.000000	65.216612 
3318.000000	65.204453 
3317.000000	65.187525 
3316.000000	65.169262 
3315.000000	65.153622 
3314.000000	65.144395 
3313.000000	65.144395 
3312.000000	65.154647 
3311.000000	65.174388 
3310.000000	65.201139 
3309.000000	65.231394 
3308.000000	65.261459 
3307.000000	65.288186 
3306.000000	65.309619 
3305.000000	65.325164 
3304.000000	65.335512 
3303.000000	65.342116 
3302.000000	65.346503 
3301.000000	65.349698 
3300.000000	65.352129 
3299.000000	65.353298 
3298.000000	65.352153 
3297.000000	65.347528 
3296.000000	65.338969 
3295.000000	65.326952 
3294.000000	65.313148 
3293.000000	65.299987 
3292.000000	65.290045 
3291.000000	65.285229 
3290.000000	65.285897 
3289.000000	65.290927 
3288.000000	65.297484 
3287.000000	65.302205 
3286.000000	65.302038 
3285.000000	65.295481 
3284.000000	65.283012 
3283.000000	65.266966 
3282.000000	65.251040 
3281.000000	65.239095 
3280.000000	65.234065 
3279.000000	65.237188 
3278.000000	65.247869 
3277.000000	65.263628 
3276.000000	65.281081 
3275.000000	65.297222 
3274.000000	65.310096 
3273.000000	65.319275 
3272.000000	65.325641 
3271.000000	65.330910 
3270.000000	65.336894 
3269.000000	65.344595 
3268.000000	65.353417 
3267.000000	65.361642 
3266.000000	65.366721 
3265.000000	65.366268 
3264.000000	65.358805 
3263.000000	65.344476 
3262.000000	65.325021 
3261.000000	65.303564 
3260.000000	65.283870 
3259.000000	65.269112 
3258.000000	65.261316 
3257.000000	65.260910 
3256.000000	65.266275 
3255.000000	65.274572 
3254.000000	65.282177 
3253.000000	65.285921 
3252.000000	65.283727 
3251.000000	65.275144 
3250.000000	65.261125 
3249.000000	65.243601 
3248.000000	65.224575 
3247.000000	65.205597 
3246.000000	65.187335 
3245.000000	65.169882 
3244.000000	65.153121 
3243.000000	65.137410 
3242.000000	65.123677 
3241.000000	65.113782 
3240.000000	65.109801 
3239.000000	65.113711 
3238.000000	65.126085 
3237.000000	65.146398 
3236.000000	65.172362 
3235.000000	65.201044 
3234.000000	65.228939 
3233.000000	65.253281 
3232.000000	65.272688 
3231.000000	65.287184 
3230.000000	65.298032 
3229.000000	65.306687 
3228.000000	65.314030 
3227.000000	65.319943 
3226.000000	65.323185 
3225.000000	65.322065 
3224.000000	65.315246 
3223.000000	65.302586 
3222.000000	65.285491 
3221.000000	65.266895 
3220.000000	65.250515 
3219.000000	65.239787 
3218.000000	65.237021 
3217.000000	65.242624 
3216.000000	65.255022 
3215.000000	65.271258 
3214.000000	65.287637 
3213.000000	65.300679 
3212.000000	65.307688 
3211.000000	65.307545 
3210.000000	65.300440 
3209.000000	65.287756 
3208.000000	65.271639 
3207.000000	65.254020 
3206.000000	65.236949 
3205.000000	65.221977 
3204.000000	65.210580 
3203.000000	65.203809 
3202.000000	65.202450 
3201.000000	65.206837 
3200.000000	65.216588 
3199.000000	65.230464 
3198.000000	65.246415 
3197.000000	65.261864 
3196.000000	65.274095 
3195.000000	65.280985 
3194.000000	65.281462 
3193.000000	65.275669 
3192.000000	65.265202 
3191.000000	65.252447 
3190.000000	65.240168 
3189.000000	65.230536 
3188.000000	65.225100 
3187.000000	65.223908 
3186.000000	65.225672 
3185.000000	65.227913 
3184.000000	65.228176 
3183.000000	65.223932 
3182.000000	65.213680 
3181.000000	65.196990 
3180.000000	65.174603 
3179.000000	65.148448 
3178.000000	65.121102 
3177.000000	65.095591 
3176.000000	65.074753 
3175.000000	65.061020 
3174.000000	65.055894 
3173.000000	65.060019 
3172.000000	65.073132 
3171.000000	65.094089 
3170.000000	65.120935 
3169.000000	65.151023 
3168.000000	65.181565 
3167.000000	65.209960 
3166.000000	65.234160 
3165.000000	65.253090 
3164.000000	65.266704 
3163.000000	65.275931 
3162.000000	65.282297 
3161.000000	65.287685 
3160.000000	65.293478 
3159.000000	65.300726 
3158.000000	65.309333 
3157.000000	65.318393 
3156.000000	65.326285 
3155.000000	65.331315 
3154.000000	65.332245 
3153.000000	65.328764 
3152.000000	65.322136 
3151.000000	65.315151 
3150.000000	65.311741 
3149.000000	65.315723 
3148.000000	65.329861 
3147.000000	65.354800 
3146.000000	65.388631 
3145.000000	65.427064 
3144.000000	65.463924 
3143.000000	65.492749 
3142.000000	65.508151 
3141.000000	65.507340 
3140.000000	65.490913 
3139.000000	65.462493 
3138.000000	65.428042 
3137.000000	65.393877 
3136.000000	65.365147 
3135.000000	65.344333 
3134.000000	65.331101 
3133.000000	65.322399 
3132.000000	65.314292 
3131.000000	65.302896 
3130.000000	65.285968 
3129.000000	65.263128 
3128.000000	65.235757 
3127.000000	65.206408 
3126.000000	65.177392 
3125.000000	65.150928 
3124.000000	65.128302 
3123.000000	65.110421 
3122.000000	65.097618 
3121.000000	65.090346 
3120.000000	65.089154 
3119.000000	65.094375 
3118.000000	65.105748 
3117.000000	65.121936 
3116.000000	65.140533 
3115.000000	65.157914 
3114.000000	65.170288 
3113.000000	65.174674 
3112.000000	65.169787 
3111.000000	65.156793 
3110.000000	65.138864 
3109.000000	65.120363 
3108.000000	65.105843 
3107.000000	65.098834 
3106.000000	65.101075 
3105.000000	65.112066 
3104.000000	65.129709 
3103.000000	65.151214 
3102.000000	65.173459 
3101.000000	65.193891 
3100.000000	65.210556 
3099.000000	65.222549 
3098.000000	65.229701 
3097.000000	65.232181 
3096.000000	65.230417 
3095.000000	65.224814 
3094.000000	65.215682 
3093.000000	65.203189 
3092.000000	65.187525 
3091.000000	65.169191 
3090.000000	65.148782 
3089.000000	65.127182 
3088.000000	65.105414 
3087.000000	65.084767 
3086.000000	65.066838 
3085.000000	65.053582 
3084.000000	65.047049 
3083.000000	65.049314 
3082.000000	65.061759 
3081.000000	65.085101 
3080.000000	65.118527 
3079.000000	65.160036 
3078.000000	65.206480 
3077.000000	65.254092 
3076.000000	65.298938 
3075.000000	65.337705 
3074.000000	65.367817 
3073.000000	65.387964 
3072.000000	65.397930 
3071.000000	65.398430 
3070.000000	65.390944 
3069.000000	65.377163 
3068.000000	65.358757 
3067.000000	65.337038 
3066.000000	65.313124 
3065.000000	65.288043 
3064.000000	65.262913 
3063.000000	65.239119 
3062.000000	65.218353 
3061.000000	65.202498 
3060.000000	65.193152 
3059.000000	65.191364 
3058.000000	65.197253 
3057.000000	65.209650 
3056.000000	65.226340 
3055.000000	65.244436 
3054.000000	65.260791 
3053.000000	65.272665 
3052.000000	65.278291 
3051.000000	65.277361 
3050.000000	65.270757 
3049.000000	65.260171 
3048.000000	65.247702 
3047.000000	65.235424 
3046.000000	65.224719 
3045.000000	65.215969 
3044.000000	65.208935 
3043.000000	65.203309 
3042.000000	65.198922 
3041.000000	65.195965 
3040.000000	65.195107 
3039.000000	65.197443 
3038.000000	65.203785 
3037.000000	65.214467 
3036.000000	65.228676 
3035.000000	65.244626 
3034.000000	65.259766 
3033.000000	65.271401 
3032.000000	65.277314 
3031.000000	65.276336 
3030.000000	65.268683 
3029.000000	65.256094 
3028.000000	65.241217 
3027.000000	65.226721 
3026.000000	65.214991 
3025.000000	65.206980 
3024.000000	65.202307 
3023.000000	65.199017 
3022.000000	65.194487 
3021.000000	65.185785 
3020.000000	65.170812 
3019.000000	65.148854 
3018.000000	65.120792 
3017.000000	65.089082 
3016.000000	65.057206 
3015.000000	65.029025 
3014.000000	65.007948 
3013.000000	64.996290 
3012.000000	64.994859 
3011.000000	65.002751 
3010.000000	65.017771 
3009.000000	65.036869 
3008.000000	65.056896 
3007.000000	65.074801 
3006.000000	65.088582 
3005.000000	65.097260 
3004.000000	65.101242 
3003.000000	65.101718 
3002.000000	65.100574 
3001.000000	65.099954 
3000.000000	65.101671 
2999.000000	65.106964 
2998.000000	65.115880 
2997.000000	65.127491 
2996.000000	65.139889 
2995.000000	65.150713 
2994.000000	65.157675 
2993.000000	65.159106 
2992.000000	65.154480 
2991.000000	65.144395 
2990.000000	65.130639 
2989.000000	65.115761 
2988.000000	65.102481 
2987.000000	65.092968 
2986.000000	65.088486 
2985.000000	65.088891 
2984.000000	65.092945 
2983.000000	65.098762 
2982.000000	65.103864 
2981.000000	65.105915 
2980.000000	65.103125 
2979.000000	65.094637 
2978.000000	65.080404 
2977.000000	65.061354 
2976.000000	65.038871 
2975.000000	65.014839 
2974.000000	64.991235 
2973.000000	64.969897 
2972.000000	64.952421 
2971.000000	64.939522 
2970.000000	64.931654 
2969.000000	64.928150 
2968.000000	64.927577 
2967.000000	64.928030 
2966.000000	64.927029 
2965.000000	64.922618 
2964.000000	64.913201 
2963.000000	64.898681 
2962.000000	64.880347 
2961.000000	64.861226 
2960.000000	64.844989 
2959.000000	64.835739 
2958.000000	64.836859 
2957.000000	64.850282 
2956.000000	64.876055 
2955.000000	64.912199 
2954.000000	64.955329 
2953.000000	65.001177 
2952.000000	65.045642 
2951.000000	65.085601 
2950.000000	65.119266 
2949.000000	65.146183 
2948.000000	65.166664 
2947.000000	65.181374 
2946.000000	65.190482 
2945.000000	65.194082 
2944.000000	65.191626 
2943.000000	65.182709 
2942.000000	65.167093 
2941.000000	65.145897 
2940.000000	65.120792 
2939.000000	65.094137 
2938.000000	65.068244 
2937.000000	65.045189 
2936.000000	65.025901 
2935.000000	65.010118 
2934.000000	64.996647 
2933.000000	64.983963 
2932.000000	64.970636 
2931.000000	64.955925 
2930.000000	64.939785 
2929.000000	64.922904 
2928.000000	64.906072 
2927.000000	64.889812 
2926.000000	64.873766 
2925.000000	64.857196 
2924.000000	64.839434 
2923.000000	64.820504 
2922.000000	64.801311 
2921.000000	64.783835 
2920.000000	64.770555 
2919.000000	64.763998 
2918.000000	64.765334 
2917.000000	64.774656 
2916.000000	64.790272 
2915.000000	64.809727 
2914.000000	64.830017 
2913.000000	64.848875 
2912.000000	64.864969 
2911.000000	64.878511 
2910.000000	64.890813 
2909.000000	64.903831 
2908.000000	64.919352 
2907.000000	64.938211 
2906.000000	64.960050 
2905.000000	64.982843 
2904.000000	65.003538 
2903.000000	65.018844 
2902.000000	65.026211 
2901.000000	65.024089 
2900.000000	65.012574 
2899.000000	64.993453 
2898.000000	64.969944 
2897.000000	64.945602 
2896.000000	64.923954 
2895.000000	64.907813 
2894.000000	64.899110 
2893.000000	64.898657 
2892.000000	64.906001 
2891.000000	64.919996 
2890.000000	64.938855 
2889.000000	64.960670 
2888.000000	64.983439 
2887.000000	65.004968 
2886.000000	65.023350 
2885.000000	65.037035 
2884.000000	65.045022 
2883.000000	65.046715 
2882.000000	65.042495 
2881.000000	65.033388 
2880.000000	65.021157 
2879.000000	65.008139 
2878.000000	64.996981 
2877.000000	64.990448 
2876.000000	64.991116 
2875.000000	65.000915 
2874.000000	65.021133 
2873.000000	65.052080 
2872.000000	65.092849 
2871.000000	65.141224 
2870.000000	65.194058 
2869.000000	65.247201 
2868.000000	65.296244 
2867.000000	65.336561 
2866.000000	65.364193 
2865.000000	65.376210 
2864.000000	65.371465 
2863.000000	65.350461 
2862.000000	65.315341 
2861.000000	65.269422 
2860.000000	65.217280 
2859.000000	65.163540 
2858.000000	65.112733 
2857.000000	65.068364 
2856.000000	65.032982 
2855.000000	65.007734 
2854.000000	64.992547 
2853.000000	64.986300 
2852.000000	64.987111 
2851.000000	64.993047 
2850.000000	65.002274 
2849.000000	65.013408 
2848.000000	65.025663 
2847.000000	65.038561 
2846.000000	65.051937 
2845.000000	65.065550 
2844.000000	65.079236 
2843.000000	65.092706 
2842.000000	65.105676 
2841.000000	65.117859 
2840.000000	65.129041 
2839.000000	65.139174 
2838.000000	65.148425 
2837.000000	65.156817 
2836.000000	65.164494 
2835.000000	65.171575 
2834.000000	65.178203 
2833.000000	65.184569 
2832.000000	65.191006 
2831.000000	65.197849 
2830.000000	65.205478 
2829.000000	65.214347 
2828.000000	65.224742 
2827.000000	65.236735 
2826.000000	65.250039 
2825.000000	65.264296 
2824.000000	65.278768 
2823.000000	65.292596 
2822.000000	65.304923 
2821.000000	65.315055 
2820.000000	65.322470 
2819.000000	65.326857 
2818.000000	65.328073 
2817.000000	65.326213 
2816.000000	65.321493 
2815.000000	65.314340 
2814.000000	65.305328 
2813.000000	65.295219 
2812.000000	65.284800 
2811.000000	65.275001 
2810.000000	65.266776 
2809.000000	65.260767 
2808.000000	65.257501 
2807.000000	65.257120 
2806.000000	65.259194 
2805.000000	65.262699 
2804.000000	65.266180 
2803.000000	65.267920 
2802.000000	65.266203 
2801.000000	65.259790 
2800.000000	65.248370 
2799.000000	65.232610 
2798.000000	65.214014 
2797.000000	65.194845 
2796.000000	65.177702 
2795.000000	65.164875 
2794.000000	65.157914 
2793.000000	65.157389 
2792.000000	65.162825 
2791.000000	65.172934 
2790.000000	65.186142 
2789.000000	65.200948 
2788.000000	65.216612 
2787.000000	65.233111 
2786.000000	65.250802 
2785.000000	65.270185 
2784.000000	65.291476 
2783.000000	65.314054 
2782.000000	65.336728 
2781.000000	65.357804 
2780.000000	65.375494 
2779.000000	65.388536 
2778.000000	65.396118 
2777.000000	65.398216 
2776.000000	65.395164 
2775.000000	65.387630 
2774.000000	65.376186 
2773.000000	65.361309 
2772.000000	65.343236 
2771.000000	65.322208 
2770.000000	65.298819 
2769.000000	65.274167 
2768.000000	65.250062 
2767.000000	65.228867 
2766.000000	65.213179 
2765.000000	65.205287 
2764.000000	65.206789 
2763.000000	65.218138 
2762.000000	65.238595 
2761.000000	65.266203 
2760.000000	65.298032 
2759.000000	65.330767 
2758.000000	65.360856 
2757.000000	65.385556 
2756.000000	65.402531 
2755.000000	65.410828 
2754.000000	65.410804 
2753.000000	65.403938 
2752.000000	65.392661 
2751.000000	65.379595 
2750.000000	65.367412 
2749.000000	65.357828 
2748.000000	65.351819 
2747.000000	65.349030 
2746.000000	65.348291 
2745.000000	65.347814 
2744.000000	65.346002 
2743.000000	65.341925 
2742.000000	65.335583 
2741.000000	65.327978 
2740.000000	65.320873 
2739.000000	65.316057 
2738.000000	65.314865 
2737.000000	65.317630 
2736.000000	65.323591 
2735.000000	65.331029 
2734.000000	65.337777 
2733.000000	65.341901 
2732.000000	65.341997 
2731.000000	65.337443 
2730.000000	65.328502 
2729.000000	65.316033 
2728.000000	65.301251 
2727.000000	65.285468 
2726.000000	65.269947 
2725.000000	65.255784 
2724.000000	65.244007 
2723.000000	65.235662 
2722.000000	65.231680 
2721.000000	65.232920 
2720.000000	65.239477 
2719.000000	65.250539 
2718.000000	65.264344 
2717.000000	65.278363 
2716.000000	65.289616 
2715.000000	65.295481 
2714.000000	65.294361 
2713.000000	65.285968 
2712.000000	65.271711 
2711.000000	65.254259 
2710.000000	65.236926 
2709.000000	65.223097 
2708.000000	65.215563 
2707.000000	65.216040 
2706.000000	65.225028 
2705.000000	65.241837 
2704.000000	65.264654 
2703.000000	65.291118 
2702.000000	65.318584 
2701.000000	65.344381 
2700.000000	65.366315 
2699.000000	65.382647 
2698.000000	65.392112 
2697.000000	65.394091 
2696.000000	65.388703 
2695.000000	65.376687 
2694.000000	65.359449 
2693.000000	65.338730 
2692.000000	65.316629 
2691.000000	65.295052 
2690.000000	65.275716 
2689.000000	65.259671 
2688.000000	65.247631 
2687.000000	65.239739 
2686.000000	65.235686 
2685.000000	65.235114 
2684.000000	65.237760 
2683.000000	65.243315 
2682.000000	65.251708 
2681.000000	65.262961 
2680.000000	65.277075 
2679.000000	65.294003 
2678.000000	65.313053 
2677.000000	65.333223 
2676.000000	65.352916 
2675.000000	65.370321 
2674.000000	65.383553 
2673.000000	65.391111 
2672.000000	65.391921 
2671.000000	65.385794 
2670.000000	65.372991 
2669.000000	65.354585 
2668.000000	65.331864 
2667.000000	65.306544 
2666.000000	65.280270 
2665.000000	65.254616 
2664.000000	65.231108 
2663.000000	65.210986 
2662.000000	65.195226 
2661.000000	65.184259 
2660.000000	65.178012 
2659.000000	65.176010 
2658.000000	65.177226 
2657.000000	65.180516 
2656.000000	65.184640 
2655.000000	65.188550 
2654.000000	65.191435 
2653.000000	65.193057 
2652.000000	65.193390 
2651.000000	65.192699 
2650.000000	65.191411 
2649.000000	65.190005 
2648.000000	65.188884 
2647.000000	65.188527 
2646.000000	65.189480 
2645.000000	65.192437 
2644.000000	65.198159 
2643.000000	65.207314 
2642.000000	65.220379 
2641.000000	65.237212 
2640.000000	65.257096 
2639.000000	65.278816 
2638.000000	65.300703 
2637.000000	65.320873 
2636.000000	65.337634 
2635.000000	65.349435 
2634.000000	65.355181 
2633.000000	65.354323 
2632.000000	65.346932 
2631.000000	65.333628 
2630.000000	65.315604 
2629.000000	65.294575 
2628.000000	65.272498 
2627.000000	65.251350 
2626.000000	65.233087 
2625.000000	65.219092 
2624.000000	65.210294 
2623.000000	65.206885 
2622.000000	65.208625 
2621.000000	65.214753 
2620.000000	65.224385 
2619.000000	65.236663 
2618.000000	65.250825 
2617.000000	65.266442 
2616.000000	65.283060 
2615.000000	65.299868 
2614.000000	65.315747 
2613.000000	65.329384 
2612.000000	65.339064 
2611.000000	65.343236 
2610.000000	65.340757 
2609.000000	65.331363 
2608.000000	65.315604 
2607.000000	65.294909 
2606.000000	65.271306 
2605.000000	65.247058 
2604.000000	65.224146 
2603.000000	65.204167 
2602.000000	65.187788 
2601.000000	65.175032 
2600.000000	65.165400 
2599.000000	65.158200 
2598.000000	65.152764 
2597.000000	65.148711 
2596.000000	65.145897 
2595.000000	65.144872 
2594.000000	65.146231 
2593.000000	65.151119 
2592.000000	65.160346 
2591.000000	65.174889 
2590.000000	65.195322 
2589.000000	65.221762 
2588.000000	65.253663 
2587.000000	65.289783 
2586.000000	65.328240 
2585.000000	65.366458 
2584.000000	65.401649 
2583.000000	65.431022 
2582.000000	65.452384 
2581.000000	65.464425 
2580.000000	65.466904 
2579.000000	65.460729 
2578.000000	65.447735 
2577.000000	65.429735 
2576.000000	65.408325 
2575.000000	65.384674 
2574.000000	65.359425 
2573.000000	65.332984 
2572.000000	65.305900 
2571.000000	65.279269 
2570.000000	65.254926 
2569.000000	65.235400 
2568.000000	65.223312 
2567.000000	65.220594 
2566.000000	65.228056 
2565.000000	65.244960 
2564.000000	65.269136 
2563.000000	65.296888 
2562.000000	65.324211 
2561.000000	65.347290 
2560.000000	65.363550 
2559.000000	65.371537 
2558.000000	65.371561 
2557.000000	65.365338 
2556.000000	65.355300 
2555.000000	65.343928 
2554.000000	65.333390 
2553.000000	65.325307 
2552.000000	65.320515 
2551.000000	65.319013 
2550.000000	65.320253 
2549.000000	65.323162 
2548.000000	65.326547 
2547.000000	65.329146 
2546.000000	65.329599 
2545.000000	65.326786 
2544.000000	65.320181 
2543.000000	65.309906 
2542.000000	65.296411 
2541.000000	65.280628 
2540.000000	65.264058 
2539.000000	65.248131 
2538.000000	65.234303 
2537.000000	65.223312 
2536.000000	65.215253 
2535.000000	65.209364 
2534.000000	65.204143 
2533.000000	65.197634 
2532.000000	65.187811 
2531.000000	65.173196 
2530.000000	65.153694 
2529.000000	65.130162 
2528.000000	65.104603 
2527.000000	65.079355 
2526.000000	65.056920 
2525.000000	65.039277 
2524.000000	65.027737 
2523.000000	65.023064 
2522.000000	65.025925 
2521.000000	65.036988 
2520.000000	65.057134 
2519.000000	65.087008 
2518.000000	65.126729 
2517.000000	65.175342 
2516.000000	65.230536 
2515.000000	65.288567 
2514.000000	65.344548 
2513.000000	65.393352 
2512.000000	65.430235 
2511.000000	65.451693 
2510.000000	65.455913 
2509.000000	65.443515 
2508.000000	65.416669 
2507.000000	65.378785 
2506.000000	65.333652 
2505.000000	65.285205 
2504.000000	65.236663 
2503.000000	65.190815 
2502.000000	65.149688 
2501.000000	65.115046 
2500.000000	65.088295 
2499.000000	65.070557 
2498.000000	65.062522 
2497.000000	65.064525 
2496.000000	65.076398 
2495.000000	65.097498 
2494.000000	65.126705 
2493.000000	65.162324 
2492.000000	65.201878 
2491.000000	65.242576 
2490.000000	65.281200 
2489.000000	65.314650 
2488.000000	65.340399 
2487.000000	65.356898 
2486.000000	65.363812 
2485.000000	65.362119 
2484.000000	65.354013 
2483.000000	65.342211 
2482.000000	65.329575 
2481.000000	65.318322 
2480.000000	65.309929 
2479.000000	65.304541 
2478.000000	65.301442 
2477.000000	65.299153 
2476.000000	65.296244 
2475.000000	65.291690 
2474.000000	65.285396 
2473.000000	65.277934 
2472.000000	65.270352 
2471.000000	65.263843 
2470.000000	65.259647 
2469.000000	65.258526 
2468.000000	65.261030 
2467.000000	65.267229 
2466.000000	65.276813 
2465.000000	65.289425 
2464.000000	65.304493 
2463.000000	65.321207 
2462.000000	65.338420 
2461.000000	65.354895 
2460.000000	65.369296 
2459.000000	65.380215 
2458.000000	65.386700 
2457.000000	65.388441 
2456.000000	65.385913 
2455.000000	65.380406 
2454.000000	65.373730 
2453.000000	65.367794 
2452.000000	65.364336 
2451.000000	65.364575 
2450.000000	65.368747 
2449.000000	65.376186 
2448.000000	65.385389 
2447.000000	65.394449 
2446.000000	65.401220 
2445.000000	65.403580 
2444.000000	65.399646 
2443.000000	65.388226 
2442.000000	65.368437 
2441.000000	65.340185 
2440.000000	65.304112 
2439.000000	65.261554 
2438.000000	65.214633 
2437.000000	65.166306 
2436.000000	65.119957 
2435.000000	65.079212 
2434.000000	65.046977 
2433.000000	65.025401 
2432.000000	65.015220 
2431.000000	65.016126 
2430.000000	65.026664 
2429.000000	65.044975 
2428.000000	65.068578 
2427.000000	65.095496 
2426.000000	65.123772 
2425.000000	65.152287 
2424.000000	65.179920 
2423.000000	65.205883 
2422.000000	65.229415 
2421.000000	65.249729 
2420.000000	65.266060 
2419.000000	65.277552 
2418.000000	65.283679 
2417.000000	65.284013 
2416.000000	65.278816 
2415.000000	65.268611 
2414.000000	65.254664 
2413.000000	65.238738 
2412.000000	65.223383 
2411.000000	65.211796 
2410.000000	65.207290 
2409.000000	65.213346 
2408.000000	65.232014 
2407.000000	65.263438 
2406.000000	65.305089 
2405.000000	65.352129 
2404.000000	65.397882 
2403.000000	65.435290 
2402.000000	65.458202 
2401.000000	65.463042 
2400.000000	65.449500 
2399.000000	65.420603 
2398.000000	65.382122 
2397.000000	65.341186 
2396.000000	65.304732 
2395.000000	65.278339 
2394.000000	65.264844 
2393.000000	65.264296 
2392.000000	65.274190 
2391.000000	65.290451 
2390.000000	65.308308 
2389.000000	65.323567 
2388.000000	65.333127 
2387.000000	65.335631 
2386.000000	65.331077 
2385.000000	65.320730 
2384.000000	65.306615 
2383.000000	65.291309 
2382.000000	65.277290 
2381.000000	65.266370 
2380.000000	65.259647 
2379.000000	65.257143 
2378.000000	65.258169 
2377.000000	65.261578 
2376.000000	65.266132 
2375.000000	65.270853 
2374.000000	65.275287 
2373.000000	65.279245 
2372.000000	65.282821 
2371.000000	65.286087 
2370.000000	65.288686 
2369.000000	65.290164 
2368.000000	65.289950 
2367.000000	65.287518 
2366.000000	65.282893 
2365.000000	65.276503 
2364.000000	65.269088 
2363.000000	65.261721 
2362.000000	65.255403 
2361.000000	65.250754 
2360.000000	65.247797 
2359.000000	65.246081 
2358.000000	65.244770 
2357.000000	65.243220 
2356.000000	65.241026 
2355.000000	65.238428 
2354.000000	65.236020 
2353.000000	65.234398 
2352.000000	65.234231 
2351.000000	65.235495 
2350.000000	65.238070 
2349.000000	65.241432 
2348.000000	65.245318 
2347.000000	65.249705 
2346.000000	65.255022 
2345.000000	65.261912 
2344.000000	65.270853 
2343.000000	65.282011 
2342.000000	65.295076 
2341.000000	65.309166 
2340.000000	65.323114 
2339.000000	65.335679 
2338.000000	65.346050 
2337.000000	65.353965 
2336.000000	65.359807 
2335.000000	65.364384 
2334.000000	65.368771 
2333.000000	65.373635 
2332.000000	65.379142 
2331.000000	65.384912 
2330.000000	65.390014 
2329.000000	65.393447 
2328.000000	65.394449 
2327.000000	65.392518 
2326.000000	65.387773 
2325.000000	65.380454 
2324.000000	65.371012 
2323.000000	65.359997 
2322.000000	65.347933 
2321.000000	65.335297 
2320.000000	65.322518 
2319.000000	65.309953 
2318.000000	65.297889 
2317.000000	65.286517 
2316.000000	65.275931 
2315.000000	65.266203 
2314.000000	65.257334 
2313.000000	65.249395 
2312.000000	65.242576 
2311.000000	65.237212 
2310.000000	65.233731 
2309.000000	65.232539 
2308.000000	65.233874 
2307.000000	65.237712 
2306.000000	65.243792 
2305.000000	65.251398 
2304.000000	65.259742 
2303.000000	65.268087 
2302.000000	65.276098 
2301.000000	65.283870 
2300.000000	65.291643 
2299.000000	65.299654 
2298.000000	65.307903 
2297.000000	65.316009 
2296.000000	65.323328 
2295.000000	65.328979 
2294.000000	65.332388 
2293.000000	65.333509 
2292.000000	65.332913 
2291.000000	65.331578 
2290.000000	65.330839 
2289.000000	65.331864 
2288.000000	65.335369 
2287.000000	65.341377 
2286.000000	65.349197 
2285.000000	65.357732 
2284.000000	65.365457 
2283.000000	65.370941 
2282.000000	65.373134 
2281.000000	65.371537 
2280.000000	65.366148 
2279.000000	65.357470 
2278.000000	65.346217 
2277.000000	65.333318 
2276.000000	65.319824 
2275.000000	65.306878 
2274.000000	65.295720 
2273.000000	65.287446 
2272.000000	65.283274 
2271.000000	65.283846 
2270.000000	65.289282 
2269.000000	65.299201 
2268.000000	65.312528 
2267.000000	65.327811 
2266.000000	65.343093 
2265.000000	65.356564 
2264.000000	65.366482 
2263.000000	65.371823 
2262.000000	65.372061 
2261.000000	65.367698 
2260.000000	65.360093 
2259.000000	65.351080 
2258.000000	65.342879 
2257.000000	65.337300 
2256.000000	65.335559 
2255.000000	65.337896 
2254.000000	65.343570 
2253.000000	65.351200 
2252.000000	65.359044 
2251.000000	65.365409 
2250.000000	65.368986 
2249.000000	65.368986 
2248.000000	65.365433 
2247.000000	65.358710 
2246.000000	65.349531 
2245.000000	65.338611 
2244.000000	65.326666 
2243.000000	65.314579 
2242.000000	65.302896 
2241.000000	65.292453 
2240.000000	65.283918 
2239.000000	65.278005 
2238.000000	65.275096 
2237.000000	65.275144 
2236.000000	65.277671 
2235.000000	65.281653 
2234.000000	65.286159 
2233.000000	65.290594 
2232.000000	65.294981 
2231.000000	65.299749 
2230.000000	65.305709 
2229.000000	65.313625 
2228.000000	65.323710 
2227.000000	65.335345 
2226.000000	65.347123 
2225.000000	65.357065 
2224.000000	65.363121 
2223.000000	65.363860 
2222.000000	65.358734 
2221.000000	65.348458 
2220.000000	65.334844 
2219.000000	65.320372 
2218.000000	65.307712 
2217.000000	65.298962 
2216.000000	65.295433 
2215.000000	65.297150 
2214.000000	65.303301 
2213.000000	65.312075 
2212.000000	65.321421 
2211.000000	65.329265 
2210.000000	65.333604 
2209.000000	65.333080 
2208.000000	65.326952 
2207.000000	65.315294 
2206.000000	65.298962 
2205.000000	65.279579 
2204.000000	65.259242 
2203.000000	65.240097 
2202.000000	65.224075 
2201.000000	65.212368 
2200.000000	65.205359 
2199.000000	65.202498 
2198.000000	65.202927 
2197.000000	65.205502 
2196.000000	65.209388 
2195.000000	65.214180 
2194.000000	65.220093 
2193.000000	65.227603 
2192.000000	65.237164 
2191.000000	65.248799 
2190.000000	65.262031 
2189.000000	65.275526 
2188.000000	65.287590 
2187.000000	65.296649 
2186.000000	65.301704 
2185.000000	65.302944 
2184.000000	65.301609 
2183.000000	65.299892 
2182.000000	65.300035 
2181.000000	65.303897 
2180.000000	65.312170 
2179.000000	65.324115 
2178.000000	65.337562 
2177.000000	65.349483 
2176.000000	65.356588 
2175.000000	65.356302 
2174.000000	65.347409 
2173.000000	65.330505 
2172.000000	65.307736 
2171.000000	65.282177 
2170.000000	65.257334 
2169.000000	65.236043 
2168.000000	65.219879 
2167.000000	65.208911 
2166.000000	65.201926 
2165.000000	65.196990 
2164.000000	65.192079 
2163.000000	65.185785 
2162.000000	65.177702 
2161.000000	65.168571 
2160.000000	65.159726 
2159.000000	65.152740 
2158.000000	65.148520 
2157.000000	65.147256 
2156.000000	65.147876 
2155.000000	65.148830 
2154.000000	65.148067 
2153.000000	65.144300 
2152.000000	65.137219 
2151.000000	65.127921 
2150.000000	65.118646 
2149.000000	65.112137 
2148.000000	65.110898 
2147.000000	65.116357 
2146.000000	65.128469 
2145.000000	65.145587 
2144.000000	65.165114 
2143.000000	65.184068 
2142.000000	65.200066 
2141.000000	65.211868 
2140.000000	65.219759 
2139.000000	65.225529 
2138.000000	65.231871 
2137.000000	65.241432 
2136.000000	65.255975 
2135.000000	65.276098 
2134.000000	65.300559 
2133.000000	65.326738 
2132.000000	65.350985 
2131.000000	65.369725 
2130.000000	65.380215 
2129.000000	65.381026 
2128.000000	65.372586 
2127.000000	65.356898 
2126.000000	65.337014 
2125.000000	65.316367 
2124.000000	65.297961 
2123.000000	65.283656 
2122.000000	65.273952 
2121.000000	65.268182 
2120.000000	65.264701 
2119.000000	65.261793 
2118.000000	65.258336 
2117.000000	65.254187 
2116.000000	65.250205 
2115.000000	65.248131 
2114.000000	65.249824 
2113.000000	65.256690 
2112.000000	65.269088 
2111.000000	65.286183 
2110.000000	65.306162 
2109.000000	65.326642 
2108.000000	65.345191 
2107.000000	65.360069 
2106.000000	65.370631 
2105.000000	65.377163 
2104.000000	65.380716 
2103.000000	65.382385 
2102.000000	65.383005 
2101.000000	65.382552 
2100.000000	65.380287 
2099.000000	65.375113 
2098.000000	65.366220 
2097.000000	65.353274 
2096.000000	65.337061 
2095.000000	65.318989 
2094.000000	65.300965 
2093.000000	65.284919 
2092.000000	65.272307 
2091.000000	65.264081 
2090.000000	65.260815 
2089.000000	65.262722 
2088.000000	65.269970 
2087.000000	65.282583 
2086.000000	65.300679 
2085.000000	65.323877 
2084.000000	65.351366 
2083.000000	65.381383 
2082.000000	65.411615 
2081.000000	65.439128 
2080.000000	65.461182 
2079.000000	65.475964 
2078.000000	65.482592 
2077.000000	65.481686 
2076.000000	65.474796 
2075.000000	65.464091 
2074.000000	65.451598 
2073.000000	65.438961 
2072.000000	65.427041 
2071.000000	65.416121 
2070.000000	65.406203 
2069.000000	65.397477 
2068.000000	65.389895 
2067.000000	65.383505 
2066.000000	65.378093 
2065.000000	65.373349 
2064.000000	65.368485 
2063.000000	65.362763 
2062.000000	65.355443 
2061.000000	65.346384 
2060.000000	65.336322 
2059.000000	65.326714 
2058.000000	65.319514 
2057.000000	65.316629 
2056.000000	65.319371 
2055.000000	65.328025 
2054.000000	65.341234 
2053.000000	65.356588 
2052.000000	65.371060 
2051.000000	65.381932 
2050.000000	65.387320 
2049.000000	65.386724 
2048.000000	65.381026 
2047.000000	65.372371 
2046.000000	65.363359 
2045.000000	65.356540 
2044.000000	65.353608 
2043.000000	65.355348 
2042.000000	65.361642 
2041.000000	65.371298 
2040.000000	65.382671 
2039.000000	65.394043 
2038.000000	65.404009 
2037.000000	65.411615 
2036.000000	65.416336 
2035.000000	65.418052 
2034.000000	65.416598 
2033.000000	65.411853 
2032.000000	65.403509 
2031.000000	65.391278 
2030.000000	65.374875 
2029.000000	65.354275 
2028.000000	65.329980 
2027.000000	65.303039 
2026.000000	65.275192 
2025.000000	65.248775 
2024.000000	65.226531 
2023.000000	65.211033 
2022.000000	65.204548 
2021.000000	65.208387 
2020.000000	65.222907 
2019.000000	65.246963 
2018.000000	65.278267 
2017.000000	65.313816 
2016.000000	65.350055 
2015.000000	65.383553 
2014.000000	65.411376 
2013.000000	65.431356 
2012.000000	65.442514 
2011.000000	65.444755 
2010.000000	65.439033 
2009.000000	65.426754 
2008.000000	65.409827 
2007.000000	65.390133 
2006.000000	65.369415 
2005.000000	65.349006 
2004.000000	65.329957 
2003.000000	65.312838 
2002.000000	65.297889 
2001.000000	65.284919 
2000.000000	65.273785 
1999.000000	65.264368 
1998.000000	65.256595 
1997.000000	65.250635 
1996.000000	65.246748 
1995.000000	65.245151 
1994.000000	65.245747 
1993.000000	65.248036 
1992.000000	65.251040 
1991.000000	65.253686 
1990.000000	65.254735 
1989.000000	65.253210 
1988.000000	65.248775 
1987.000000	65.241551 
1986.000000	65.232372 
1985.000000	65.222287 
1984.000000	65.212440 
1983.000000	65.204048 
1982.000000	65.198063 
1981.000000	65.195012 
1980.000000	65.195131 
1979.000000	65.198469 
1978.000000	65.205073 
1977.000000	65.214800 
1976.000000	65.227460 
1975.000000	65.242767 
1974.000000	65.260338 
1973.000000	65.279483 
1972.000000	65.299153 
1971.000000	65.318012 
1970.000000	65.334701 
1969.000000	65.348029 
1968.000000	65.357542 
1967.000000	65.363430 
1966.000000	65.366673 
1965.000000	65.369057 
1964.000000	65.372419 
1963.000000	65.378427 
1962.000000	65.387701 
1961.000000	65.400195 
1960.000000	65.414547 
1959.000000	65.428662 
1958.000000	65.440177 
1957.000000	65.447068 
1956.000000	65.447854 
1955.000000	65.442156 
1954.000000	65.430331 
1953.000000	65.413546 
1952.000000	65.392899 
1951.000000	65.369558 
1950.000000	65.344238 
1949.000000	65.317559 
1948.000000	65.290117 
1947.000000	65.263009 
1946.000000	65.237784 
1945.000000	65.216541 
1944.000000	65.201425 
1943.000000	65.194320 
1942.000000	65.196037 
1941.000000	65.206289 
1940.000000	65.223503 
1939.000000	65.245318 
1938.000000	65.268659 
1937.000000	65.291070 
1936.000000	65.310859 
1935.000000	65.327310 
1934.000000	65.340757 
1933.000000	65.351986 
1932.000000	65.361952 
1931.000000	65.371060 
1930.000000	65.378880 
1929.000000	65.384387 
1928.000000	65.386343 
1927.000000	65.383696 
1926.000000	65.376043 
1925.000000	65.364003 
1924.000000	65.349102 
1923.000000	65.333437 
1922.000000	65.319323 
1921.000000	65.308594 
1920.000000	65.302348 
1919.000000	65.300822 
1918.000000	65.303421 
1917.000000	65.309023 
1916.000000	65.316510 
1915.000000	65.325045 
1914.000000	65.334153 
1913.000000	65.343785 
1912.000000	65.354132 
1911.000000	65.365195 
1910.000000	65.376710 
1909.000000	65.387821 
1908.000000	65.397119 
1907.000000	65.403008 
1906.000000	65.403699 
1905.000000	65.397906 
1904.000000	65.384984 
1903.000000	65.365386 
1902.000000	65.340781 
1901.000000	65.313839 
1900.000000	65.287971 
1899.000000	65.266442 
1898.000000	65.251994 
1897.000000	65.246009 
1896.000000	65.248298 
1895.000000	65.257191 
1894.000000	65.269804 
1893.000000	65.282869 
1892.000000	65.293288 
1891.000000	65.298771 
1890.000000	65.298247 
1889.000000	65.291953 
1888.000000	65.281200 
1887.000000	65.267872 
1886.000000	65.253901 
1885.000000	65.241122 
1884.000000	65.230584 
1883.000000	65.222978 
1882.000000	65.218639 
1881.000000	65.217709 
1880.000000	65.220332 
1879.000000	65.226340 
1878.000000	65.235280 
1877.000000	65.246438 
1876.000000	65.258598 
1875.000000	65.270185 
1874.000000	65.279603 
1873.000000	65.285682 
1872.000000	65.287947 
1871.000000	65.286540 
1870.000000	65.282177 
1869.000000	65.276217 
1868.000000	65.270233 
1867.000000	65.265464 
1866.000000	65.262603 
1865.000000	65.261960 
1864.000000	65.263104 
1863.000000	65.265297 
1862.000000	65.267348 
1861.000000	65.268206 
1860.000000	65.266847 
1859.000000	65.262413 
1858.000000	65.254211 
1857.000000	65.241837 
1856.000000	65.225338 
1855.000000	65.205168 
1854.000000	65.182495 
1853.000000	65.159106 
1852.000000	65.137362 
1851.000000	65.119838 
1850.000000	65.109133 
1849.000000	65.107440 
1848.000000	65.116381 
1847.000000	65.136718 
1846.000000	65.168094 
1845.000000	65.208840 
1844.000000	65.256166 
1843.000000	65.306258 
1842.000000	65.354633 
1841.000000	65.396952 
1840.000000	65.429568 
1839.000000	65.450239 
1838.000000	65.458250 
1837.000000	65.454745 
1836.000000	65.442419 
1835.000000	65.424728 
1834.000000	65.405631 
1833.000000	65.388417 
1832.000000	65.375709 
1831.000000	65.368723 
1830.000000	65.367698 
1829.000000	65.371870 
1828.000000	65.380191 
1827.000000	65.391421 
1826.000000	65.404534 
1825.000000	65.418457 
1824.000000	65.432190 
1823.000000	65.444660 
1822.000000	65.454792 
1821.000000	65.461564 
1820.000000	65.464258 
1819.000000	65.462851 
1818.000000	65.457749 
1817.000000	65.449762 
1816.000000	65.439772 
1815.000000	65.428543 
1814.000000	65.416455 
1813.000000	65.403628 
1812.000000	65.389990 
1811.000000	65.375137 
1810.000000	65.358877 
1809.000000	65.341472 
1808.000000	65.323543 
1807.000000	65.305781 
1806.000000	65.289044 
1805.000000	65.273976 
1804.000000	65.261125 
1803.000000	65.250635 
1802.000000	65.242910 
1801.000000	65.238380 
1800.000000	65.237569 
1799.000000	65.241169 
1798.000000	65.249371 
1797.000000	65.261673 
1796.000000	65.276646 
1795.000000	65.292334 
1794.000000	65.306591 
1793.000000	65.317773 
1792.000000	65.325498 
1791.000000	65.330576 
1790.000000	65.334630 
1789.000000	65.339636 
1788.000000	65.347123 
1787.000000	65.357351 
1786.000000	65.369057 
1785.000000	65.379595 
1784.000000	65.385699 
1783.000000	65.384411 
1782.000000	65.374040 
1781.000000	65.354633 
1780.000000	65.328383 
1779.000000	65.298724 
1778.000000	65.269708 
1777.000000	65.244984 
1776.000000	65.226507 
1775.000000	65.215086 
1774.000000	65.210056 
1773.000000	65.210151 
1772.000000	65.213894 
1771.000000	65.220332 
1770.000000	65.229225 
1769.000000	65.240883 
1768.000000	65.255784 
1767.000000	65.274381 
1766.000000	65.296649 
1765.000000	65.321993 
1764.000000	65.349149 
1763.000000	65.376567 
1762.000000	65.402388 
1761.000000	65.424966 
1760.000000	65.442705 
1759.000000	65.454363 
1758.000000	65.458965 
1757.000000	65.455961 
1756.000000	65.444993 
1755.000000	65.426540 
1754.000000	65.401196 
1753.000000	65.370512 
1752.000000	65.336203 
1751.000000	65.300250 
1750.000000	65.264344 
1749.000000	65.230011 
1748.000000	65.197968 
1747.000000	65.168166 
1746.000000	65.140295 
1745.000000	65.114045 
1744.000000	65.089440 
1743.000000	65.066766 
1742.000000	65.046811 
1741.000000	65.030550 
1740.000000	65.018773 
1739.000000	65.011668 
1738.000000	65.008449 
1737.000000	65.007519 
1736.000000	65.006661 
1735.000000	65.003800 
1734.000000	64.997220 
1733.000000	64.986515 
1732.000000	64.972400 
1731.000000	64.956903 
1730.000000	64.942598 
1729.000000	64.932107 
1728.000000	64.927411 
1727.000000	64.929723 
1726.000000	64.938974 
1725.000000	64.954781 
1724.000000	64.976382 
1723.000000	65.003466 
1722.000000	65.035963 
1721.000000	65.074110 
1720.000000	65.117621 
1719.000000	65.165495 
1718.000000	65.215587 
1717.000000	65.264439 
1716.000000	65.307760 
1715.000000	65.341210 
1714.000000	65.361547 
1713.000000	65.367150 
1712.000000	65.358448 
1711.000000	65.338182 
1710.000000	65.310740 
1709.000000	65.281081 
1708.000000	65.253973 
1707.000000	65.233159 
1706.000000	65.220880 
1705.000000	65.217828 
1704.000000	65.223097 
1703.000000	65.235018 
1702.000000	65.251302 
1701.000000	65.269422 
1700.000000	65.287184 
1699.000000	65.302348 
1698.000000	65.313506 
1697.000000	65.319943 
1696.000000	65.322017 
1695.000000	65.320730 
1694.000000	65.318083 
1693.000000	65.316462 
1692.000000	65.318083 
1691.000000	65.324211 
1690.000000	65.334773 
1689.000000	65.348386 
1688.000000	65.362262 
1687.000000	65.372920 
1686.000000	65.377187 
1685.000000	65.373110 
1684.000000	65.360307 
1683.000000	65.340399 
1682.000000	65.316462 
1681.000000	65.292286 
1680.000000	65.271306 
1679.000000	65.256023 
1678.000000	65.247464 
1677.000000	65.245294 
1676.000000	65.248131 
1675.000000	65.254044 
1674.000000	65.261197 
1673.000000	65.268111 
1672.000000	65.273952 
1671.000000	65.278410 
1670.000000	65.281367 
1669.000000	65.282750 
1668.000000	65.282106 
1667.000000	65.278911 
1666.000000	65.272784 
1665.000000	65.263915 
1664.000000	65.253114 
1663.000000	65.241980 
1662.000000	65.232682 
1661.000000	65.227580 
1660.000000	65.228533 
1659.000000	65.236568 
1658.000000	65.251398 
1657.000000	65.271377 
1656.000000	65.293669 
1655.000000	65.314888 
1654.000000	65.331602 
1653.000000	65.340995 
1652.000000	65.341591 
1651.000000	65.333294 
1650.000000	65.317606 
1649.000000	65.297031 
1648.000000	65.274572 
1647.000000	65.253233 
1646.000000	65.234947 
1645.000000	65.220928 
1644.000000	65.210819 
1643.000000	65.203452 
1642.000000	65.197062 
1641.000000	65.189814 
1640.000000	65.180778 
1639.000000	65.170216 
1638.000000	65.159535 
1637.000000	65.150928 
1636.000000	65.146470 
1635.000000	65.147495 
1634.000000	65.154004 
1633.000000	65.164375 
1632.000000	65.175747 
1631.000000	65.184712 
1630.000000	65.188193 
1629.000000	65.184283 
1628.000000	65.172648 
1627.000000	65.154600 
1626.000000	65.132689 
1625.000000	65.110111 
1624.000000	65.089917 
1623.000000	65.074563 
1622.000000	65.065288 
1621.000000	65.062117 
1620.000000	65.064263 
1619.000000	65.070176 
1618.000000	65.078186 
1617.000000	65.086531 
1616.000000	65.093398 
1615.000000	65.097427 
1614.000000	65.097498 
1613.000000	65.093111 
1612.000000	65.084433 
1611.000000	65.072464 
1610.000000	65.058898 
1609.000000	65.046167 
1608.000000	65.036773 
1607.000000	65.032720 
1606.000000	65.035271 
1605.000000	65.044355 
1604.000000	65.058684 
1603.000000	65.075945 
1602.000000	65.093135 
1601.000000	65.107583 
1600.000000	65.117192 
1599.000000	65.120983 
1598.000000	65.118956 
1597.000000	65.111970 
1596.000000	65.101146 
1595.000000	65.087604 
1594.000000	65.072464 
1593.000000	65.056729 
1592.000000	65.041399 
1591.000000	65.027785 
1590.000000	65.017032 
1589.000000	65.010213 
1588.000000	65.007948 
1587.000000	65.010070 
1586.000000	65.015602 
1585.000000	65.022730 
1584.000000	65.029263 
1583.000000	65.033030 
1582.000000	65.032291 
1581.000000	65.025973 
1580.000000	65.014052 
1579.000000	64.997434 
1578.000000	64.977979 
1577.000000	64.957904 
1576.000000	64.939689 
1575.000000	64.925670 
1574.000000	64.917778 
1573.000000	64.917182 
1572.000000	64.924192 
1571.000000	64.938092 
1570.000000	64.956855 
1569.000000	64.977526 
1568.000000	64.996480 
1567.000000	65.010118 
1566.000000	65.015554 
1565.000000	65.011358 
1564.000000	64.998006 
1563.000000	64.977908 
1562.000000	64.954638 
1561.000000	64.932608 
1560.000000	64.916062 
1559.000000	64.908242 
1558.000000	64.910554 
1557.000000	64.922714 
1556.000000	64.942860 
1555.000000	64.967918 
1554.000000	64.994359 
1553.000000	65.018725 
1552.000000	65.038275 
1551.000000	65.051150 
1550.000000	65.056395 
1549.000000	65.054035 
1548.000000	65.044927 
1547.000000	65.030622 
1546.000000	65.013265 
1545.000000	64.995455 
1544.000000	64.979720 
1543.000000	64.967989 
1542.000000	64.961481 
1541.000000	64.960289 
1540.000000	64.963603 
1539.000000	64.970064 
1538.000000	64.978194 
1537.000000	64.986658 
1536.000000	64.994859 
1535.000000	65.002870 
1534.000000	65.011596 
1533.000000	65.021896 
1532.000000	65.034914 
1531.000000	65.051317 
1530.000000	65.071439 
1529.000000	65.094876 
1528.000000	65.120577 
1527.000000	65.147042 
1526.000000	65.172362 
1525.000000	65.194487 
1524.000000	65.211200 
1523.000000	65.220475 
1522.000000	65.220689 
1521.000000	65.210938 
1520.000000	65.191340 
1519.000000	65.163230 
1518.000000	65.129351 
1517.000000	65.093398 
1516.000000	65.059661 
1515.000000	65.032172 
1514.000000	65.014195 
1513.000000	65.007448 
1512.000000	65.011548 
1511.000000	65.024352 
1510.000000	65.042471 
1509.000000	65.061736 
1508.000000	65.078353 
1507.000000	65.089273 
1506.000000	65.092635 
1505.000000	65.087962 
1504.000000	65.075707 
1503.000000	65.057086 
1502.000000	65.033364 
1501.000000	65.006351 
1500.000000	64.978218 
1499.000000	64.951348 
1498.000000	64.928293 
1497.000000	64.911913 
1496.000000	64.904689 
1495.000000	64.908099 
1494.000000	64.922404 
1493.000000	64.945983 
1492.000000	64.976024 
1491.000000	65.008544 
1490.000000	65.039896 
1489.000000	65.066742 
1488.000000	65.087509 
1487.000000	65.102386 
1486.000000	65.113139 
1485.000000	65.122175 
1484.000000	65.131855 
1483.000000	65.143799 
1482.000000	65.158128 
1481.000000	65.173792 
1480.000000	65.188503 
1479.000000	65.199756 
1478.000000	65.205025 
1477.000000	65.202832 
1476.000000	65.192341 
1475.000000	65.173792 
1474.000000	65.148043 
1473.000000	65.116429 
1472.000000	65.080857 
1471.000000	65.043544 
1470.000000	65.007185 
1469.000000	64.974665 
1468.000000	64.949369 
1467.000000	64.934539 
1466.000000	64.932966 
1465.000000	64.946031 
1464.000000	64.973306 
1463.000000	65.012621 
1462.000000	65.059685 
1461.000000	65.109229 
1460.000000	65.155601 
1459.000000	65.193772 
1458.000000	65.220499 
1457.000000	65.234208 
1456.000000	65.235280 
1455.000000	65.225005 
1454.000000	65.205144 
1453.000000	65.177035 
1452.000000	65.141510 
1451.000000	65.099167 
1450.000000	65.050816 
1449.000000	64.998340 
1448.000000	64.945149 
1447.000000	64.896082 
1446.000000	64.856696 
1445.000000	64.832282 
1444.000000	64.826607 
1443.000000	64.840817 
1442.000000	64.873170 
1441.000000	64.919114 
1440.000000	64.972138 
1439.000000	65.024948 
1438.000000	65.071153 
1437.000000	65.106248 
1436.000000	65.128445 
1435.000000	65.138769 
1434.000000	65.140438 
1433.000000	65.137815 
1432.000000	65.135073 
1431.000000	65.135669 
1430.000000	65.141034 
1429.000000	65.151143 
1428.000000	65.164136 
1427.000000	65.177726 
1426.000000	65.189361 
1425.000000	65.197300 
1424.000000	65.200829 
1423.000000	65.200495 
1422.000000	65.197825 
1421.000000	65.194821 
1420.000000	65.193390 
1419.000000	65.194702 
1418.000000	65.199184 
1417.000000	65.206480 
1416.000000	65.215587 
1415.000000	65.225052 
1414.000000	65.233564 
1413.000000	65.240025 
1412.000000	65.243649 
1411.000000	65.243840 
1410.000000	65.239906 
1409.000000	65.231394 
1408.000000	65.218138 
1407.000000	65.200424 
1406.000000	65.179014 
1405.000000	65.155291 
1404.000000	65.131545 
1403.000000	65.110635 
1402.000000	65.095162 
1401.000000	65.087151 
1400.000000	65.087485 
1399.000000	65.095496 
1398.000000	65.109109 
1397.000000	65.125370 
1396.000000	65.141153 
1395.000000	65.153837 
1394.000000	65.162062 
1393.000000	65.165734 
1392.000000	65.166044 
1391.000000	65.165019 
1390.000000	65.164661 
1389.000000	65.166473 
1388.000000	65.171170 
1387.000000	65.178322 
1386.000000	65.186643 
1385.000000	65.194511 
1384.000000	65.200281 
1383.000000	65.202832 
1382.000000	65.201711 
1381.000000	65.197324 
1380.000000	65.190744 
1379.000000	65.183115 
1378.000000	65.175437 
1377.000000	65.168237 
1376.000000	65.161418 
1375.000000	65.154457 
1374.000000	65.146684 
1373.000000	65.137600 
1372.000000	65.127420 
1371.000000	65.117025 
1370.000000	65.107846 
1369.000000	65.101552 
1368.000000	65.099596 
1367.000000	65.102863 
1366.000000	65.111303 
1365.000000	65.124034 
1364.000000	65.139365 
1363.000000	65.155053 
1362.000000	65.168809 
1361.000000	65.178704 
1360.000000	65.183424 
1359.000000	65.182352 
1358.000000	65.175628 
1357.000000	65.163826 
1356.000000	65.148091 
1355.000000	65.129518 
1354.000000	65.109276 
1353.000000	65.088272 
1352.000000	65.067338 
1351.000000	65.047240 
1350.000000	65.028572 
1349.000000	65.012049 
1348.000000	64.998316 
1347.000000	64.988279 
1346.000000	64.982867 
1345.000000	64.982938 
1344.000000	64.989089 
1343.000000	65.001487 
1342.000000	65.019440 
1341.000000	65.041637 
1340.000000	65.066003 
1339.000000	65.090084 
1338.000000	65.111422 
1337.000000	65.128016 
1336.000000	65.138626 
1335.000000	65.142989 
1334.000000	65.141701 
1333.000000	65.136194 
1332.000000	65.128397 
1331.000000	65.120363 
1330.000000	65.114068 
1329.000000	65.111041 
1328.000000	65.112090 
1327.000000	65.117216 
1326.000000	65.125489 
1325.000000	65.135264 
1324.000000	65.144395 
1323.000000	65.150475 
1322.000000	65.151476 
1321.000000	65.145993 
1320.000000	65.133738 
1319.000000	65.115380 
1318.000000	65.092873 
1317.000000	65.068888 
1316.000000	65.046358 
1315.000000	65.027856 
1314.000000	65.015292 
1313.000000	65.009403 
1312.000000	65.010166 
1311.000000	65.016579 
1310.000000	65.027284 
1309.000000	65.040755 
1308.000000	65.055608 
1307.000000	65.070796 
1306.000000	65.085339 
1305.000000	65.098285 
1304.000000	65.108752 
1303.000000	65.115857 
1302.000000	65.118670 
1301.000000	65.116333 
1300.000000	65.108466 
1299.000000	65.095281 
1298.000000	65.077662 
1297.000000	65.057301 
1296.000000	65.036439 
1295.000000	65.017509 
1294.000000	65.002870 
1293.000000	64.994311 
1292.000000	64.993143 
1291.000000	64.999675 
1290.000000	65.013194 
1289.000000	65.032291 
1288.000000	65.054965 
1287.000000	65.078973 
1286.000000	65.102124 
1285.000000	65.122675 
1284.000000	65.139484 
1283.000000	65.152192 
1282.000000	65.160989 
1281.000000	65.166425 
1280.000000	65.168833 
1279.000000	65.168476 
1278.000000	65.165042 
1277.000000	65.157866 
1276.000000	65.146136 
1275.000000	65.129423 
1274.000000	65.107941 
1273.000000	65.082716 
1272.000000	65.055871 
1271.000000	65.030145 
1270.000000	65.008330 
1269.000000	64.992713 
1268.000000	64.984512 
1267.000000	64.983582 
1266.000000	64.988374 
1265.000000	64.996123 
1264.000000	65.003752 
1263.000000	65.008330 
1262.000000	65.008020 
1261.000000	65.002179 
1260.000000	64.991617 
1259.000000	64.978170 
1258.000000	64.964437 
1257.000000	64.953017 
1256.000000	64.945840 
1255.000000	64.943909 
1254.000000	64.947199 
1253.000000	64.954948 
1252.000000	64.965605 
1251.000000	64.977574 
1250.000000	64.989113 
1249.000000	64.999079 
1248.000000	65.006542 
1247.000000	65.011215 
1246.000000	65.013265 
1245.000000	65.013313 
1244.000000	65.012335 
1243.000000	65.011501 
1242.000000	65.011668 
1241.000000	65.013670 
1240.000000	65.017986 
1239.000000	65.024685 
1238.000000	65.033483 
1237.000000	65.043735 
1236.000000	65.054774 
1235.000000	65.065598 
1234.000000	65.075254 
1233.000000	65.082764 
1232.000000	65.087246 
1231.000000	65.088200 
1230.000000	65.085649 
1229.000000	65.080142 
1228.000000	65.072488 
1227.000000	65.063714 
1226.000000	65.054941 
1225.000000	65.047001 
1224.000000	65.040326 
1223.000000	65.034770 
1222.000000	65.029740 
1221.000000	65.024423 
1220.000000	65.018105 
1219.000000	65.010547 
1218.000000	65.002465 
1217.000000	64.994978 
1216.000000	64.989662 
1215.000000	64.988040 
1214.000000	64.991211 
1213.000000	64.999485 
1212.000000	65.012407 
1211.000000	65.028929 
1210.000000	65.047550 
1209.000000	65.066719 
1208.000000	65.084600 
1207.000000	65.099263 
1206.000000	65.108585 
1205.000000	65.110421 
1204.000000	65.102887 
1203.000000	65.084791 
1202.000000	65.055990 
1201.000000	65.017628 
1200.000000	64.972448 
1199.000000	64.924526 
1198.000000	64.878630 
1197.000000	64.839506 
1196.000000	64.810776 
1195.000000	64.794445 
1194.000000	64.790511 
1193.000000	64.797353 
1192.000000	64.812350 
1191.000000	64.832615 
1190.000000	64.855337 
1189.000000	64.878726 
1188.000000	64.901351 
1187.000000	64.922618 
1186.000000	64.941906 
1185.000000	64.958786 
1184.000000	64.972710 
1183.000000	64.983391 
1182.000000	64.990758 
1181.000000	64.994597 
1180.000000	64.994931 
1179.000000	64.991140 
1178.000000	64.982676 
1177.000000	64.968347 
1176.000000	64.947152 
1175.000000	64.918661 
1174.000000	64.883494 
1173.000000	64.844107 
1172.000000	64.804720 
1171.000000	64.770913 
1170.000000	64.748382 
1169.000000	64.741587 
1168.000000	64.752292 
1167.000000	64.778780 
1166.000000	64.816188 
1165.000000	64.857149 
1164.000000	64.893984 
1163.000000	64.920020 
1162.000000	64.931631 
1161.000000	64.928722 
1160.000000	64.914822 
1159.000000	64.895534 
1158.000000	64.877390 
1157.000000	64.866018 
1156.000000	64.864730 
1155.000000	64.873886 
1154.000000	64.891076 
1153.000000	64.912366 
1152.000000	64.933204 
1151.000000	64.949822 
1150.000000	64.960002 
1149.000000	64.963245 
1148.000000	64.960432 
1147.000000	64.953351 
1146.000000	64.943909 
1145.000000	64.933466 
1144.000000	64.922904 
1143.000000	64.912486 
1142.000000	64.901947 
1141.000000	64.890861 
1140.000000	64.879059 
1139.000000	64.866805 
1138.000000	64.854788 
1137.000000	64.843821 
1136.000000	64.834809 
1135.000000	64.828467 
1134.000000	64.824843 
1133.000000	64.823412 
1132.000000	64.823007 
1131.000000	64.822101 
1130.000000	64.819121 
1129.000000	64.812803 
1128.000000	64.802241 
1127.000000	64.787459 
1126.000000	64.769196 
1125.000000	64.748954 
1124.000000	64.728760 
1123.000000	64.710640 
1122.000000	64.696073 
1121.000000	64.685893 
1120.000000	64.680194 
1119.000000	64.678525 
1118.000000	64.679932 
1117.000000	64.683341 
1116.000000	64.687728 
1115.000000	64.691996 
1114.000000	64.695286 
1113.000000	64.696860 
1112.000000	64.696621 
1111.000000	64.694762 
1110.000000	64.692044 
1109.000000	64.689946 
1108.000000	64.689946 
1107.000000	64.693379 
1106.000000	64.700627 
1105.000000	64.710974 
1104.000000	64.722418 
1103.000000	64.731884 
1102.000000	64.736413 
1101.000000	64.733529 
1100.000000	64.722919 
1099.000000	64.706563 
1098.000000	64.688825 
1097.000000	64.675474 
1096.000000	64.672088 
1095.000000	64.682698 
1094.000000	64.708280 
1093.000000	64.746332 
1092.000000	64.791750 
1091.000000	64.837861 
1090.000000	64.878511 
1089.000000	64.909601 
1088.000000	64.929986 
1087.000000	64.941620 
1086.000000	64.948749 
1085.000000	64.956235 
1084.000000	64.968228 
1083.000000	64.986371 
1082.000000	65.009832 
1081.000000	65.034866 
1080.000000	65.056586 
1079.000000	65.069818 
1078.000000	65.071368 
1077.000000	65.060257 
1076.000000	65.038418 
1075.000000	65.009927 
1074.000000	64.980173 
1073.000000	64.954113 
1072.000000	64.935231 
1071.000000	64.924311 
1070.000000	64.919829 
1069.000000	64.918112 
1068.000000	64.914727 
1067.000000	64.905333 
1066.000000	64.887142 
1065.000000	64.859795 
1064.000000	64.825510 
1063.000000	64.788365 
1062.000000	64.753007 
1061.000000	64.723825 
1060.000000	64.703631 
1059.000000	64.692926 
1058.000000	64.689922 
1057.000000	64.691233 
1056.000000	64.693307 
1055.000000	64.692807 
1054.000000	64.688706 
1053.000000	64.681863 
1052.000000	64.675641 
1051.000000	64.674305 
1050.000000	64.682459 
1049.000000	64.703059 
1048.000000	64.736962 
1047.000000	64.782166 
1046.000000	64.834284 
1045.000000	64.887642 
1044.000000	64.935994 
1043.000000	64.974117 
1042.000000	64.997839 
1041.000000	65.004706 
1040.000000	64.993882 
1039.000000	64.966177 
1038.000000	64.923787 
1037.000000	64.870166 
1036.000000	64.810037 
1035.000000	64.748811 
1034.000000	64.691996 
1033.000000	64.644503 
1032.000000	64.609909 
1031.000000	64.589929 
1030.000000	64.583969 
1029.000000	64.589691 
1028.000000	64.602994 
1027.000000	64.619588 
1026.000000	64.635181 
1025.000000	64.647102 
1024.000000	64.654040 
1023.000000	64.656591 
1022.000000	64.656591 
1021.000000	64.656448 
1020.000000	64.658284 
1019.000000	64.663076 
1018.000000	64.670538 
1017.000000	64.679074 
1016.000000	64.686298 
1015.000000	64.689993 
1014.000000	64.688777 
1013.000000	64.682674 
1012.000000	64.673066 
1011.000000	64.662528 
1010.000000	64.653849 
1009.000000	64.649295 
1008.000000	64.649844 
1007.000000	64.654684 
1006.000000	64.661407 
1005.000000	64.666771 
1004.000000	64.667510 
1003.000000	64.660930 
1002.000000	64.646267 
1001.000000	64.624786 
1000.000000	64.600062 
999.000000	 64.576840 
998.000000	 64.560222 
997.000000	 64.554309 
996.000000	 64.561533 
995.000000	 64.581871 
994.000000	 64.612746 
993.000000	 64.649486 
992.000000	 64.686250 
991.000000	 64.717006 
990.000000	 64.737367 
989.000000	 64.745235 
988.000000	 64.741373 
987.000000	 64.728951 
986.000000	 64.712905 
985.000000	 64.698553 
984.000000	 64.689946 
983.000000	 64.688825 
982.000000	 64.694333 
981.000000	 64.703512 
980.000000	 64.712595 
979.000000	 64.718413 
978.000000	 64.719796 
977.000000	 64.717721 
976.000000	 64.715766 
975.000000	 64.718246 
974.000000	 64.728903 
973.000000	 64.748811 
972.000000	 64.775609 
971.000000	 64.803791 
970.000000	 64.825248 
969.000000	 64.832854 
968.000000	 64.822864 
967.000000	 64.796543 
966.000000	 64.760398 
965.000000	 64.724707 
964.000000	 64.700794 
963.000000	 64.698338 
962.000000	 64.722132 
961.000000	 64.771747 
960.000000	 64.841437 
959.000000	 64.921855 
958.000000	 65.001964 
957.000000	 65.071725 
956.000000	 65.123653 
955.000000	 65.153384 
954.000000	 65.159845 
953.000000	 65.143990 
952.000000	 65.108442 
951.000000	 65.057182 
950.000000	 64.994883 
949.000000	 64.927220 
948.000000	 64.859271 
947.000000	 64.797377 
946.000000	 64.745354 
945.000000	 64.703702 
944.000000	 64.669442 
943.000000	 64.636230 
942.000000	 64.597392 
941.000000	 64.547204 
940.000000	 64.484572 
939.000000	 64.413595 
938.000000	 64.343309 
937.000000	 64.285159 
936.000000	 64.249372 
935.000000	 64.241385 
934.000000	 64.259862 
933.000000	 64.296579 
932.000000	 64.338278 
931.000000	 64.370131 
930.000000	 64.380383 
929.000000	 64.363932 
928.000000	 64.323592 
927.000000	 64.269852 
926.000000	 64.217591 
925.000000	 64.183211 
924.000000	 64.178991 
923.000000	 64.211821 
922.000000	 64.281892 
921.000000	 64.383983 
920.000000	 64.509940 
919.000000	 64.650416 
918.000000	 64.797115 
917.000000	 64.943313 
916.000000	 65.084099 
915.000000	 65.215182 
914.000000	 65.331840 
913.000000	 65.428400 
912.000000	 65.499234 
911.000000	 65.538406 
910.000000	 65.541982 
909.000000	 65.508294 
908.000000	 65.440249 
907.000000	 65.343642 
906.000000	 65.227532 
905.000000	 65.102028 
904.000000	 64.977431 
903.000000	 64.862895 
902.000000	 64.765644 
901.000000	 64.690542 
900.000000	 64.640069 
899.000000	 64.614391 
898.000000	 64.612007 
897.000000	 64.629054 
896.000000	 64.660644 
895.000000	 64.700531 
894.000000	 64.742827 
893.000000	 64.781451 
892.000000	 64.812445 
891.000000	 64.833498 
890.000000	 64.844918 
889.000000	 64.848327 
888.000000	 64.846563 
887.000000	 64.843058 
886.000000	 64.840197 
885.000000	 64.838814 
884.000000	 64.838004 
883.000000	 64.836335 
882.000000	 64.831471 
881.000000	 64.821505 
880.000000	 64.804768 
879.000000	 64.780426 
878.000000	 64.748072 
877.000000	 64.708328 
876.000000	 64.662647 
875.000000	 64.613485 
874.000000	 64.564561 
873.000000	 64.520764 
872.000000	 64.486980 
871.000000	 64.467525 
870.000000	 64.465594 
869.000000	 64.481878 
868.000000	 64.514040 
867.000000	 64.556908 
866.000000	 64.603042 
865.000000	 64.644312 
864.000000	 64.673447 
863.000000	 64.685678 
862.000000	 64.679384 
861.000000	 64.656925 
860.000000	 64.623427 
859.000000	 64.586067 
858.000000	 64.551949 
857.000000	 64.527034 
856.000000	 64.515113 
855.000000	 64.516997 
854.000000	 64.531087 
853.000000	 64.553523 
852.000000	 64.579439 
851.000000	 64.603734 
850.000000	 64.622116 
849.000000	 64.631915 
848.000000	 64.632296 
847.000000	 64.624381 
846.000000	 64.610624 
845.000000	 64.593839 
844.000000	 64.576578 
843.000000	 64.560818 
842.000000	 64.547848 
841.000000	 64.537930 
840.000000	 64.530754 
839.000000	 64.526128 
838.000000	 64.523887 
837.000000	 64.524221 
836.000000	 64.527463 
835.000000	 64.533782 
834.000000	 64.543008 
833.000000	 64.554476 
832.000000	 64.566445 
831.000000	 64.576697 
830.000000	 64.582180 
829.000000	 64.580154 
828.000000	 64.568185 
827.000000	 64.545202 
826.000000	 64.511299 
825.000000	 64.468359 
824.000000	 64.419698 
823.000000	 64.369845 
822.000000	 64.324259 
821.000000	 64.288473 
820.000000	 64.267253 
819.000000	 64.263677 
818.000000	 64.278507 
817.000000	 64.310097 
816.000000	 64.354372 
815.000000	 64.405632 
814.000000	 64.457416 
813.000000	 64.503812 
812.000000	 64.540481 
811.000000	 64.565110 
810.000000	 64.577317 
809.000000	 64.578294 
808.000000	 64.570522 
807.000000	 64.556503 
806.000000	 64.538645 
805.000000	 64.518332 
804.000000	 64.496612 
803.000000	 64.473462 
802.000000	 64.448833 
801.000000	 64.422464 
800.000000	 64.394402 
799.000000	 64.364790 
798.000000	 64.334011 
797.000000	 64.302682 
796.000000	 64.271616 
795.000000	 64.241909 
794.000000	 64.214825 
793.000000	 64.192128 
792.000000	 64.175844 
791.000000	 64.167737 
790.000000	 64.169120 
789.000000	 64.180183 
788.000000	 64.200139 
787.000000	 64.227867 
786.000000	 64.261651 
785.000000	 64.299225 
784.000000	 64.337944 
783.000000	 64.375209 
782.000000	 64.408421 
781.000000	 64.434552 
780.000000	 64.450931 
779.000000	 64.456081 
778.000000	 64.449596 
777.000000	 64.432764 
776.000000	 64.407801 
775.000000	 64.377331 
774.000000	 64.344644 
773.000000	 64.313340 
772.000000	 64.287042 
771.000000	 64.268875 
770.000000	 64.261651 
769.000000	 64.267420 
768.000000	 64.287137 
767.000000	 64.319801 
766.000000	 64.362335 
765.000000	 64.408993 
764.000000	 64.451885 
763.000000	 64.481806 
762.000000	 64.490032 
761.000000	 64.470052 
760.000000	 64.418983 
759.000000	 64.338350 
758.000000	 64.234185 
757.000000	 64.115524 
756.000000	 63.992285 
755.000000	 63.874125 
754.000000	 63.767910 
753.000000	 63.679385 
752.000000	 63.612794 
751.000000	 63.572287 
750.000000	 63.561630 
749.000000	 63.584232 
748.000000	 63.641786 
747.000000	 63.732624 
746.000000	 63.850283 
745.000000	 63.983106 
744.000000	 64.115047 
743.000000	 64.228367 
742.000000	 64.306783 
741.000000	 64.339423 
740.000000	 64.323306 
739.000000	 64.264249 
738.000000	 64.175605 
737.000000	 64.075636 
736.000000	 63.983011 
735.000000	 63.912940 
734.000000	 63.873934 
733.000000	 63.867473 
732.000000	 63.887953 
731.000000	 63.925766 
730.000000	 63.969230 
729.000000	 64.007520 
728.000000	 64.033126 
727.000000	 64.041996 
726.000000	 64.035296 
725.000000	 64.016819 
724.000000	 63.993382 
723.000000	 63.972330 
722.000000	 63.960123 
721.000000	 63.960695 
720.000000	 63.974833 
719.000000	 64.000773 
718.000000	 64.033627 
717.000000	 64.066982 
716.000000	 64.093446 
715.000000	 64.106082 
714.000000	 64.099431 
713.000000	 64.070391 
712.000000	 64.018440 
711.000000	 63.945698 
710.000000	 63.857173 
709.000000	 63.760185 
708.000000	 63.663125 
707.000000	 63.574481 
706.000000	 63.502192 
705.000000	 63.451981 
704.000000	 63.427424 
703.000000	 63.428592 
702.000000	 63.451933 
701.000000	 63.491201 
700.000000	 63.537883 
699.000000	 63.583827 
698.000000	 63.622188 
697.000000	 63.649082 
696.000000	 63.663268 
695.000000	 63.666534 
694.000000	 63.662290 
693.000000	 63.654470 
692.000000	 63.646197 
691.000000	 63.639545 
690.000000	 63.635110 
689.000000	 63.632678 
688.000000	 63.631677 
687.000000	 63.631200 
686.000000	 63.630390 
685.000000	 63.628220 
684.000000	 63.623714 
683.000000	 63.615393 
682.000000	 63.601660 
681.000000	 63.581228 
680.000000	 63.553643 
679.000000	 63.519644 
678.000000	 63.481402 
677.000000	 63.442659 
676.000000	 63.407659 
675.000000	 63.380146 
674.000000	 63.362216 
673.000000	 63.353753 
672.000000	 63.352417 
671.000000	 63.354587 
670.000000	 63.356018 
669.000000	 63.352870 
668.000000	 63.342618 
667.000000	 63.324785 
666.000000	 63.300776 
665.000000	 63.272857 
664.000000	 63.244700 
663.000000	 63.220405 
662.000000	 63.204002 
661.000000	 63.198590 
660.000000	 63.206124 
659.000000	 63.226866 
658.000000	 63.259649 
657.000000	 63.301825 
656.000000	 63.349747 
655.000000	 63.398933 
654.000000	 63.444685 
653.000000	 63.482332 
652.000000	 63.507986 
651.000000	 63.518238 
650.000000	 63.511133 
649.000000	 63.485336 
648.000000	 63.440799 
647.000000	 63.378429 
646.000000	 63.300919 
645.000000	 63.212180 
644.000000	 63.117814 
643.000000	 63.024020 
642.000000	 62.937474 
641.000000	 62.863588 
640.000000	 62.805557 
639.000000	 62.764024 
638.000000	 62.737035 
637.000000	 62.721157 
636.000000	 62.712287 
635.000000	 62.707829 
634.000000	 62.706971 
633.000000	 62.710785 
632.000000	 62.721395 
631.000000	 62.740349 
630.000000	 62.767601 
629.000000	 62.800359 
628.000000	 62.833309 
627.000000	 62.859416 
626.000000	 62.871861 
625.000000	 62.865972 
624.000000	 62.840819 
623.000000	 62.800097 
622.000000	 62.750625 
621.000000	 62.701249 
620.000000	 62.659788 
619.000000	 62.631559 
618.000000	 62.617659 
617.000000	 62.614560 
616.000000	 62.616252 
615.000000	 62.616086 
614.000000	 62.610507 
613.000000	 62.600159 
612.000000	 62.590956 
611.000000	 62.592315 
610.000000	 62.614130 
609.000000	 62.663078 
608.000000	 62.739777 
607.000000	 62.837457 
606.000000	 62.943267 
605.000000	 63.040852 
604.000000	 63.114190 
603.000000	 63.151264 
602.000000	 63.147068 
601.000000	 63.104748 
600.000000	 63.034176 
599.000000	 62.949967 
598.000000	 62.868022 
597.000000	 62.802386 
596.000000	 62.763309 
595.000000	 62.755227 
594.000000	 62.777948 
593.000000	 62.826061 
592.000000	 62.891840 
591.000000	 62.965083 
590.000000	 63.035202 
589.000000	 63.092446 
588.000000	 63.128471 
587.000000	 63.138437 
586.000000	 63.121199 
585.000000	 63.079905 
584.000000	 63.021183 
583.000000	 62.952876 
582.000000	 62.882518 
581.000000	 62.814879 
580.000000	 62.751436 
579.000000	 62.690448 
578.000000	 62.628602 
577.000000	 62.562584 
576.000000	 62.491393 
575.000000	 62.417507 
574.000000	 62.347435 
573.000000	 62.289261 
572.000000	 62.251448 
571.000000	 62.240934 
570.000000	 62.260699 
569.000000	 62.308239 
568.000000	 62.375760 
567.000000	 62.451553 
566.000000	 62.522482 
565.000000	 62.576651 
564.000000	 62.605643 
563.000000	 62.605834 
562.000000	 62.578988 
561.000000	 62.530899 
560.000000	 62.470626 
559.000000	 62.408232 
558.000000	 62.352824 
557.000000	 62.311172 
556.000000	 62.286400 
555.000000	 62.278318 
554.000000	 62.283778 
553.000000	 62.297868 
552.000000	 62.314772 
551.000000	 62.328743 
550.000000	 62.335371 
549.000000	 62.331438 
548.000000	 62.313628 
547.000000	 62.278938 
546.000000	 62.225198 
545.000000	 62.151956 
544.000000	 62.061262 
543.000000	 61.958098 
542.000000	 61.850547 
541.000000	 61.748218 
540.000000	 61.661100 
539.000000	 61.597132 
538.000000	 61.559629 
537.000000	 61.547565 
536.000000	 61.556100 
535.000000	 61.577773 
534.000000	 61.603665 
533.000000	 61.626410 
532.000000	 61.641263 
531.000000	 61.646628 
530.000000	 61.643266 
529.000000	 61.634111 
528.000000	 61.622619 
527.000000	 61.612725 
526.000000	 61.607837 
525.000000	 61.611533 
524.000000	 61.627006 
523.000000	 61.658072 
522.000000	 61.707615 
521.000000	 61.777067 
520.000000	 61.863899 
519.000000	 61.962103 
518.000000	 62.060546 
517.000000	 62.144446 
516.000000	 62.196850 
515.000000	 62.203907 
514.000000	 62.156200 
513.000000	 62.051534 
512.000000	 61.895203 
511.000000	 61.700916 
510.000000	 61.486959 
509.000000	 61.273741 
508.000000	 61.079382 
507.000000	 60.917639 
506.000000	 60.795044 
505.000000	 60.711193 
504.000000	 60.660314 
503.000000	 60.633492 
502.000000	 60.622406 
501.000000	 60.621356 
500.000000	 60.627388 
499.000000	 60.639619 
498.000000	 60.658383 
497.000000	 60.684537 
496.000000	 60.716485 
495.000000	 60.751509 
494.000000	 60.787057 
493.000000	 60.822844 
492.000000	 60.861182 
491.000000	 60.907483 
490.000000	 60.970044 
489.000000	 61.055922 
488.000000	 61.169147 
487.000000	 61.306357 
486.000000	 61.455535 
485.000000	 61.597943 
484.000000	 61.711955 
483.000000	 61.779022 
482.000000	 61.789441 
481.000000	 61.744809 
480.000000	 61.660170 
479.000000	 61.556553 
478.000000	 61.456179 
477.000000	 61.374759 
476.000000	 61.318278 
475.000000	 61.280417 
474.000000	 61.245465 
473.000000	 61.194562 
472.000000	 61.112427 
471.000000	 60.990905 
470.000000	 60.832285 
469.000000	 60.646867 
468.000000	 60.451078 
467.000000	 60.262513 
466.000000	 60.097503 
465.000000	 59.965372 
464.000000	 59.870672 
463.000000	 59.814286 
462.000000	 59.795832 
461.000000	 59.814786 
460.000000	 59.870624 
459.000000	 59.962439 
458.000000	 60.086226 
457.000000	 60.231065 
456.000000	 60.381245 
455.000000	 60.517573 
454.000000	 60.621166 
453.000000	 60.675072 
452.000000	 60.671734 
451.000000	 60.615921 
450.000000	 60.523247 
449.000000	 60.416793 
448.000000	 60.322165 
447.000000	 60.261201 
446.000000	 60.247564 
445.000000	 60.283493 
444.000000	 60.356116 
443.000000	 60.440540 
442.000000	 60.506701 
441.000000	 60.527062 
440.000000	 60.482335 
439.000000	 60.367298 
438.000000	 60.192155 
437.000000	 59.980154 
436.000000	 59.760999 
435.000000	 59.563732 
434.000000	 59.411168 
433.000000	 59.311985 
432.000000	 59.266257 
431.000000	 59.256935 
430.000000	 59.256100 
429.000000	 59.227728 
428.000000	 59.138441 
427.000000	 58.962321 
426.000000	 58.687853 
425.000000	 58.320546 
424.000000	 57.877635 
423.000000	 57.396507 
422.000000	 56.925559 
421.000000	 56.526207 
420.000000	 56.261539 
419.000000	 56.181025 
418.000000	 56.307840 
417.000000	 56.631660 
416.000000	 57.110834 
415.000000	 57.666397 
414.000000	 58.203339 
413.000000	 58.652734 
412.000000	 58.977723 
411.000000	 59.173393 
410.000000	 59.254932 
409.000000	 59.255099 
408.000000	 59.191656 
407.000000	 59.062862 
406.000000	 58.835506 
405.000000	 58.437585 
404.000000	 57.810401 
403.000000	 56.920576 
402.000000	 55.818104 
401.000000	 54.662108 
400.000000	 53.672742 
399.000000	 53.080773 
398.000000	 53.059005 
397.000000	 53.677344 
396.000000	 54.848170 
395.000000	 56.327152 
394.000000	 57.793641 
393.000000	 58.920264 
392.000000	 59.475898 
391.000000	 59.376406 
390.000000	 58.595895 
389.000000	 57.147812 
388.000000	 55.050468 
387.000000	 52.324914 
386.000000	 48.991632 
385.000000	 45.130562 
384.000000	 40.894198 
383.000000	 36.569571 
382.000000	 32.593512 
381.000000	 29.466986 
380.000000	 27.743315 
379.000000	 27.770590 
378.000000	 29.547715 
377.000000	 32.658386 
376.000000	 36.362433 
375.000000	 39.683389 
374.000000	 41.588664 
373.000000	 41.268110 
372.000000	 38.412880 
371.000000	 33.148765 
370.000000	 25.919723 

