PE IR       SPECTRUM    SPECTRUM    ASCII       PEDS        1.60        
  -1
C-1BE4~1.ASC
17/03/27
17:01:45.00
17/03/27
17:01:45.00
tln
$C-4040-8_t0031$<tbV0>[-7.8,-7.8,8.0,0.0,27,1,0]
370.000000
64









2002,4.07    
MIRTGS : RIGHTBACK : INTERNAL 2
MIR : ON : INTERNAL 2
OPTKBR

0.200000
8
8.000000
FILLER
RATIO
SPECTRUM
UNLOCKED 256

DOUBLE
64
COMBINED
1
0
0


1.000000
RATIO


1
0
TRUE
51149
0
LEFT NOT FITTED RIGHT NOT FITTED 0
NONE
NONE
15600
12.000000
4.427000
51148
TRUE
1 0 8 72 0 0 0 0 

15798.010000






#HDR
-1
-1
#GR
CM-1
%T
0.00002384185791015625
0.0
5000.000000
-1.000000
4631
8
77.216744
15.118932
#DATA
5000.000000	63.716912 
4999.000000	63.753986 
4998.000000	63.819479 
4997.000000	63.902950 
4996.000000	63.992810 
4995.000000	64.078378 
4994.000000	64.150905 
4993.000000	64.204621 
4992.000000	64.235949 
4991.000000	64.243030 
4990.000000	64.224648 
4989.000000	64.180183 
4988.000000	64.109253 
4987.000000	64.013099 
4986.000000	63.894748 
4985.000000	63.760042 
4984.000000	63.617610 
4983.000000	63.478469 
4982.000000	63.354635 
4981.000000	63.257789 
4980.000000	63.196825 
4979.000000	63.176512 
4978.000000	63.196086 
4977.000000	63.249516 
4976.000000	63.326048 
4975.000000	63.412523 
4974.000000	63.494968 
4973.000000	63.561964 
4972.000000	63.605022 
4971.000000	63.621377 
4970.000000	63.612985 
4969.000000	63.586616 
4968.000000	63.551139 
4967.000000	63.516449 
4966.000000	63.491225 
4965.000000	63.481426 
4964.000000	63.490152 
4963.000000	63.516974 
4962.000000	63.559031 
4961.000000	63.612127 
4960.000000	63.672208 
4959.000000	63.735628 
4958.000000	63.799738 
4957.000000	63.862204 
4956.000000	63.920688 
4955.000000	63.972401 
4954.000000	64.014005 
4953.000000	64.041852 
4952.000000	64.052724 
4951.000000	64.045405 
4950.000000	64.021110 
4949.000000	63.983607 
4948.000000	63.938927 
4947.000000	63.895034 
4946.000000	63.860011 
4945.000000	63.840913 
4944.000000	63.842153 
4943.000000	63.864850 
4942.000000	63.906240 
4941.000000	63.960719 
4940.000000	64.020276 
4939.000000	64.076280 
4938.000000	64.120745 
4937.000000	64.147758 
4936.000000	64.154481 
4935.000000	64.141225 
4934.000000	64.111018 
4933.000000	64.068675 
4932.000000	64.019584 
4931.000000	63.969039 
4930.000000	63.920378 
4929.000000	63.875007 
4928.000000	63.832330 
4927.000000	63.790750 
4926.000000	63.749122 
4925.000000	63.707685 
4924.000000	63.667988 
4923.000000	63.633179 
4922.000000	63.607144 
4921.000000	63.593935 
4920.000000	63.595652 
4919.000000	63.613009 
4918.000000	63.644504 
4917.000000	63.687181 
4916.000000	63.737297 
4915.000000	63.790798 
4914.000000	63.843727 
4913.000000	63.892674 
4912.000000	63.934588 
4911.000000	63.967585 
4910.000000	63.990449 
4909.000000	64.003872 
4908.000000	64.009618 
4907.000000	64.012026 
4906.000000	64.017128 
4905.000000	64.031457 
4904.000000	64.060711 
4903.000000	64.107036 
4902.000000	64.167857 
4901.000000	64.235615 
4900.000000	64.298868 
4899.000000	64.344501 
4898.000000	64.361000 
4897.000000	64.342045 
4896.000000	64.288496 
4895.000000	64.208221 
4894.000000	64.114356 
4893.000000	64.022588 
4892.000000	63.947129 
4891.000000	63.898134 
4890.000000	63.879299 
4889.000000	63.887643 
4888.000000	63.914585 
4887.000000	63.949251 
4886.000000	63.980865 
4885.000000	64.001417 
4884.000000	64.007163 
4883.000000	63.998579 
4882.000000	63.979697 
4881.000000	63.955259 
4880.000000	63.930439 
4879.000000	63.908720 
4878.000000	63.892221 
4877.000000	63.881611 
4876.000000	63.877320 
4875.000000	63.880252 
4874.000000	63.892507 
4873.000000	63.916707 
4872.000000	63.955879 
4871.000000	64.011621 
4870.000000	64.082884 
4869.000000	64.164543 
4868.000000	64.247441 
4867.000000	64.319157 
4866.000000	64.366316 
4865.000000	64.377641 
4864.000000	64.346671 
4863.000000	64.274072 
4862.000000	64.168214 
4861.000000	64.043807 
4860.000000	63.918781 
4859.000000	63.810944 
4858.000000	63.734650 
4857.000000	63.698267 
4856.000000	63.702940 
4855.000000	63.743209 
4854.000000	63.808870 
4853.000000	63.887429 
4852.000000	63.966941 
4851.000000	64.037656 
4850.000000	64.092969 
4849.000000	64.129757 
4848.000000	64.147591 
4847.000000	64.147996 
4846.000000	64.133548 
4845.000000	64.107823 
4844.000000	64.074730 
4843.000000	64.039206 
4842.000000	64.006090 
4841.000000	63.980150 
4840.000000	63.964676 
4839.000000	63.961052 
4838.000000	63.968205 
4837.000000	63.983297 
4836.000000	64.001822 
4835.000000	64.018535 
4834.000000	64.028906 
4833.000000	64.029860 
4832.000000	64.020824 
4831.000000	64.003205 
4830.000000	63.980555 
4829.000000	63.957285 
4828.000000	63.937926 
4827.000000	63.926172 
4826.000000	63.923382 
4825.000000	63.928294 
4824.000000	63.937330 
4823.000000	63.945794 
4822.000000	63.949060 
4821.000000	63.944101 
4820.000000	63.930153 
4819.000000	63.909149 
4818.000000	63.885641 
4817.000000	63.865566 
4816.000000	63.854742 
4815.000000	63.856935 
4814.000000	63.872671 
4813.000000	63.898897 
4812.000000	63.929748 
4811.000000	63.957691 
4810.000000	63.975811 
4809.000000	63.979125 
4808.000000	63.966178 
4807.000000	63.938784 
4806.000000	63.901138 
4805.000000	63.858866 
4804.000000	63.817262 
4803.000000	63.780879 
4802.000000	63.752698 
4801.000000	63.734316 
4800.000000	63.726472 
4799.000000	63.729023 
4798.000000	63.741374 
4797.000000	63.762283 
4796.000000	63.790154 
4795.000000	63.822412 
4794.000000	63.855671 
4793.000000	63.886141 
4792.000000	63.910365 
4791.000000	63.926053 
4790.000000	63.932561 
4789.000000	63.931155 
4788.000000	63.924241 
4787.000000	63.914537 
4786.000000	63.904404 
4785.000000	63.894939 
4784.000000	63.886475 
4783.000000	63.878703 
4782.000000	63.871574 
4781.000000	63.865947 
4780.000000	63.863682 
4779.000000	63.867235 
4778.000000	63.879132 
4777.000000	63.900446 
4776.000000	63.930988 
4775.000000	63.968753 
4774.000000	64.010906 
4773.000000	64.054107 
4772.000000	64.095640 
4771.000000	64.133930 
4770.000000	64.168429 
4769.000000	64.199352 
4768.000000	64.226341 
4767.000000	64.248204 
4766.000000	64.262032 
4765.000000	64.264035 
4764.000000	64.251089 
4763.000000	64.221835 
4762.000000	64.177846 
4761.000000	64.123725 
4760.000000	64.066886 
4759.000000	64.015555 
4758.000000	63.976836 
4757.000000	63.955020 
4756.000000	63.950157 
4755.000000	63.958835 
4754.000000	63.974738 
4753.000000	63.991189 
4752.000000	64.002442 
4751.000000	64.005565 
4750.000000	64.000749 
4749.000000	63.991022 
4748.000000	63.980579 
4747.000000	63.973522 
4746.000000	63.972091 
4745.000000	63.976550 
4744.000000	63.985419 
4743.000000	63.996028 
4742.000000	64.005303 
4741.000000	64.010596 
4740.000000	64.010334 
4739.000000	64.003276 
4738.000000	63.988614 
4737.000000	63.965487 
4736.000000	63.933420 
4735.000000	63.892245 
4734.000000	63.843011 
4733.000000	63.788533 
4732.000000	63.733530 
4731.000000	63.684463 
4730.000000	63.648366 
4729.000000	63.631272 
4728.000000	63.637328 
4727.000000	63.667130 
4726.000000	63.718175 
4725.000000	63.784551 
4724.000000	63.858270 
4723.000000	63.931226 
4722.000000	63.996005 
4721.000000	64.047145 
4720.000000	64.081239 
4719.000000	64.096903 
4718.000000	64.094114 
4717.000000	64.073920 
4716.000000	64.038228 
4715.000000	63.989615 
4714.000000	63.931822 
4713.000000	63.869643 
4712.000000	63.808894 
4711.000000	63.755726 
4710.000000	63.715529 
4709.000000	63.691711 
4708.000000	63.684701 
4707.000000	63.692021 
4706.000000	63.708019 
4705.000000	63.726115 
4704.000000	63.739800 
4703.000000	63.745427 
4702.000000	63.742423 
4701.000000	63.734245 
4700.000000	63.726949 
4699.000000	63.727545 
4698.000000	63.741397 
4697.000000	63.770890 
4696.000000	63.814449 
4695.000000	63.866615 
4694.000000	63.919496 
4693.000000	63.964557 
4692.000000	63.995361 
4691.000000	64.007782 
4690.000000	64.001154 
4689.000000	63.977408 
4688.000000	63.940572 
4687.000000	63.895225 
4686.000000	63.845777 
4685.000000	63.796138 
4684.000000	63.749694 
4683.000000	63.709902 
4682.000000	63.680219 
4681.000000	63.663959 
4680.000000	63.663530 
4679.000000	63.679671 
4678.000000	63.710880 
4677.000000	63.752150 
4676.000000	63.797044 
4675.000000	63.838171 
4674.000000	63.870072 
4673.000000	63.889312 
4672.000000	63.896942 
4671.000000	63.897442 
4670.000000	63.898682 
4669.000000	63.908743 
4668.000000	63.935184 
4667.000000	63.982391 
4666.000000	64.051175 
4665.000000	64.138650 
4664.000000	64.238834 
4663.000000	64.344263 
4662.000000	64.446949 
4661.000000	64.539766 
4660.000000	64.616131 
4659.000000	64.670825 
4658.000000	64.699292 
4657.000000	64.698004 
4656.000000	64.665031 
4655.000000	64.600253 
4654.000000	64.506936 
4653.000000	64.390921 
4652.000000	64.260435 
4651.000000	64.124774 
4650.000000	63.993406 
4649.000000	63.874721 
4648.000000	63.774967 
4647.000000	63.698077 
4646.000000	63.645124 
4645.000000	63.615536 
4644.000000	63.607072 
4643.000000	63.617253 
4642.000000	63.642716 
4641.000000	63.680648 
4640.000000	63.728332 
4639.000000	63.783168 
4638.000000	63.841843 
4637.000000	63.900780 
4636.000000	63.956022 
4635.000000	64.003229 
4634.000000	64.038228 
4633.000000	64.057278 
4632.000000	64.058041 
4631.000000	64.039707 
4630.000000	64.003658 
4629.000000	63.954067 
4628.000000	63.897395 
4627.000000	63.841629 
4626.000000	63.794612 
4625.000000	63.762617 
4624.000000	63.748955 
4623.000000	63.753533 
4622.000000	63.773298 
4621.000000	63.803124 
4620.000000	63.837575 
4619.000000	63.872623 
4618.000000	63.906121 
4617.000000	63.937616 
4616.000000	63.967728 
4615.000000	63.997507 
4614.000000	64.026951 
4613.000000	64.054274 
4612.000000	64.076375 
4611.000000	64.089298 
4610.000000	64.090085 
4609.000000	64.077901 
4608.000000	64.054703 
4607.000000	64.025068 
4606.000000	63.995075 
4605.000000	63.970923 
4604.000000	63.956928 
4603.000000	63.954472 
4602.000000	63.962197 
4601.000000	63.976263 
4600.000000	63.991832 
4599.000000	64.004111 
4598.000000	64.009261 
4597.000000	64.005279 
4596.000000	63.991856 
4595.000000	63.970470 
4594.000000	63.943433 
4593.000000	63.913941 
4592.000000	63.885307 
4591.000000	63.860440 
4590.000000	63.841772 
4589.000000	63.830471 
4588.000000	63.826608 
4587.000000	63.828587 
4586.000000	63.833951 
4585.000000	63.839364 
4584.000000	63.841056 
4583.000000	63.836359 
4582.000000	63.824176 
4581.000000	63.805532 
4580.000000	63.783335 
4579.000000	63.761377 
4578.000000	63.743376 
4577.000000	63.731741 
4576.000000	63.727140 
4575.000000	63.728237 
4574.000000	63.732147 
4573.000000	63.735842 
4572.000000	63.736867 
4571.000000	63.734221 
4570.000000	63.728475 
4569.000000	63.721537 
4568.000000	63.715958 
4567.000000	63.714551 
4566.000000	63.719153 
4565.000000	63.730025 
4564.000000	63.745403 
4563.000000	63.762354 
4562.000000	63.777065 
4561.000000	63.785791 
4560.000000	63.785672 
4559.000000	63.775277 
4558.000000	63.755106 
4557.000000	63.727426 
4556.000000	63.696360 
4555.000000	63.667130 
4554.000000	63.645458 
4553.000000	63.636565 
4552.000000	63.643932 
4551.000000	63.668274 
4550.000000	63.707923 
4549.000000	63.758802 
4548.000000	63.815379 
4547.000000	63.871383 
4546.000000	63.921141 
4545.000000	63.959503 
4544.000000	63.982343 
4543.000000	63.986372 
4542.000000	63.969254 
4541.000000	63.930201 
4540.000000	63.870239 
4539.000000	63.792634 
4538.000000	63.703107 
4537.000000	63.609027 
4536.000000	63.518977 
4535.000000	63.440656 
4534.000000	63.379573 
4533.000000	63.338184 
4532.000000	63.315176 
4531.000000	63.307023 
4530.000000	63.308072 
4529.000000	63.314247 
4528.000000	63.323616 
4527.000000	63.337969 
4526.000000	63.361573 
4525.000000	63.399457 
4524.000000	63.455128 
4523.000000	63.528347 
4522.000000	63.614249 
4521.000000	63.704061 
4520.000000	63.786697 
4519.000000	63.851785 
4518.000000	63.891959 
4517.000000	63.904881 
4516.000000	63.893127 
4515.000000	63.863563 
4514.000000	63.824796 
4513.000000	63.785052 
4512.000000	63.749623 
4511.000000	63.720536 
4510.000000	63.695883 
4509.000000	63.671803 
4508.000000	63.643503 
4507.000000	63.608312 
4506.000000	63.565993 
4505.000000	63.519024 
4504.000000	63.472604 
4503.000000	63.432383 
4502.000000	63.404631 
4501.000000	63.394212 
4500.000000	63.403940 
4499.000000	63.433527 
4498.000000	63.479971 
4497.000000	63.537836 
4496.000000	63.599729 
4495.000000	63.657689 
4494.000000	63.704609 
4493.000000	63.735795 
4492.000000	63.749432 
4491.000000	63.746929 
4490.000000	63.732266 
4489.000000	63.711094 
4488.000000	63.689589 
4487.000000	63.673019 
4486.000000	63.665413 
4485.000000	63.668203 
4484.000000	63.681316 
4483.000000	63.702344 
4482.000000	63.728451 
4481.000000	63.755178 
4480.000000	63.778424 
4479.000000	63.793063 
4478.000000	63.793802 
4477.000000	63.775420 
4476.000000	63.733649 
4475.000000	63.666605 
4474.000000	63.575553 
4473.000000	63.465714 
4472.000000	63.346195 
4471.000000	63.228106 
4470.000000	63.122701 
4469.000000	63.039350 
4468.000000	62.984132 
4467.000000	62.959051 
4466.000000	62.962436 
4465.000000	62.989711 
4464.000000	63.035130 
4463.000000	63.092994 
4462.000000	63.158416 
4461.000000	63.227105 
4460.000000	63.295078 
4459.000000	63.358354 
4458.000000	63.412261 
4457.000000	63.451337 
4456.000000	63.470101 
4455.000000	63.464283 
4454.000000	63.432073 
4453.000000	63.375520 
4452.000000	63.300466 
4451.000000	63.216161 
4450.000000	63.133573 
4449.000000	63.063621 
4448.000000	63.015007 
4447.000000	62.992835 
4446.000000	62.998008 
4445.000000	63.027334 
4444.000000	63.075065 
4443.000000	63.134455 
4442.000000	63.199424 
4441.000000	63.265419 
4440.000000	63.330078 
4439.000000	63.392448 
4438.000000	63.452219 
4437.000000	63.508439 
4436.000000	63.558673 
4435.000000	63.598585 
4434.000000	63.623189 
4433.000000	63.627457 
4432.000000	63.608169 
4431.000000	63.564777 
4430.000000	63.500952 
4429.000000	63.423562 
4428.000000	63.342380 
4427.000000	63.267636 
4426.000000	63.209009 
4425.000000	63.172554 
4424.000000	63.160133 
4423.000000	63.168430 
4422.000000	63.190412 
4421.000000	63.216757 
4420.000000	63.238286 
4419.000000	63.247942 
4418.000000	63.242483 
4417.000000	63.221001 
4416.000000	63.184547 
4415.000000	63.135075 
4414.000000	63.074684 
4413.000000	63.007259 
4412.000000	62.937808 
4411.000000	62.870669 
4410.000000	62.809896 
4409.000000	62.758755 
4408.000000	62.720274 
4407.000000	62.697553 
4406.000000	62.693619 
4405.000000	62.709164 
4404.000000	62.744331 
4403.000000	62.797069 
4402.000000	62.865042 
4401.000000	62.948536 
4400.000000	63.045835 
4399.000000	63.151121 
4398.000000	63.255000 
4397.000000	63.345980 
4396.000000	63.411879 
4395.000000	63.435316 
4394.000000	63.415503 
4393.000000	63.373160 
4392.000000	63.340258 
4391.000000	63.353753 
4390.000000	63.430523 
4389.000000	63.558292 
4388.000000	63.698887 
4387.000000	63.799214 
4386.000000	63.795208 
4385.000000	63.637518 
4384.000000	63.322591 
4383.000000	62.897562 
4382.000000	62.450861 
4381.000000	62.088966 
4380.000000	61.914587 
4379.000000	61.988544 
4378.000000	62.306857 
4377.000000	62.797474 
4376.000000	63.341188 
4375.000000	63.793015 
4374.000000	64.043259 
4373.000000	64.004468 
4372.000000	63.655066 
4371.000000	62.988185 
4370.000000	62.003874 
4369.000000	60.697507 
4368.000000	59.043049 
4367.000000	57.062530 
4366.000000	54.839396 
4365.000000	52.568984 
4364.000000	50.541305 
4363.000000	49.116563 
4362.000000	48.650693 
4361.000000	49.403357 
4360.000000	51.464033 
4359.000000	54.713964 
4358.000000	58.836030 
4357.000000	63.365483 
4356.000000	67.783451 
4355.000000	71.621322 
4354.000000	74.542427 
4353.000000	76.397514 
4352.000000	77.216744 
4351.000000	77.169156 
4350.000000	76.491332 
4349.000000	75.431418 
4348.000000	74.178457 
4347.000000	72.867131 
4346.000000	71.547055 
4345.000000	70.263242 
4344.000000	69.022917 
4343.000000	67.858862 
4342.000000	66.800761 
4341.000000	65.888953 
4340.000000	65.152430 
4339.000000	64.595794 
4338.000000	64.200973 
4337.000000	63.923907 
4336.000000	63.714170 
4335.000000	63.524794 
4334.000000	63.331484 
4333.000000	63.136696 
4332.000000	62.961864 
4331.000000	62.839627 
4330.000000	62.792396 
4329.000000	62.827873 
4328.000000	62.938451 
4327.000000	63.103365 
4326.000000	63.289046 
4325.000000	63.460350 
4324.000000	63.602590 
4323.000000	63.711953 
4322.000000	63.781857 
4321.000000	63.811469 
4320.000000	63.805174 
4319.000000	63.769245 
4318.000000	63.712906 
4317.000000	63.643431 
4316.000000	63.563585 
4315.000000	63.475894 
4314.000000	63.388395 
4313.000000	63.307380 
4312.000000	63.236212 
4311.000000	63.178467 
4310.000000	63.138794 
4309.000000	63.117265 
4308.000000	63.109350 
4307.000000	63.110208 
4306.000000	63.115811 
4305.000000	63.122391 
4304.000000	63.127422 
4303.000000	63.129949 
4302.000000	63.130688 
4301.000000	63.130378 
4300.000000	63.130235 
4299.000000	63.130831 
4298.000000	63.132786 
4297.000000	63.136792 
4296.000000	63.144135 
4295.000000	63.156414 
4294.000000	63.175272 
4293.000000	63.202786 
4292.000000	63.239598 
4291.000000	63.284182 
4290.000000	63.332676 
4289.000000	63.379454 
4288.000000	63.418388 
4287.000000	63.444352 
4286.000000	63.454937 
4285.000000	63.451147 
4284.000000	63.437676 
4283.000000	63.421988 
4282.000000	63.411855 
4281.000000	63.413310 
4280.000000	63.429093 
4279.000000	63.457608 
4278.000000	63.493108 
4277.000000	63.526821 
4276.000000	63.549566 
4275.000000	63.553595 
4274.000000	63.534045 
4273.000000	63.490080 
4272.000000	63.424205 
4271.000000	63.342380 
4270.000000	63.252449 
4269.000000	63.163447 
4268.000000	63.083815 
4267.000000	63.020849 
4266.000000	62.979769 
4265.000000	62.963390 
4264.000000	62.971711 
4263.000000	63.001728 
4262.000000	63.047838 
4261.000000	63.102293 
4260.000000	63.155913 
4259.000000	63.199901 
4258.000000	63.227009 
4257.000000	63.233304 
4256.000000	63.218402 
4255.000000	63.186526 
4254.000000	63.145160 
4253.000000	63.103914 
4252.000000	63.072109 
4251.000000	63.056755 
4250.000000	63.060688 
4249.000000	63.082289 
4248.000000	63.115596 
4247.000000	63.151741 
4246.000000	63.181328 
4245.000000	63.196253 
4244.000000	63.192081 
4243.000000	63.168478 
4242.000000	63.129901 
4241.000000	63.083505 
4240.000000	63.038277 
4239.000000	63.002371 
4238.000000	62.981891 
4237.000000	62.979888 
4236.000000	62.995648 
4235.000000	63.025474 
4234.000000	63.063478 
4233.000000	63.103294 
4232.000000	63.139224 
4231.000000	63.167405 
4230.000000	63.185882 
4229.000000	63.194513 
4228.000000	63.194823 
4227.000000	63.189458 
4226.000000	63.181424 
4225.000000	63.173222 
4224.000000	63.166737 
4223.000000	63.162660 
4222.000000	63.161063 
4221.000000	63.161110 
4220.000000	63.161230 
4219.000000	63.159394 
4218.000000	63.153409 
4217.000000	63.141179 
4216.000000	63.121366 
4215.000000	63.093543 
4214.000000	63.058137 
4213.000000	63.016748 
4212.000000	62.972307 
4211.000000	62.928223 
4210.000000	62.888383 
4209.000000	62.855291 
4208.000000	62.829661 
4207.000000	62.809944 
4206.000000	62.793111 
4205.000000	62.774944 
4204.000000	62.751173 
4203.000000	62.719035 
4202.000000	62.678050 
4201.000000	62.631106 
4200.000000	62.583756 
4199.000000	62.543582 
4198.000000	62.518072 
4197.000000	62.512946 
4196.000000	62.530303 
4195.000000	62.568521 
4194.000000	62.621617 
4193.000000	62.679743 
4192.000000	62.731075 
4191.000000	62.764000 
4190.000000	62.769818 
4189.000000	62.743854 
4188.000000	62.687659 
4187.000000	62.607789 
4186.000000	62.516093 
4185.000000	62.426829 
4184.000000	62.355065 
4183.000000	62.313628 
4182.000000	62.310981 
4181.000000	62.350034 
4180.000000	62.426924 
4179.000000	62.532544 
4178.000000	62.652587 
4177.000000	62.770271 
4176.000000	62.869358 
4175.000000	62.936997 
4174.000000	62.967395 
4173.000000	62.962698 
4172.000000	62.933301 
4171.000000	62.895226 
4170.000000	62.867069 
4169.000000	62.865138 
4168.000000	62.900352 
4167.000000	62.974810 
4166.000000	63.081812 
4165.000000	63.206648 
4164.000000	63.331079 
4163.000000	63.436579 
4162.000000	63.508677 
4161.000000	63.539624 
4160.000000	63.528943 
4159.000000	63.483691 
4158.000000	63.415431 
4157.000000	63.338351 
4156.000000	63.265800 
4155.000000	63.208651 
4154.000000	63.174080 
4153.000000	63.164639 
4152.000000	63.180112 
4151.000000	63.216137 
4150.000000	63.266229 
4149.000000	63.321471 
4148.000000	63.372254 
4147.000000	63.409352 
4146.000000	63.425731 
4145.000000	63.417458 
4144.000000	63.384628 
4143.000000	63.332438 
4142.000000	63.270139 
4141.000000	63.209486 
4140.000000	63.161897 
4139.000000	63.136172 
4138.000000	63.136219 
4137.000000	63.160395 
4136.000000	63.201665 
4135.000000	63.249874 
4134.000000	63.293933 
4133.000000	63.324308 
4132.000000	63.335490 
4131.000000	63.326549 
4130.000000	63.301134 
4129.000000	63.265132 
4128.000000	63.225817 
4127.000000	63.189673 
4126.000000	63.161253 
4125.000000	63.142681 
4124.000000	63.133406 
4123.000000	63.131237 
4122.000000	63.133049 
4121.000000	63.136219 
4120.000000	63.138985 
4119.000000	63.140940 
4118.000000	63.142633 
4117.000000	63.145136 
4116.000000	63.149642 
4115.000000	63.157033 
4114.000000	63.167500 
4113.000000	63.180518 
4112.000000	63.194990 
4111.000000	63.209486 
4110.000000	63.222694 
4109.000000	63.233566 
4108.000000	63.241624 
4107.000000	63.246917 
4106.000000	63.250136 
4105.000000	63.252162 
4104.000000	63.253664 
4103.000000	63.254785 
4102.000000	63.255357 
4101.000000	63.254642 
4100.000000	63.251733 
4099.000000	63.245701 
4098.000000	63.236093 
4097.000000	63.222527 
4096.000000	63.204979 
4095.000000	63.183498 
4094.000000	63.158583 
4093.000000	63.131141 
4092.000000	63.102602 
4091.000000	63.074946 
4090.000000	63.050317 
4089.000000	63.030982 
4088.000000	63.018655 
4087.000000	63.013887 
4086.000000	63.016080 
4085.000000	63.023233 
4084.000000	63.032674 
4083.000000	63.041257 
4082.000000	63.046741 
4081.000000	63.048315 
4080.000000	63.047099 
4079.000000	63.045716 
4078.000000	63.047885 
4077.000000	63.057065 
4076.000000	63.075470 
4075.000000	63.103342 
4074.000000	63.138437 
4073.000000	63.176417 
4072.000000	63.211512 
4071.000000	63.238167 
4070.000000	63.251614 
4069.000000	63.248968 
4068.000000	63.229608 
4067.000000	63.195228 
4066.000000	63.149428 
4065.000000	63.096952 
4064.000000	63.043117 
4063.000000	62.992906 
4062.000000	62.950181 
4061.000000	62.917447 
4060.000000	62.895798 
4059.000000	62.884998 
4058.000000	62.883305 
4057.000000	62.888407 
4056.000000	62.897419 
4055.000000	62.908077 
4054.000000	62.918472 
4053.000000	62.928223 
4052.000000	62.937641 
4051.000000	62.948083 
4050.000000	62.961101 
4049.000000	62.978148 
4048.000000	62.999868 
4047.000000	63.025617 
4046.000000	63.053750 
4045.000000	63.081216 
4044.000000	63.104844 
4043.000000	63.121151 
4042.000000	63.127613 
4041.000000	63.122749 
4040.000000	63.106322 
4039.000000	63.080048 
4038.000000	63.047194 
4037.000000	63.012146 
4036.000000	62.979578 
4035.000000	62.954092 
4034.000000	62.939167 
4033.000000	62.936830 
4032.000000	62.947297 
4031.000000	62.968516 
4030.000000	62.996840 
4029.000000	63.027644 
4028.000000	63.056445 
4027.000000	63.079214 
4026.000000	63.094091 
4025.000000	63.100886 
4024.000000	63.101792 
4023.000000	63.100385 
4022.000000	63.101100 
4021.000000	63.107919 
4020.000000	63.123273 
4019.000000	63.147664 
4018.000000	63.178777 
4017.000000	63.212442 
4016.000000	63.242578 
4015.000000	63.262891 
4014.000000	63.267660 
4013.000000	63.253116 
4012.000000	63.218045 
4011.000000	63.164138 
4010.000000	63.095903 
4009.000000	63.019919 
4008.000000	62.943935 
4007.000000	62.875723 
4006.000000	62.821936 
4005.000000	62.787318 
4004.000000	62.773847 
4003.000000	62.780761 
4002.000000	62.804841 
4001.000000	62.841296 
4000.000000	62.884473 
3999.000000	62.929034 
3998.000000	62.970280 
3997.000000	63.004899 
3996.000000	63.030862 
3995.000000	63.047575 
3994.000000	63.054919 
3993.000000	63.053655 
3992.000000	63.044953 
3991.000000	63.030576 
3990.000000	63.012647 
3989.000000	62.993741 
3988.000000	62.976884 
3987.000000	62.965011 
3986.000000	62.960600 
3985.000000	62.965154 
3984.000000	62.979006 
3983.000000	63.000798 
3982.000000	63.027858 
3981.000000	63.056540 
3980.000000	63.083052 
3979.000000	63.104033 
3978.000000	63.117384 
3977.000000	63.122320 
3976.000000	63.119363 
3975.000000	63.110256 
3974.000000	63.097548 
3973.000000	63.083624 
3972.000000	63.070321 
3971.000000	63.059043 
3970.000000	63.049983 
3969.000000	63.043093 
3968.000000	63.037586 
3967.000000	63.032579 
3966.000000	63.027191 
3965.000000	63.020920 
3964.000000	63.013410 
3963.000000	63.004279 
3962.000000	62.993502 
3961.000000	62.981033 
3960.000000	62.967061 
3959.000000	62.951922 
3958.000000	62.936186 
3957.000000	62.920594 
3956.000000	62.906050 
3955.000000	62.893533 
3954.000000	62.883973 
3953.000000	62.878108 
3952.000000	62.876319 
3951.000000	62.878441 
3950.000000	62.883973 
3949.000000	62.891912 
3948.000000	62.900686 
3947.000000	62.908673 
3946.000000	62.914490 
3945.000000	62.917137 
3944.000000	62.916159 
3943.000000	62.911701 
3942.000000	62.904429 
3941.000000	62.895464 
3940.000000	62.886166 
3939.000000	62.877631 
3938.000000	62.870693 
3937.000000	62.865495 
3936.000000	62.861824 
3935.000000	62.858915 
3934.000000	62.855410 
3933.000000	62.850141 
3932.000000	62.842249 
3931.000000	62.831616 
3930.000000	62.818980 
3929.000000	62.806057 
3928.000000	62.794971 
3927.000000	62.787938 
3926.000000	62.786245 
3925.000000	62.790179 
3924.000000	62.798476 
3923.000000	62.808418 
3922.000000	62.816095 
3921.000000	62.817454 
3920.000000	62.809085 
3919.000000	62.788939 
3918.000000	62.757015 
3917.000000	62.715268 
3916.000000	62.667632 
3915.000000	62.618970 
3914.000000	62.574648 
3913.000000	62.539148 
3912.000000	62.516093 
3911.000000	62.507367 
3910.000000	62.513303 
3909.000000	62.532734 
3908.000000	62.563252 
3907.000000	62.601613 
3906.000000	62.644004 
3905.000000	62.686419 
3904.000000	62.725496 
3903.000000	62.758445 
3902.000000	62.783694 
3901.000000	62.800741 
3900.000000	62.810158 
3899.000000	62.813282 
3898.000000	62.812042 
3897.000000	62.808418 
3896.000000	62.804245 
3895.000000	62.800717 
3894.000000	62.798643 
3893.000000	62.798213 
3892.000000	62.799167 
3891.000000	62.800955 
3890.000000	62.802839 
3889.000000	62.804293 
3888.000000	62.805080 
3887.000000	62.805247 
3886.000000	62.805104 
3885.000000	62.805199 
3884.000000	62.806153 
3883.000000	62.808418 
3882.000000	62.812161 
3881.000000	62.817144 
3880.000000	62.822794 
3879.000000	62.827944 
3878.000000	62.831330 
3877.000000	62.831711 
3876.000000	62.828397 
3875.000000	62.821269 
3874.000000	62.810826 
3873.000000	62.798333 
3872.000000	62.785434 
3871.000000	62.773776 
3870.000000	62.764692 
3869.000000	62.759304 
3868.000000	62.758040 
3867.000000	62.760734 
3866.000000	62.766575 
3865.000000	62.774419 
3864.000000	62.782955 
3863.000000	62.790632 
3862.000000	62.796545 
3861.000000	62.800288 
3860.000000	62.802076 
3859.000000	62.802577 
3858.000000	62.802433 
3857.000000	62.801718 
3856.000000	62.799692 
3855.000000	62.794947 
3854.000000	62.785673 
3853.000000	62.770104 
3852.000000	62.747263 
3851.000000	62.717485 
3850.000000	62.682580 
3849.000000	62.645554 
3848.000000	62.610125 
3847.000000	62.579965 
3846.000000	62.557864 
3845.000000	62.544941 
3844.000000	62.540602 
3843.000000	62.542653 
3842.000000	62.547683 
3841.000000	62.551593 
3840.000000	62.550687 
3839.000000	62.541937 
3838.000000	62.523341 
3837.000000	62.494564 
3836.000000	62.456369 
3835.000000	62.411522 
3834.000000	62.364053 
3833.000000	62.319278 
3832.000000	62.282919 
3831.000000	62.260055 
3830.000000	62.254118 
3829.000000	62.266111 
3828.000000	62.293934 
3827.000000	62.333035 
3826.000000	62.377166 
3825.000000	62.419748 
3824.000000	62.455153 
3823.000000	62.480092 
3822.000000	62.493944 
3821.000000	62.498784 
3820.000000	62.498450 
3819.000000	62.497186 
3818.000000	62.498378 
3817.000000	62.503719 
3816.000000	62.512683 
3815.000000	62.523269 
3814.000000	62.532210 
3813.000000	62.536931 
3812.000000	62.535691 
3811.000000	62.528252 
3810.000000	62.515854 
3809.000000	62.500619 
3808.000000	62.485337 
3807.000000	62.472772 
3806.000000	62.464809 
3805.000000	62.462496 
3804.000000	62.465167 
3803.000000	62.470841 
3802.000000	62.476372 
3801.000000	62.478327 
3800.000000	62.473630 
3799.000000	62.460255 
3798.000000	62.437963 
3797.000000	62.408185 
3796.000000	62.373805 
3795.000000	62.338161 
3794.000000	62.304306 
3793.000000	62.274241 
3792.000000	62.248802 
3791.000000	62.227869 
3790.000000	62.210488 
3789.000000	62.195706 
3788.000000	62.183427 
3787.000000	62.174701 
3786.000000	62.171483 
3785.000000	62.176060 
3784.000000	62.189865 
3783.000000	62.212967 
3782.000000	62.243247 
3781.000000	62.277007 
3780.000000	62.309503 
3779.000000	62.336254 
3778.000000	62.353992 
3777.000000	62.361574 
3776.000000	62.359833 
3775.000000	62.351727 
3774.000000	62.341356 
3773.000000	62.333130 
3772.000000	62.330698 
3771.000000	62.336468 
3770.000000	62.351036 
3769.000000	62.372994 
3768.000000	62.399339 
3767.000000	62.425899 
3766.000000	62.448215 
3765.000000	62.462186 
3764.000000	62.465000 
3763.000000	62.455511 
3762.000000	62.434792 
3761.000000	62.405800 
3760.000000	62.372946 
3759.000000	62.341427 
3758.000000	62.315964 
3757.000000	62.299919 
3756.000000	62.294483 
3755.000000	62.298727 
3754.000000	62.309670 
3753.000000	62.323355 
3752.000000	62.335920 
3751.000000	62.344241 
3750.000000	62.347006 
3749.000000	62.344622 
3748.000000	62.339019 
3747.000000	62.332510 
3746.000000	62.327456 
3745.000000	62.325191 
3744.000000	62.325954 
3743.000000	62.328815 
3742.000000	62.331938 
3741.000000	62.333321 
3740.000000	62.331318 
3739.000000	62.325167 
3738.000000	62.314891 
3737.000000	62.301301 
3736.000000	62.285447 
3735.000000	62.268519 
3734.000000	62.251496 
3733.000000	62.235212 
3732.000000	62.220311 
3731.000000	62.207293 
3730.000000	62.196564 
3729.000000	62.188529 
3728.000000	62.183499 
3727.000000	62.181568 
3726.000000	62.182092 
3725.000000	62.184214 
3724.000000	62.186455 
3723.000000	62.187576 
3722.000000	62.186503 
3721.000000	62.182998 
3720.000000	62.177371 
3719.000000	62.171149 
3718.000000	62.166571 
3717.000000	62.166261 
3716.000000	62.172460 
3715.000000	62.186622 
3714.000000	62.208890 
3713.000000	62.238001 
3712.000000	62.271404 
3711.000000	62.305688 
3710.000000	62.336993 
3709.000000	62.361788 
3708.000000	62.377452 
3707.000000	62.382721 
3706.000000	62.377738 
3705.000000	62.364172 
3704.000000	62.344646 
3703.000000	62.322545 
3702.000000	62.301015 
3701.000000	62.283110 
3700.000000	62.270522 
3699.000000	62.263822 
3698.000000	62.261939 
3697.000000	62.262821 
3696.000000	62.263512 
3695.000000	62.261104 
3694.000000	62.253141 
3693.000000	62.238383 
3692.000000	62.217164 
3691.000000	62.191295 
3690.000000	62.163877 
3689.000000	62.138652 
3688.000000	62.119388 
3687.000000	62.108945 
3686.000000	62.108659 
3685.000000	62.118220 
3684.000000	62.135314 
3683.000000	62.156367 
3682.000000	62.176942 
3681.000000	62.192869 
3680.000000	62.200784 
3679.000000	62.199091 
3678.000000	62.187814 
3677.000000	62.168812 
3676.000000	62.145471 
3675.000000	62.121772 
3674.000000	62.101578 
3673.000000	62.087655 
3672.000000	62.081289 
3671.000000	62.081956 
3670.000000	62.087821 
3669.000000	62.096118 
3668.000000	62.104105 
3667.000000	62.109565 
3666.000000	62.111568 
3665.000000	62.110233 
3664.000000	62.106752 
3663.000000	62.102770 
3662.000000	62.099719 
3661.000000	62.098908 
3660.000000	62.100791 
3659.000000	62.105607 
3658.000000	62.113213 
3657.000000	62.123227 
3656.000000	62.135171 
3655.000000	62.148642 
3654.000000	62.163162 
3653.000000	62.178063 
3652.000000	62.192082 
3651.000000	62.203693 
3650.000000	62.211060 
3649.000000	62.212467 
3648.000000	62.206745 
3647.000000	62.193632 
3646.000000	62.173700 
3645.000000	62.148714 
3644.000000	62.120914 
3643.000000	62.092781 
3642.000000	62.066531 
3641.000000	62.043738 
3640.000000	62.025022 
3639.000000	62.010049 
3638.000000	61.998033 
3637.000000	61.988139 
3636.000000	61.979842 
3635.000000	61.972975 
3634.000000	61.968350 
3633.000000	61.967372 
3632.000000	61.971688 
3631.000000	61.982536 
3630.000000	62.000346 
3629.000000	62.024450 
3628.000000	62.053132 
3627.000000	62.083721 
3626.000000	62.113332 
3625.000000	62.139296 
3624.000000	62.159848 
3623.000000	62.174224 
3622.000000	62.182664 
3621.000000	62.185883 
3620.000000	62.185120 
3619.000000	62.181067 
3618.000000	62.173986 
3617.000000	62.162971 
3616.000000	62.147021 
3615.000000	62.124395 
3614.000000	62.093639 
3613.000000	62.053751 
3612.000000	62.004947 
3611.000000	61.948299 
3610.000000	61.886119 
3609.000000	61.821484 
3608.000000	61.758041 
3607.000000	61.699414 
3606.000000	61.648797 
3605.000000	61.608815 
3604.000000	61.581206 
3603.000000	61.566805 
3602.000000	61.565780 
3601.000000	61.577248 
3600.000000	61.599898 
3599.000000	61.631941 
3598.000000	61.671614 
3597.000000	61.716532 
3596.000000	61.764359 
3595.000000	61.812710 
3594.000000	61.859393 
3593.000000	61.902117 
3592.000000	61.938810 
3591.000000	61.968207 
3590.000000	61.989307 
3589.000000	62.001967 
3588.000000	62.006354 
3587.000000	62.003254 
3586.000000	61.993837 
3585.000000	61.979699 
3584.000000	61.962819 
3583.000000	61.945462 
3582.000000	61.930108 
3581.000000	61.919283 
3580.000000	61.915159 
3579.000000	61.919236 
3578.000000	61.931920 
3577.000000	61.952471 
3576.000000	61.978626 
3575.000000	62.007117 
3574.000000	62.034130 
3573.000000	62.055897 
3572.000000	62.069487 
3571.000000	62.072730 
3570.000000	62.065124 
3569.000000	62.047052 
3568.000000	62.019801 
3567.000000	61.984872 
3566.000000	61.943840 
3565.000000	61.898374 
3564.000000	61.850380 
3563.000000	61.802172 
3562.000000	61.756396 
3561.000000	61.715888 
3560.000000	61.683511 
3559.000000	61.661219 
3558.000000	61.649489 
3557.000000	61.647152 
3556.000000	61.651277 
3555.000000	61.657738 
3554.000000	61.661839 
3553.000000	61.659526 
3552.000000	61.648011 
3551.000000	61.626529 
3550.000000	61.596298 
3549.000000	61.560082 
3548.000000	61.521720 
3547.000000	61.485004 
3546.000000	61.453461 
3545.000000	61.429524 
3544.000000	61.414694 
3543.000000	61.409401 
3542.000000	61.413240 
3541.000000	61.425161 
3540.000000	61.443614 
3539.000000	61.466431 
3538.000000	61.491131 
3537.000000	61.514878 
3536.000000	61.535215 
3535.000000	61.550068 
3534.000000	61.558294 
3533.000000	61.560034 
3532.000000	61.556410 
3531.000000	61.549782 
3530.000000	61.542415 
3529.000000	61.536002 
3528.000000	61.531186 
3527.000000	61.527585 
3526.000000	61.524224 
3525.000000	61.519980 
3524.000000	61.514425 
3523.000000	61.508226 
3522.000000	61.503052 
3521.000000	61.501097 
3520.000000	61.504483 
3519.000000	61.514449 
3518.000000	61.530828 
3517.000000	61.551976 
3516.000000	61.575150 
3515.000000	61.596655 
3514.000000	61.612534 
3513.000000	61.619544 
3512.000000	61.615633 
3511.000000	61.600542 
3510.000000	61.575818 
3509.000000	61.544847 
3508.000000	61.512041 
3507.000000	61.482119 
3506.000000	61.459231 
3505.000000	61.446118 
3504.000000	61.443710 
3503.000000	61.450934 
3502.000000	61.465167 
3501.000000	61.482691 
3500.000000	61.499428 
3499.000000	61.511874 
3498.000000	61.517572 
3497.000000	61.515617 
3496.000000	61.506581 
3495.000000	61.492419 
3494.000000	61.475920 
3493.000000	61.460018 
3492.000000	61.447215 
3491.000000	61.439514 
3490.000000	61.437654 
3489.000000	61.441278 
3488.000000	61.449122 
3487.000000	61.459183 
3486.000000	61.469197 
3485.000000	61.476993 
3484.000000	61.481070 
3483.000000	61.480760 
3482.000000	61.476492 
3481.000000	61.469435 
3480.000000	61.460900 
3479.000000	61.452150 
3478.000000	61.443829 
3477.000000	61.436033 
3476.000000	61.428093 
3475.000000	61.419057 
3474.000000	61.408138 
3473.000000	61.395239 
3472.000000	61.380839 
3471.000000	61.365723 
3470.000000	61.350965 
3469.000000	61.337351 
3468.000000	61.324930 
3467.000000	61.313009 
3466.000000	61.300277 
3465.000000	61.285257 
3464.000000	61.267018 
3463.000000	61.245656 
3462.000000	61.222577 
3461.000000	61.200284 
3460.000000	61.181712 
3459.000000	61.169672 
3458.000000	61.165666 
3457.000000	61.169958 
3456.000000	61.181235 
3455.000000	61.197113 
3454.000000	61.214351 
3453.000000	61.229920 
3452.000000	61.241698 
3451.000000	61.248803 
3450.000000	61.251640 
3449.000000	61.251974 
3448.000000	61.252140 
3447.000000	61.254882 
3446.000000	61.262464 
3445.000000	61.276316 
3444.000000	61.296653 
3443.000000	61.322546 
3442.000000	61.352086 
3441.000000	61.382412 
3440.000000	61.410331 
3439.000000	61.432862 
3438.000000	61.447668 
3437.000000	61.453604 
3436.000000	61.450409 
3435.000000	61.439347 
3434.000000	61.422085 
3433.000000	61.400532 
3432.000000	61.375999 
3431.000000	61.349272 
3430.000000	61.320304 
3429.000000	61.288666 
3428.000000	61.253666 
3427.000000	61.215329 
3426.000000	61.174440 
3425.000000	61.132693 
3424.000000	61.092448 
3423.000000	61.056256 
3422.000000	61.026525 
3421.000000	61.004948 
3420.000000	60.992074 
3419.000000	60.987186 
3418.000000	60.988783 
3417.000000	60.994791 
3416.000000	61.002945 
3415.000000	61.011219 
3414.000000	61.017775 
3413.000000	61.021375 
3412.000000	61.021089 
3411.000000	61.016559 
3410.000000	61.008191 
3409.000000	60.996961 
3408.000000	60.984635 
3407.000000	60.972976 
3406.000000	60.963916 
3405.000000	60.958814 
3404.000000	60.958242 
3403.000000	60.961937 
3402.000000	60.968780 
3401.000000	60.977053 
3400.000000	60.985302 
3399.000000	60.992264 
3398.000000	60.997080 
3397.000000	60.999441 
3396.000000	60.999393 
3395.000000	60.997223 
3394.000000	60.993337 
3393.000000	60.988020 
3392.000000	60.981440 
3391.000000	60.973834 
3390.000000	60.965704 
3389.000000	60.957884 
3388.000000	60.951423 
3387.000000	60.947132 
3386.000000	60.945153 
3385.000000	60.945010 
3384.000000	60.945463 
3383.000000	60.944724 
3382.000000	60.941052 
3381.000000	60.933041 
3380.000000	60.920548 
3379.000000	60.904693 
3378.000000	60.887885 
3377.000000	60.873198 
3376.000000	60.863900 
3375.000000	60.862636 
3374.000000	60.870456 
3373.000000	60.886740 
3372.000000	60.908317 
3371.000000	60.930180 
3370.000000	60.945916 
3369.000000	60.949420 
3368.000000	60.935831 
3367.000000	60.902810 
3366.000000	60.851502 
3365.000000	60.786294 
3364.000000	60.714769 
3363.000000	60.646152 
3362.000000	60.589790 
3361.000000	60.553240 
3360.000000	60.540962 
3359.000000	60.553503 
3358.000000	60.587358 
3357.000000	60.635614 
3356.000000	60.689496 
3355.000000	60.740017 
3354.000000	60.779452 
3353.000000	60.802698 
3352.000000	60.807538 
3351.000000	60.795307 
3350.000000	60.769605 
3349.000000	60.736322 
3348.000000	60.702085 
3347.000000	60.673213 
3346.000000	60.655498 
3345.000000	60.652160 
3344.000000	60.664153 
3343.000000	60.689187 
3342.000000	60.723066 
3341.000000	60.759854 
3340.000000	60.793352 
3339.000000	60.817956 
3338.000000	60.829758 
3337.000000	60.826992 
3336.000000	60.810017 
3335.000000	60.780906 
3334.000000	60.743021 
3333.000000	60.700154 
3332.000000	60.655784 
3331.000000	60.613059 
3330.000000	60.574293 
3329.000000	60.540914 
3328.000000	60.513854 
3327.000000	60.493540 
3326.000000	60.480380 
3325.000000	60.474801 
3324.000000	60.477614 
3323.000000	60.488891 
3322.000000	60.508656 
3321.000000	60.536623 
3320.000000	60.571837 
3319.000000	60.612368 
3318.000000	60.655403 
3317.000000	60.697484 
3316.000000	60.734939 
3315.000000	60.764288 
3314.000000	60.782957 
3313.000000	60.789823 
3312.000000	60.785412 
3311.000000	60.771965 
3310.000000	60.752773 
3309.000000	60.731625 
3308.000000	60.711932 
3307.000000	60.696244 
3306.000000	60.685849 
3305.000000	60.680818 
3304.000000	60.680365 
3303.000000	60.683202 
3302.000000	60.687875 
3301.000000	60.693001 
3300.000000	60.697555 
3299.000000	60.700535 
3298.000000	60.700869 
3297.000000	60.697150 
3296.000000	60.687875 
3295.000000	60.671591 
3294.000000	60.647177 
3293.000000	60.614180 
3292.000000	60.573410 
3291.000000	60.526561 
3290.000000	60.476446 
3289.000000	60.426187 
3288.000000	60.378932 
3287.000000	60.337424 
3286.000000	60.303711 
3285.000000	60.278964 
3284.000000	60.263490 
3283.000000	60.257101 
3282.000000	60.259413 
3281.000000	60.269641 
3280.000000	60.286712 
3279.000000	60.309267 
3278.000000	60.335612 
3277.000000	60.363388 
3276.000000	60.390162 
3275.000000	60.413479 
3274.000000	60.431790 
3273.000000	60.444188 
3272.000000	60.450983 
3271.000000	60.453724 
3270.000000	60.454607 
3269.000000	60.456132 
3268.000000	60.460209 
3267.000000	60.467863 
3266.000000	60.478687 
3265.000000	60.491514 
3264.000000	60.504055 
3263.000000	60.513901 
3262.000000	60.518956 
3261.000000	60.518240 
3260.000000	60.511827 
3259.000000	60.500955 
3258.000000	60.487747 
3257.000000	60.474634 
3256.000000	60.463571 
3255.000000	60.455632 
3254.000000	60.450839 
3253.000000	60.448122 
3252.000000	60.445666 
3251.000000	60.441112 
3250.000000	60.432243 
3249.000000	60.417366 
3248.000000	60.395884 
3247.000000	60.368371 
3246.000000	60.336184 
3245.000000	60.301661 
3244.000000	60.267877 
3243.000000	60.238027 
3242.000000	60.214900 
3241.000000	60.200500 
3240.000000	60.195970 
3239.000000	60.201096 
3238.000000	60.214090 
3237.000000	60.231995 
3236.000000	60.250902 
3235.000000	60.266733 
3234.000000	60.275721 
3233.000000	60.275506 
3232.000000	60.265421 
3231.000000	60.247015 
3230.000000	60.223507 
3229.000000	60.199308 
3228.000000	60.178899 
3227.000000	60.166120 
3226.000000	60.163092 
3225.000000	60.169863 
3224.000000	60.184431 
3223.000000	60.203313 
3222.000000	60.222363 
3221.000000	60.237669 
3220.000000	60.246205 
3219.000000	60.246276 
3218.000000	60.237669 
3217.000000	60.221219 
3216.000000	60.198521 
3215.000000	60.171175 
3214.000000	60.140728 
3213.000000	60.108447 
3212.000000	60.075330 
3211.000000	60.042595 
3210.000000	60.011696 
3209.000000	59.984326 
3208.000000	59.962320 
3207.000000	59.947133 
3206.000000	59.940052 
3205.000000	59.941601 
3204.000000	59.951591 
3203.000000	59.968852 
3202.000000	59.991598 
3201.000000	60.017585 
3200.000000	60.044574 
3199.000000	60.070538 
3198.000000	60.093712 
3197.000000	60.112881 
3196.000000	60.127139 
3195.000000	60.135960 
3194.000000	60.139036 
3193.000000	60.136365 
3192.000000	60.128140 
3191.000000	60.114741 
3190.000000	60.097408 
3189.000000	60.077619 
3188.000000	60.057449 
3187.000000	60.038757 
3186.000000	60.023188 
3185.000000	60.011577 
3184.000000	60.003900 
3183.000000	59.998893 
3182.000000	59.994339 
3181.000000	59.987854 
3180.000000	59.977221 
3179.000000	59.961605 
3178.000000	59.941720 
3177.000000	59.920096 
3176.000000	59.900474 
3175.000000	59.887051 
3174.000000	59.883451 
3173.000000	59.891533 
3172.000000	59.910726 
3171.000000	59.938001 
3170.000000	59.968376 
3169.000000	59.995698 
3168.000000	60.014104 
3167.000000	60.019063 
3166.000000	60.008287 
3165.000000	59.981870 
3164.000000	59.942388 
3163.000000	59.894180 
3162.000000	59.842371 
3161.000000	59.792041 
3160.000000	59.747362 
3159.000000	59.711313 
3158.000000	59.685468 
3157.000000	59.670186 
3156.000000	59.664535 
3155.000000	59.666681 
3154.000000	59.674191 
3153.000000	59.684228 
3152.000000	59.693789 
3151.000000	59.699964 
3150.000000	59.700179 
3149.000000	59.692764 
3148.000000	59.677100 
3147.000000	59.653735 
3146.000000	59.624838 
3145.000000	59.593582 
3144.000000	59.563612 
3143.000000	59.538412 
3142.000000	59.520769 
3141.000000	59.512114 
3140.000000	59.512233 
3139.000000	59.519362 
3138.000000	59.530258 
3137.000000	59.541130 
3136.000000	59.548306 
3135.000000	59.549212 
3134.000000	59.542393 
3133.000000	59.528422 
3132.000000	59.509325 
3131.000000	59.488296 
3130.000000	59.469103 
3129.000000	59.455180 
3128.000000	59.448671 
3127.000000	59.450125 
3126.000000	59.458684 
3125.000000	59.472107 
3124.000000	59.487581 
3123.000000	59.502506 
3122.000000	59.515094 
3121.000000	59.524989 
3120.000000	59.533119 
3119.000000	59.541320 
3118.000000	59.551525 
3117.000000	59.565043 
3116.000000	59.581613 
3115.000000	59.599542 
3114.000000	59.615755 
3113.000000	59.626603 
3112.000000	59.628820 
3111.000000	59.620499 
3110.000000	59.601545 
3109.000000	59.573936 
3108.000000	59.540796 
3107.000000	59.506058 
3106.000000	59.473347 
3105.000000	59.445238 
3104.000000	59.422826 
3103.000000	59.405755 
3102.000000	59.392428 
3101.000000	59.380865 
3100.000000	59.369301 
3099.000000	59.356641 
3098.000000	59.343123 
3097.000000	59.330081 
3096.000000	59.319663 
3095.000000	59.313988 
3094.000000	59.314894 
3093.000000	59.323167 
3092.000000	59.338331 
3091.000000	59.358525 
3090.000000	59.381103 
3089.000000	59.403014 
3088.000000	59.421372 
3087.000000	59.433889 
3086.000000	59.439182 
3085.000000	59.437155 
3084.000000	59.428739 
3083.000000	59.415626 
3082.000000	59.400105 
3081.000000	59.384512 
3080.000000	59.371232 
3079.000000	59.361934 
3078.000000	59.357738 
3077.000000	59.358716 
3076.000000	59.364247 
3075.000000	59.372544 
3074.000000	59.381008 
3073.000000	59.386587 
3072.000000	59.386396 
3071.000000	59.378218 
3070.000000	59.361195 
3069.000000	59.335923 
3068.000000	59.304523 
3067.000000	59.270143 
3066.000000	59.236454 
3065.000000	59.206843 
3064.000000	59.183549 
3063.000000	59.167671 
3062.000000	59.159064 
3061.000000	59.156417 
3060.000000	59.157800 
3059.000000	59.161138 
3058.000000	59.164595 
3057.000000	59.166955 
3056.000000	59.167599 
3055.000000	59.166526 
3054.000000	59.164357 
3053.000000	59.161829 
3052.000000	59.159803 
3051.000000	59.159135 
3050.000000	59.160447 
3049.000000	59.164142 
3048.000000	59.170198 
3047.000000	59.178042 
3046.000000	59.186673 
3045.000000	59.194755 
3044.000000	59.200716 
3043.000000	59.203028 
3042.000000	59.200572 
3041.000000	59.192657 
3040.000000	59.179019 
3039.000000	59.159803 
3038.000000	59.135603 
3037.000000	59.107518 
3036.000000	59.076976 
3035.000000	59.045839 
3034.000000	59.016466 
3033.000000	58.991241 
3032.000000	58.972239 
3031.000000	58.960866 
3030.000000	58.957457 
3029.000000	58.961009 
3028.000000	58.969473 
3027.000000	58.979940 
3026.000000	58.989048 
3025.000000	58.993816 
3024.000000	58.991980 
3023.000000	58.982491 
3022.000000	58.965563 
3021.000000	58.942604 
3020.000000	58.915638 
3019.000000	58.887147 
3018.000000	58.859443 
3017.000000	58.834576 
3016.000000	58.814120 
3015.000000	58.799099 
3014.000000	58.790159 
3013.000000	58.787631 
3012.000000	58.791589 
3011.000000	58.801651 
3010.000000	58.816909 
3009.000000	58.835816 
3008.000000	58.856201 
3007.000000	58.875608 
3006.000000	58.891487 
3005.000000	58.901500 
3004.000000	58.904314 
3003.000000	58.899617 
3002.000000	58.888339 
3001.000000	58.872461 
3000.000000	58.854603 
2999.000000	58.837532 
2998.000000	58.823585 
2997.000000	58.814549 
2996.000000	58.811187 
2995.000000	58.813285 
2994.000000	58.819794 
2993.000000	58.829617 
2992.000000	58.841347 
2991.000000	58.853626 
2990.000000	58.865213 
2989.000000	58.874773 
2988.000000	58.881139 
2987.000000	58.883142 
2986.000000	58.879947 
2985.000000	58.871221 
2984.000000	58.857393 
2983.000000	58.839559 
2982.000000	58.819580 
2981.000000	58.799576 
2980.000000	58.781623 
2979.000000	58.767390 
2978.000000	58.758068 
2977.000000	58.754062 
2976.000000	58.755135 
2975.000000	58.760046 
2974.000000	58.767151 
2973.000000	58.774137 
2972.000000	58.778429 
2971.000000	58.777189 
2970.000000	58.768248 
2969.000000	58.749914 
2968.000000	58.721756 
2967.000000	58.684778 
2966.000000	58.641147 
2965.000000	58.594274 
2964.000000	58.548331 
2963.000000	58.507537 
2962.000000	58.475327 
2961.000000	58.453631 
2960.000000	58.442783 
2959.000000	58.441305 
2958.000000	58.446407 
2957.000000	58.454561 
2956.000000	58.462166 
2955.000000	58.466506 
2954.000000	58.466124 
2953.000000	58.460855 
2952.000000	58.451676 
2951.000000	58.440279 
2950.000000	58.428621 
2949.000000	58.418035 
2948.000000	58.409190 
2947.000000	58.401465 
2946.000000	58.393788 
2945.000000	58.384633 
2944.000000	58.373117 
2943.000000	58.359336 
2942.000000	58.344626 
2941.000000	58.331513 
2940.000000	58.322739 
2939.000000	58.320641 
2938.000000	58.326244 
2937.000000	58.338856 
2936.000000	58.355927 
2935.000000	58.373570 
2934.000000	58.387446 
2933.000000	58.393931 
2932.000000	58.390569 
2931.000000	58.376717 
2930.000000	58.353471 
2929.000000	58.323287 
2928.000000	58.289170 
2927.000000	58.253908 
2926.000000	58.219647 
2925.000000	58.187770 
2924.000000	58.158826 
2923.000000	58.133053 
2922.000000	58.110690 
2921.000000	58.092045 
2920.000000	58.077597 
2919.000000	58.067893 
2918.000000	58.063054 
2917.000000	58.063101 
2916.000000	58.067607 
2915.000000	58.075952 
2914.000000	58.087277 
2913.000000	58.100557 
2912.000000	58.114790 
2911.000000	58.128738 
2910.000000	58.141016 
2909.000000	58.150386 
2908.000000	58.155798 
2907.000000	58.156728 
2906.000000	58.153247 
2905.000000	58.146309 
2904.000000	58.137392 
2903.000000	58.128476 
2902.000000	58.121514 
2901.000000	58.118033 
2900.000000	58.118581 
2899.000000	58.122849 
2898.000000	58.129453 
2897.000000	58.136367 
2896.000000	58.141350 
2895.000000	58.142352 
2894.000000	58.138298 
2893.000000	58.129096 
2892.000000	58.115649 
2891.000000	58.099508 
2890.000000	58.082199 
2889.000000	58.065056 
2888.000000	58.048629 
2887.000000	58.032560 
2886.000000	58.015823 
2885.000000	57.997179 
2884.000000	57.975625 
2883.000000	57.950758 
2882.000000	57.923197 
2881.000000	57.894444 
2880.000000	57.866930 
2879.000000	57.843255 
2878.000000	57.826042 
2877.000000	57.817220 
2876.000000	57.817840 
2875.000000	57.827925 
2874.000000	57.846212 
2873.000000	57.870292 
2872.000000	57.897043 
2871.000000	57.922720 
2870.000000	57.943320 
2869.000000	57.954978 
2868.000000	57.954645 
2867.000000	57.940793 
2866.000000	57.913637 
2865.000000	57.875156 
2864.000000	57.829189 
2863.000000	57.780528 
2862.000000	57.734107 
2861.000000	57.693910 
2860.000000	57.662606 
2859.000000	57.641029 
2858.000000	57.628226 
2857.000000	57.622337 
2856.000000	57.621049 
2855.000000	57.622671 
2854.000000	57.626366 
2853.000000	57.632541 
2852.000000	57.642388 
2851.000000	57.657527 
2850.000000	57.679080 
2849.000000	57.707524 
2848.000000	57.742023 
2847.000000	57.780814 
2846.000000	57.821083 
2845.000000	57.859897 
2844.000000	57.894325 
2843.000000	57.921838 
2842.000000	57.940483 
2841.000000	57.948946 
2840.000000	57.946705 
2839.000000	57.934212 
2838.000000	57.912611 
2837.000000	57.884240 
2836.000000	57.851862 
2835.000000	57.818865 
2834.000000	57.788300 
2833.000000	57.762980 
2832.000000	57.744598 
2831.000000	57.733464 
2830.000000	57.728600 
2829.000000	57.727956 
2828.000000	57.729005 
2827.000000	57.729220 
2826.000000	57.726788 
2825.000000	57.720899 
2824.000000	57.711863 
2823.000000	57.700896 
2822.000000	57.689619 
2821.000000	57.679581 
2820.000000	57.671833 
2819.000000	57.666826 
2818.000000	57.664251 
2817.000000	57.663297 
2816.000000	57.662916 
2815.000000	57.662343 
2814.000000	57.661056 
2813.000000	57.658815 
2812.000000	57.655787 
2811.000000	57.652258 
2810.000000	57.648253 
2809.000000	57.643580 
2808.000000	57.637786 
2807.000000	57.630228 
2806.000000	57.620286 
2805.000000	57.607650 
2804.000000	57.592153 
2803.000000	57.574367 
2802.000000	57.555317 
2801.000000	57.536530 
2800.000000	57.519912 
2799.000000	57.507324 
2798.000000	57.500267 
2797.000000	57.499337 
2796.000000	57.504010 
2795.000000	57.512497 
2794.000000	57.522201 
2793.000000	57.530283 
2792.000000	57.534217 
2791.000000	57.532405 
2790.000000	57.524681 
2789.000000	57.511973 
2788.000000	57.495951 
2787.000000	57.478737 
2786.000000	57.462143 
2785.000000	57.447266 
2784.000000	57.434201 
2783.000000	57.422351 
2782.000000	57.410573 
2781.000000	57.397890 
2780.000000	57.383513 
2779.000000	57.367300 
2778.000000	57.349801 
2777.000000	57.331776 
2776.000000	57.314419 
2775.000000	57.298612 
2774.000000	57.285165 
2773.000000	57.274365 
2772.000000	57.266211 
2771.000000	57.260537 
2770.000000	57.257008 
2769.000000	57.255220 
2768.000000	57.254815 
2767.000000	57.255387 
2766.000000	57.256531 
2765.000000	57.258105 
2764.000000	57.260107 
2763.000000	57.262563 
2762.000000	57.265830 
2761.000000	57.270121 
2760.000000	57.275629 
2759.000000	57.282066 
2758.000000	57.288694 
2757.000000	57.294201 
2756.000000	57.297039 
2755.000000	57.295894 
2754.000000	57.289981 
2753.000000	57.279706 
2752.000000	57.266616 
2751.000000	57.253098 
2750.000000	57.241845 
2749.000000	57.235169 
2748.000000	57.234406 
2747.000000	57.239437 
2746.000000	57.248640 
2745.000000	57.259130 
2744.000000	57.267498 
2743.000000	57.270145 
2742.000000	57.264351 
2741.000000	57.248544 
2740.000000	57.222700 
2739.000000	57.188272 
2738.000000	57.148075 
2737.000000	57.105588 
2736.000000	57.064580 
2735.000000	57.028317 
2734.000000	56.999087 
2733.000000	56.978106 
2732.000000	56.965231 
2731.000000	56.959223 
2730.000000	56.957983 
2729.000000	56.958985 
2728.000000	56.959986 
2727.000000	56.959152 
2726.000000	56.955766 
2725.000000	56.949710 
2724.000000	56.941676 
2723.000000	56.932735 
2722.000000	56.923961 
2721.000000	56.915998 
2720.000000	56.909036 
2719.000000	56.903004 
2718.000000	56.897497 
2717.000000	56.892132 
2716.000000	56.886911 
2715.000000	56.881976 
2714.000000	56.878018 
2713.000000	56.875896 
2712.000000	56.876540 
2711.000000	56.880593 
2710.000000	56.888294 
2709.000000	56.899189 
2708.000000	56.912064 
2707.000000	56.925225 
2706.000000	56.936717 
2705.000000	56.944727 
2704.000000	56.947851 
2703.000000	56.945276 
2702.000000	56.937336 
2701.000000	56.925010 
2700.000000	56.909656 
2699.000000	56.892418 
2698.000000	56.874394 
2697.000000	56.855797 
2696.000000	56.836414 
2695.000000	56.815266 
2694.000000	56.791424 
2693.000000	56.764316 
2692.000000	56.734204 
2691.000000	56.702446 
2690.000000	56.671214 
2689.000000	56.643319 
2688.000000	56.621479 
2687.000000	56.607532 
2686.000000	56.602025 
2685.000000	56.603813 
2684.000000	56.610441 
2683.000000	56.618475 
2682.000000	56.624531 
2681.000000	56.625962 
2680.000000	56.621980 
2679.000000	56.613159 
2678.000000	56.601762 
2677.000000	56.591010 
2676.000000	56.584334 
2675.000000	56.584072 
2674.000000	56.590914 
2673.000000	56.603908 
2672.000000	56.620264 
2671.000000	56.636500 
2670.000000	56.648826 
2669.000000	56.654238 
2668.000000	56.651139 
2667.000000	56.639719 
2666.000000	56.621479 
2665.000000	56.598877 
2664.000000	56.574606 
2663.000000	56.551241 
2662.000000	56.530833 
2661.000000	56.514620 
2660.000000	56.503272 
2659.000000	56.496882 
2658.000000	56.494975 
2657.000000	56.496357 
2656.000000	56.499218 
2655.000000	56.501078 
2654.000000	56.498837 
2653.000000	56.489253 
2652.000000	56.469440 
2651.000000	56.437921 
2650.000000	56.394958 
2649.000000	56.343340 
2648.000000	56.287646 
2647.000000	56.233811 
2646.000000	56.188082 
2645.000000	56.155705 
2644.000000	56.139802 
2643.000000	56.141018 
2642.000000	56.157302 
2641.000000	56.184506 
2640.000000	56.217217 
2639.000000	56.249928 
2638.000000	56.278038 
2637.000000	56.298398 
2636.000000	56.309509 
2635.000000	56.311464 
2634.000000	56.305599 
2633.000000	56.294107 
2632.000000	56.279230 
2631.000000	56.263208 
2630.000000	56.247544 
2629.000000	56.233501 
2628.000000	56.221652 
2627.000000	56.211948 
2626.000000	56.203722 
2625.000000	56.195998 
2624.000000	56.187725 
2623.000000	56.177997 
2622.000000	56.166410 
2621.000000	56.153273 
2620.000000	56.139469 
2619.000000	56.126117 
2618.000000	56.114554 
2617.000000	56.105899 
2616.000000	56.100606 
2615.000000	56.098294 
2614.000000	56.097865 
2613.000000	56.097888 
2612.000000	56.096792 
2611.000000	56.093239 
2610.000000	56.086301 
2609.000000	56.075716 
2608.000000	56.061935 
2607.000000	56.045889 
2606.000000	56.028819 
2605.000000	56.011867 
2604.000000	55.996227 
2603.000000	55.982756 
2602.000000	55.972123 
2601.000000	55.964517 
2600.000000	55.959725 
2599.000000	55.957031 
2598.000000	55.955123 
2597.000000	55.952763 
2596.000000	55.948615 
2595.000000	55.942058 
2594.000000	55.933022 
2593.000000	55.922293 
2592.000000	55.911493 
2591.000000	55.902719 
2590.000000	55.897784 
2589.000000	55.897879 
2588.000000	55.903124 
2587.000000	55.912280 
2586.000000	55.923128 
2585.000000	55.932879 
2584.000000	55.938839 
2583.000000	55.939269 
2582.000000	55.933761 
2581.000000	55.923509 
2580.000000	55.910897 
2579.000000	55.898857 
2578.000000	55.890130 
2577.000000	55.886411 
2576.000000	55.887866 
2575.000000	55.893111 
2574.000000	55.899405 
2573.000000	55.903530 
2572.000000	55.902099 
2571.000000	55.892825 
2570.000000	55.874538 
2569.000000	55.847573 
2568.000000	55.813407 
2567.000000	55.774378 
2566.000000	55.733036 
2565.000000	55.691885 
2564.000000	55.652999 
2563.000000	55.617928 
2562.000000	55.587673 
2561.000000	55.562853 
2560.000000	55.543875 
2559.000000	55.530834 
2558.000000	55.523514 
2557.000000	55.521345 
2556.000000	55.523371 
2555.000000	55.528211 
2554.000000	55.534362 
2553.000000	55.540323 
2552.000000	55.544924 
2551.000000	55.547380 
2550.000000	55.547738 
2549.000000	55.546569 
2548.000000	55.544781 
2547.000000	55.543160 
2546.000000	55.542206 
2545.000000	55.541968 
2544.000000	55.541920 
2543.000000	55.541086 
2542.000000	55.538415 
2541.000000	55.533099 
2540.000000	55.524611 
2539.000000	55.513000 
2538.000000	55.498886 
2537.000000	55.483126 
2536.000000	55.466651 
2535.000000	55.450177 
2534.000000	55.433917 
2533.000000	55.417847 
2532.000000	55.401825 
2531.000000	55.385947 
2530.000000	55.370497 
2529.000000	55.356144 
2528.000000	55.343914 
2527.000000	55.334520 
2526.000000	55.328249 
2525.000000	55.324530 
2524.000000	55.321812 
2523.000000	55.317974 
2522.000000	55.310773 
2521.000000	55.298447 
2520.000000	55.280208 
2519.000000	55.256700 
2518.000000	55.229926 
2517.000000	55.202746 
2516.000000	55.178236 
2515.000000	55.158948 
2514.000000	55.146312 
2513.000000	55.140256 
2512.000000	55.139374 
2511.000000	55.141162 
2510.000000	55.142855 
2509.000000	55.142021 
2508.000000	55.137252 
2507.000000	55.128288 
2506.000000	55.115985 
2505.000000	55.101847 
2504.000000	55.087542 
2503.000000	55.074214 
2502.000000	55.062389 
2501.000000	55.051827 
2500.000000	55.041599 
2499.000000	55.030488 
2498.000000	55.017542 
2497.000000	55.002474 
2496.000000	54.985880 
2495.000000	54.969096 
2494.000000	54.953932 
2493.000000	54.942107 
2492.000000	54.934692 
2491.000000	54.931855 
2490.000000	54.932665 
2489.000000	54.935550 
2488.000000	54.938673 
2487.000000	54.940676 
2486.000000	54.940915 
2485.000000	54.939532 
2484.000000	54.937291 
2483.000000	54.935145 
2482.000000	54.933595 
2481.000000	54.932737 
2480.000000	54.931950 
2479.000000	54.930019 
2478.000000	54.925680 
2477.000000	54.917979 
2476.000000	54.906582 
2475.000000	54.891991 
2474.000000	54.875421 
2473.000000	54.858708 
2472.000000	54.843711 
2471.000000	54.832005 
2470.000000	54.824376 
2469.000000	54.820823 
2468.000000	54.820656 
2467.000000	54.822587 
2466.000000	54.825019 
2465.000000	54.826283 
2464.000000	54.825162 
2463.000000	54.820919 
2462.000000	54.813480 
2461.000000	54.803085 
2460.000000	54.790186 
2459.000000	54.775738 
2458.000000	54.760527 
2457.000000	54.745054 
2456.000000	54.729461 
2455.000000	54.713988 
2454.000000	54.699015 
2453.000000	54.685115 
2452.000000	54.673314 
2451.000000	54.664993 
2450.000000	54.661273 
2449.000000	54.662942 
2448.000000	54.669594 
2447.000000	54.679703 
2446.000000	54.690456 
2445.000000	54.698133 
2444.000000	54.698967 
2443.000000	54.689764 
2442.000000	54.668879 
2441.000000	54.636716 
2440.000000	54.595851 
2439.000000	54.550933 
2438.000000	54.507613 
2437.000000	54.471969 
2436.000000	54.449057 
2435.000000	54.442238 
2434.000000	54.452729 
2433.000000	54.479694 
2432.000000	54.519915 
2431.000000	54.569149 
2430.000000	54.622411 
2429.000000	54.675078 
2428.000000	54.723119 
2427.000000	54.763698 
2426.000000	54.795384 
2425.000000	54.817795 
2424.000000	54.831480 
2423.000000	54.837274 
2422.000000	54.836177 
2421.000000	54.828810 
2420.000000	54.815673 
2419.000000	54.796838 
2418.000000	54.772424 
2417.000000	54.742789 
2416.000000	54.708886 
2415.000000	54.672384 
2414.000000	54.635691 
2413.000000	54.601526 
2412.000000	54.572391 
2411.000000	54.550170 
2410.000000	54.535579 
2409.000000	54.527902 
2408.000000	54.525160 
2407.000000	54.524517 
2406.000000	54.522943 
2405.000000	54.517745 
2404.000000	54.507255 
2403.000000	54.490780 
2402.000000	54.468870 
2401.000000	54.442644 
2400.000000	54.413580 
2399.000000	54.383397 
2398.000000	54.353475 
2397.000000	54.324698 
2396.000000	54.297661 
2395.000000	54.273033 
2394.000000	54.251313 
2393.000000	54.232978 
2392.000000	54.218196 
2391.000000	54.206752 
2390.000000	54.197764 
2389.000000	54.189848 
2388.000000	54.181170 
2387.000000	54.170036 
2386.000000	54.155206 
2385.000000	54.136228 
2384.000000	54.113483 
2383.000000	54.088282 
2382.000000	54.062318 
2381.000000	54.037618 
2380.000000	54.015707 
2379.000000	53.997659 
2378.000000	53.983831 
2377.000000	53.974056 
2376.000000	53.967714 
2375.000000	53.964090 
2374.000000	53.962492 
2373.000000	53.962373 
2372.000000	53.963184 
2371.000000	53.964447 
2370.000000	53.965592 
2369.000000	53.965997 
2368.000000	53.964877 
2367.000000	53.961610 
2366.000000	53.955793 
2365.000000	53.947043 
2364.000000	53.935194 
2363.000000	53.920149 
2362.000000	53.902029 
2361.000000	53.881096 
2360.000000	53.857779 
2359.000000	53.832721 
2358.000000	53.806877 
2357.000000	53.781437 
2356.000000	53.757572 
2355.000000	53.736519 
2354.000000	53.719305 
2353.000000	53.706574 
2352.000000	53.698563 
2351.000000	53.695034 
2350.000000	53.695487 
2349.000000	53.699040 
2348.000000	53.704500 
2347.000000	53.710651 
2346.000000	53.716158 
2345.000000	53.719663 
2344.000000	53.719925 
2343.000000	53.715848 
2342.000000	53.707075 
2341.000000	53.693914 
2340.000000	53.677511 
2339.000000	53.659749 
2338.000000	53.642702 
2337.000000	53.628468 
2336.000000	53.618502 
2335.000000	53.613209 
2334.000000	53.611707 
2333.000000	53.612136 
2332.000000	53.611993 
2331.000000	53.609132 
2330.000000	53.602075 
2329.000000	53.590726 
2328.000000	53.576350 
2327.000000	53.561401 
2326.000000	53.548598 
2325.000000	53.540372 
2324.000000	53.538084 
2323.000000	53.541493 
2322.000000	53.548979 
2321.000000	53.557848 
2320.000000	53.565025 
2319.000000	53.567671 
2318.000000	53.563952 
2317.000000	53.553342 
2316.000000	53.536534 
2315.000000	53.515219 
2314.000000	53.491926 
2313.000000	53.469228 
2312.000000	53.449225 
2311.000000	53.433370 
2310.000000	53.422188 
2309.000000	53.415465 
2308.000000	53.412485 
2307.000000	53.411984 
2306.000000	53.412580 
2305.000000	53.413009 
2304.000000	53.412127 
2303.000000	53.409099 
2302.000000	53.403329 
2301.000000	53.394508 
2300.000000	53.382563 
2299.000000	53.367447 
2298.000000	53.349328 
2297.000000	53.328514 
2296.000000	53.305625 
2295.000000	53.281807 
2294.000000	53.258323 
2293.000000	53.236842 
2292.000000	53.218770 
2291.000000	53.205013 
2290.000000	53.195619 
2289.000000	53.189635 
2288.000000	53.185534 
2287.000000	53.181338 
2286.000000	53.175330 
2285.000000	53.166365 
2284.000000	53.154253 
2283.000000	53.139734 
2282.000000	53.124308 
2281.000000	53.109788 
2280.000000	53.097534 
2279.000000	53.088164 
2278.000000	53.081488 
2277.000000	53.076601 
2276.000000	53.072404 
2275.000000	53.067970 
2274.000000	53.062868 
2273.000000	53.057336 
2272.000000	53.051900 
2271.000000	53.047204 
2270.000000	53.043341 
2269.000000	53.039741 
2268.000000	53.035354 
2267.000000	53.028726 
2266.000000	53.018665 
2265.000000	53.004550 
2264.000000	52.986598 
2263.000000	52.965974 
2262.000000	52.944636 
2261.000000	52.924942 
2260.000000	52.909040 
2259.000000	52.898573 
2258.000000	52.894091 
2257.000000	52.895259 
2256.000000	52.900862 
2255.000000	52.909088 
2254.000000	52.917695 
2253.000000	52.924656 
2252.000000	52.928233 
2251.000000	52.927207 
2250.000000	52.921009 
2249.000000	52.909731 
2248.000000	52.894043 
2247.000000	52.875137 
2246.000000	52.854609 
2245.000000	52.834010 
2244.000000	52.814698 
2243.000000	52.797770 
2242.000000	52.783823 
2241.000000	52.773261 
2240.000000	52.766108 
2239.000000	52.762198 
2238.000000	52.760982 
2237.000000	52.761745 
2236.000000	52.763247 
2235.000000	52.764058 
2234.000000	52.762365 
2233.000000	52.756357 
2232.000000	52.744317 
2231.000000	52.725100 
2230.000000	52.698397 
2229.000000	52.665114 
2228.000000	52.627253 
2227.000000	52.587819 
2226.000000	52.550339 
2225.000000	52.518415 
2224.000000	52.494931 
2223.000000	52.481746 
2222.000000	52.479290 
2221.000000	52.486443 
2220.000000	52.500867 
2219.000000	52.519249 
2218.000000	52.537918 
2217.000000	52.553391 
2216.000000	52.562904 
2215.000000	52.564978 
2214.000000	52.559351 
2213.000000	52.547168 
2212.000000	52.530741 
2211.000000	52.512645 
2210.000000	52.495455 
2209.000000	52.480816 
2208.000000	52.469491 
2207.000000	52.460813 
2206.000000	52.453470 
2205.000000	52.445530 
2204.000000	52.435135 
2203.000000	52.421331 
2202.000000	52.404356 
2201.000000	52.385640 
2200.000000	52.367472 
2199.000000	52.352499 
2198.000000	52.342867 
2197.000000	52.339887 
2196.000000	52.343606 
2195.000000	52.352595 
2194.000000	52.364397 
2193.000000	52.376079 
2192.000000	52.384948 
2191.000000	52.388834 
2190.000000	52.386713 
2189.000000	52.378606 
2188.000000	52.365446 
2187.000000	52.348995 
2186.000000	52.330994 
2185.000000	52.313089 
2184.000000	52.296066 
2183.000000	52.280211 
2182.000000	52.264785 
2181.000000	52.248740 
2180.000000	52.230715 
2179.000000	52.209544 
2178.000000	52.184653 
2177.000000	52.156281 
2176.000000	52.125740 
2175.000000	52.095198 
2174.000000	52.067399 
2173.000000	52.044916 
2172.000000	52.029871 
2171.000000	52.023243 
2170.000000	52.024698 
2169.000000	52.032494 
2168.000000	52.044034 
2167.000000	52.056312 
2166.000000	52.066397 
2165.000000	52.072072 
2164.000000	52.072072 
2163.000000	52.066278 
2162.000000	52.055382 
2161.000000	52.040529 
2160.000000	52.023363 
2159.000000	52.005362 
2158.000000	51.987814 
2157.000000	51.971817 
2156.000000	51.958227 
2155.000000	51.947331 
2154.000000	51.939415 
2153.000000	51.934051 
2152.000000	51.930117 
2151.000000	51.926016 
2150.000000	51.919841 
2149.000000	51.910114 
2148.000000	51.895928 
2147.000000	51.877474 
2146.000000	51.856112 
2145.000000	51.833915 
2144.000000	51.813125 
2143.000000	51.795625 
2142.000000	51.782512 
2141.000000	51.773691 
2140.000000	51.768159 
2139.000000	51.764392 
2138.000000	51.760768 
2137.000000	51.756095 
2136.000000	51.750040 
2135.000000	51.742744 
2134.000000	51.734876 
2133.000000	51.726889 
2132.000000	51.719069 
2131.000000	51.710867 
2130.000000	51.701664 
2129.000000	51.690864 
2128.000000	51.678395 
2127.000000	51.665067 
2126.000000	51.652288 
2125.000000	51.641917 
2124.000000	51.635599 
2123.000000	51.634263 
2122.000000	51.637792 
2121.000000	51.644849 
2120.000000	51.653361 
2119.000000	51.660728 
2118.000000	51.664590 
2117.000000	51.663255 
2116.000000	51.655912 
2115.000000	51.642894 
2114.000000	51.625275 
2113.000000	51.604700 
2112.000000	51.582956 
2111.000000	51.561808 
2110.000000	51.542806 
2109.000000	51.527047 
2108.000000	51.515388 
2107.000000	51.507973 
2106.000000	51.504492 
2105.000000	51.503801 
2104.000000	51.503968 
2103.000000	51.502799 
2102.000000	51.498198 
2101.000000	51.488661 
2100.000000	51.473355 
2099.000000	51.452851 
2098.000000	51.428580 
2097.000000	51.403069 
2096.000000	51.378917 
2095.000000	51.358580 
2094.000000	51.343846 
2093.000000	51.335597 
2092.000000	51.333546 
2091.000000	51.336407 
2090.000000	51.342129 
2089.000000	51.348400 
2088.000000	51.352882 
2087.000000	51.353812 
2086.000000	51.349973 
2085.000000	51.340961 
2084.000000	51.327061 
2083.000000	51.309347 
2082.000000	51.289415 
2081.000000	51.269197 
2080.000000	51.250076 
2079.000000	51.232981 
2078.000000	51.217532 
2077.000000	51.202821 
2076.000000	51.186871 
2075.000000	51.167631 
2074.000000	51.143026 
2073.000000	51.111984 
2072.000000	51.074743 
2071.000000	51.032733 
2070.000000	50.988650 
2069.000000	50.945806 
2068.000000	50.907874 
2067.000000	50.878310 
2066.000000	50.859522 
2065.000000	50.852608 
2064.000000	50.856900 
2063.000000	50.870347 
2062.000000	50.889515 
2061.000000	50.910449 
2060.000000	50.929141 
2059.000000	50.942444 
2058.000000	50.948286 
2057.000000	50.946307 
2056.000000	50.937581 
2055.000000	50.924348 
2054.000000	50.909590 
2053.000000	50.896024 
2052.000000	50.885796 
2051.000000	50.879693 
2050.000000	50.877451 
2049.000000	50.877571 
2048.000000	50.877881 
2047.000000	50.875735 
2046.000000	50.869393 
2045.000000	50.857448 
2044.000000	50.839519 
2043.000000	50.816035 
2042.000000	50.788259 
2041.000000	50.757861 
2040.000000	50.726604 
2039.000000	50.696301 
2038.000000	50.668478 
2037.000000	50.644207 
2036.000000	50.624084 
2035.000000	50.608205 
2034.000000	50.596237 
2033.000000	50.587677 
2032.000000	50.581789 
2031.000000	50.577569 
2030.000000	50.573968 
2029.000000	50.570011 
2028.000000	50.564932 
2027.000000	50.557899 
2026.000000	50.548458 
2025.000000	50.536656 
2024.000000	50.523161 
2023.000000	50.508928 
2022.000000	50.495553 
2021.000000	50.484609 
2020.000000	50.477814 
2019.000000	50.476312 
2018.000000	50.480747 
2017.000000	50.491070 
2016.000000	50.506377 
2015.000000	50.525116 
2014.000000	50.545263 
2013.000000	50.564527 
2012.000000	50.580644 
2011.000000	50.591683 
2010.000000	50.596189 
2009.000000	50.593280 
2008.000000	50.582861 
2007.000000	50.565457 
2006.000000	50.542235 
2005.000000	50.514745 
2004.000000	50.484991 
2003.000000	50.454735 
2002.000000	50.425601 
2001.000000	50.398588 
2000.000000	50.374221 
1999.000000	50.352382 
1998.000000	50.332689 
1997.000000	50.314664 
1996.000000	50.297880 
1995.000000	50.282025 
1994.000000	50.267148 
1993.000000	50.253367 
1992.000000	50.240874 
1991.000000	50.229644 
1990.000000	50.219416 
1989.000000	50.209832 
1988.000000	50.200200 
1987.000000	50.189924 
1986.000000	50.178503 
1985.000000	50.165724 
1984.000000	50.151562 
1983.000000	50.136017 
1982.000000	50.119280 
1981.000000	50.101423 
1980.000000	50.082445 
1979.000000	50.062370 
1978.000000	50.041508 
1977.000000	50.020456 
1976.000000	50.000047 
1975.000000	49.981355 
1974.000000	49.965620 
1973.000000	49.953746 
1972.000000	49.946165 
1971.000000	49.942564 
1970.000000	49.942064 
1969.000000	49.943256 
1968.000000	49.944734 
1967.000000	49.945259 
1966.000000	49.944162 
1965.000000	49.941515 
1964.000000	49.937987 
1963.000000	49.934554 
1962.000000	49.932193 
1961.000000	49.931597 
1960.000000	49.932718 
1959.000000	49.934816 
1958.000000	49.936652 
1957.000000	49.936819 
1956.000000	49.933862 
1955.000000	49.926686 
1954.000000	49.914669 
1953.000000	49.897885 
1952.000000	49.876856 
1951.000000	49.852490 
1950.000000	49.825978 
1949.000000	49.798488 
1948.000000	49.771213 
1947.000000	49.745178 
1946.000000	49.721288 
1945.000000	49.700236 
1944.000000	49.682474 
1943.000000	49.668145 
1942.000000	49.656939 
1941.000000	49.648380 
1940.000000	49.641489 
1939.000000	49.635481 
1938.000000	49.629426 
1937.000000	49.622869 
1936.000000	49.615716 
1935.000000	49.608349 
1934.000000	49.601459 
1933.000000	49.596071 
1932.000000	49.593091 
1931.000000	49.593138 
1930.000000	49.596261 
1929.000000	49.601817 
1928.000000	49.608492 
1927.000000	49.614572 
1926.000000	49.618172 
1925.000000	49.617838 
1924.000000	49.612545 
1923.000000	49.602198 
1922.000000	49.587440 
1921.000000	49.569511 
1920.000000	49.549913 
1919.000000	49.530220 
1918.000000	49.511504 
1917.000000	49.494314 
1916.000000	49.478459 
1915.000000	49.463534 
1914.000000	49.448871 
1913.000000	49.433946 
1912.000000	49.418425 
1911.000000	49.402475 
1910.000000	49.386405 
1909.000000	49.370646 
1908.000000	49.355387 
1907.000000	49.340558 
1906.000000	49.325799 
1905.000000	49.310493 
1904.000000	49.294185 
1903.000000	49.276661 
1902.000000	49.258136 
1901.000000	49.239420 
1900.000000	49.221539 
1899.000000	49.205541 
1898.000000	49.192261 
1897.000000	49.181866 
1896.000000	49.173951 
1895.000000	49.167609 
1894.000000	49.161696 
1893.000000	49.155211 
1892.000000	49.147486 
1891.000000	49.138641 
1890.000000	49.129199 
1889.000000	49.120092 
1888.000000	49.112296 
1887.000000	49.106526 
1886.000000	49.102902 
1885.000000	49.100995 
1884.000000	49.099874 
1883.000000	49.098443 
1882.000000	49.095511 
1881.000000	49.090242 
1880.000000	49.082279 
1879.000000	49.071764 
1878.000000	49.059247 
1877.000000	49.045610 
1876.000000	49.031710 
1875.000000	49.018359 
1874.000000	49.006032 
1873.000000	48.994994 
1872.000000	48.985314 
1871.000000	48.977017 
1870.000000	48.969984 
1869.000000	48.964118 
1868.000000	48.959302 
1867.000000	48.955202 
1866.000000	48.951196 
1865.000000	48.946475 
1864.000000	48.940157 
1863.000000	48.931455 
1862.000000	48.919725 
1861.000000	48.904895 
1860.000000	48.887252 
1859.000000	48.867821 
1858.000000	48.847699 
1857.000000	48.828053 
1856.000000	48.809695 
1855.000000	48.792958 
1854.000000	48.777508 
1853.000000	48.762488 
1852.000000	48.746967 
1851.000000	48.730349 
1850.000000	48.712539 
1849.000000	48.694181 
1848.000000	48.676729 
1847.000000	48.662137 
1846.000000	48.652291 
1845.000000	48.648619 
1844.000000	48.651552 
1843.000000	48.660397 
1842.000000	48.673319 
1841.000000	48.687696 
1840.000000	48.700714 
1839.000000	48.709821 
1838.000000	48.713302 
1837.000000	48.710560 
1836.000000	48.701906 
1835.000000	48.688530 
1834.000000	48.672103 
1833.000000	48.654079 
1832.000000	48.635601 
1831.000000	48.616909 
1830.000000	48.597884 
1829.000000	48.577833 
1828.000000	48.556017 
1827.000000	48.531818 
1826.000000	48.505139 
1825.000000	48.476290 
1824.000000	48.445940 
1823.000000	48.414993 
1822.000000	48.384380 
1821.000000	48.354959 
1820.000000	48.327636 
1819.000000	48.303055 
1818.000000	48.281836 
1817.000000	48.264384 
1816.000000	48.250818 
1815.000000	48.240876 
1814.000000	48.234105 
1813.000000	48.229742 
1812.000000	48.227024 
1811.000000	48.224973 
1810.000000	48.222851 
1809.000000	48.220109 
1808.000000	48.216652 
1807.000000	48.212409 
1806.000000	48.207616 
1805.000000	48.202872 
1804.000000	48.198747 
1803.000000	48.195767 
1802.000000	48.194169 
1801.000000	48.193717 
1800.000000	48.193669 
1799.000000	48.192977 
1798.000000	48.190402 
1797.000000	48.184585 
1796.000000	48.174619 
1795.000000	48.160338 
1794.000000	48.142480 
1793.000000	48.122477 
1792.000000	48.102498 
1791.000000	48.084878 
1790.000000	48.071408 
1789.000000	48.062896 
1788.000000	48.059082 
1787.000000	48.058414 
1786.000000	48.058605 
1785.000000	48.056888 
1784.000000	48.050856 
1783.000000	48.038911 
1782.000000	48.020386 
1781.000000	47.995829 
1780.000000	47.966670 
1779.000000	47.935366 
1778.000000	47.904562 
1777.000000	47.877049 
1776.000000	47.855091 
1775.000000	47.840213 
1774.000000	47.833085 
1773.000000	47.833275 
1772.000000	47.839379 
1771.000000	47.849202 
1770.000000	47.860145 
1769.000000	47.869515 
1768.000000	47.874903 
1767.000000	47.874808 
1766.000000	47.868657 
1765.000000	47.856903 
1764.000000	47.840714 
1763.000000	47.821784 
1762.000000	47.801780 
1761.000000	47.782182 
1760.000000	47.763872 
1759.000000	47.747445 
1758.000000	47.732901 
1757.000000	47.720265 
1756.000000	47.709298 
1755.000000	47.699809 
1754.000000	47.691535 
1753.000000	47.683858 
1752.000000	47.676086 
1751.000000	47.667503 
1750.000000	47.657537 
1749.000000	47.645616 
1748.000000	47.631740 
1747.000000	47.616147 
1746.000000	47.599339 
1745.000000	47.582006 
1744.000000	47.564649 
1743.000000	47.547245 
1742.000000	47.529268 
1741.000000	47.510004 
1740.000000	47.488570 
1739.000000	47.464346 
1738.000000	47.437334 
1737.000000	47.408294 
1736.000000	47.378659 
1735.000000	47.350430 
1734.000000	47.325563 
1733.000000	47.305417 
1732.000000	47.290563 
1731.000000	47.280406 
1730.000000	47.273373 
1729.000000	47.267341 
1728.000000	47.259902 
1727.000000	47.249031 
1726.000000	47.233438 
1725.000000	47.213196 
1724.000000	47.189164 
1723.000000	47.163438 
1722.000000	47.138571 
1721.000000	47.117400 
1720.000000	47.102570 
1719.000000	47.096300 
1718.000000	47.099661 
1717.000000	47.112727 
1716.000000	47.134423 
1715.000000	47.162413 
1714.000000	47.193431 
1713.000000	47.223615 
1712.000000	47.248935 
1711.000000	47.265982 
1710.000000	47.272491 
1709.000000	47.267603 
1708.000000	47.252082 
1707.000000	47.228431 
1706.000000	47.200226 
1705.000000	47.171306 
1704.000000	47.145295 
1703.000000	47.124814 
1702.000000	47.111129 
1701.000000	47.104215 
1700.000000	47.102761 
1699.000000	47.104907 
1698.000000	47.108435 
1697.000000	47.111439 
1696.000000	47.112417 
1695.000000	47.110366 
1694.000000	47.104740 
1693.000000	47.095251 
1692.000000	47.081661 
1691.000000	47.063970 
1690.000000	47.042250 
1689.000000	47.016906 
1688.000000	46.988844 
1687.000000	46.959471 
1686.000000	46.930789 
1685.000000	46.905040 
1684.000000	46.884322 
1683.000000	46.870160 
1682.000000	46.863436 
1681.000000	46.863842 
1680.000000	46.870040 
1679.000000	46.879720 
1678.000000	46.889972 
1677.000000	46.897602 
1676.000000	46.899724 
1675.000000	46.894216 
1674.000000	46.880102 
1673.000000	46.857666 
1672.000000	46.828460 
1671.000000	46.794843 
1670.000000	46.759724 
1669.000000	46.726012 
1668.000000	46.696043 
1667.000000	46.671533 
1666.000000	46.653175 
1665.000000	46.640729 
1664.000000	46.633243 
1663.000000	46.629166 
1662.000000	46.626782 
1661.000000	46.624279 
1660.000000	46.620297 
1659.000000	46.613717 
1658.000000	46.604132 
1657.000000	46.591806 
1656.000000	46.577715 
1655.000000	46.563410 
1654.000000	46.550750 
1653.000000	46.541619 
1652.000000	46.537351 
1651.000000	46.538662 
1650.000000	46.545147 
1649.000000	46.555280 
1648.000000	46.566629 
1647.000000	46.576547 
1646.000000	46.582651 
1645.000000	46.583056 
1644.000000	46.576976 
1643.000000	46.564745 
1642.000000	46.547651 
1641.000000	46.527528 
1640.000000	46.506404 
1639.000000	46.485829 
1638.000000	46.466875 
1637.000000	46.450066 
1636.000000	46.435427 
1635.000000	46.422624 
1634.000000	46.411347 
1633.000000	46.401381 
1632.000000	46.392679 
1631.000000	46.385335 
1630.000000	46.379280 
1629.000000	46.374011 
1628.000000	46.368598 
1627.000000	46.361708 
1626.000000	46.351885 
1625.000000	46.337723 
1624.000000	46.318292 
1623.000000	46.293354 
1622.000000	46.263527 
1621.000000	46.230340 
1620.000000	46.195721 
1619.000000	46.162104 
1618.000000	46.131658 
1617.000000	46.106362 
1616.000000	46.087574 
1615.000000	46.075868 
1614.000000	46.071052 
1613.000000	46.072149 
1612.000000	46.077466 
1611.000000	46.084856 
1610.000000	46.091938 
1609.000000	46.096348 
1608.000000	46.096277 
1607.000000	46.090626 
1606.000000	46.079039 
1605.000000	46.062254 
1604.000000	46.041703 
1603.000000	46.019244 
1602.000000	45.996809 
1601.000000	45.976066 
1600.000000	45.957970 
1599.000000	45.942807 
1598.000000	45.930290 
1597.000000	45.919632 
1596.000000	45.909857 
1595.000000	45.900249 
1594.000000	45.890450 
1593.000000	45.880293 
1592.000000	45.870137 
1591.000000	45.860600 
1590.000000	45.852470 
1589.000000	45.846486 
1588.000000	45.843338 
1587.000000	45.843625 
1586.000000	45.847296 
1585.000000	45.853781 
1584.000000	45.861744 
1583.000000	45.869278 
1582.000000	45.874094 
1581.000000	45.873975 
1580.000000	45.867109 
1579.000000	45.852494 
1578.000000	45.830273 
1577.000000	45.801830 
1576.000000	45.769572 
1575.000000	45.736527 
1574.000000	45.705533 
1573.000000	45.679020 
1572.000000	45.658469 
1571.000000	45.644068 
1570.000000	45.635128 
1569.000000	45.630145 
1568.000000	45.627355 
1567.000000	45.625162 
1566.000000	45.622277 
1565.000000	45.618224 
1564.000000	45.612812 
1563.000000	45.606398 
1562.000000	45.599603 
1561.000000	45.593023 
1560.000000	45.587182 
1559.000000	45.582056 
1558.000000	45.577192 
1557.000000	45.571780 
1556.000000	45.564699 
1555.000000	45.554852 
1554.000000	45.541524 
1553.000000	45.524287 
1552.000000	45.503306 
1551.000000	45.479321 
1550.000000	45.453381 
1549.000000	45.426774 
1548.000000	45.400571 
1547.000000	45.375704 
1546.000000	45.352602 
1545.000000	45.331668 
1544.000000	45.312857 
1543.000000	45.295739 
1542.000000	45.279860 
1541.000000	45.264673 
1540.000000	45.249867 
1539.000000	45.235013 
1538.000000	45.220327 
1537.000000	45.205926 
1536.000000	45.192527 
1535.000000	45.181012 
1534.000000	45.172452 
1533.000000	45.167684 
1532.000000	45.166993 
1531.000000	45.170021 
1530.000000	45.175361 
1529.000000	45.180916 
1528.000000	45.183968 
1527.000000	45.181679 
1526.000000	45.171761 
1525.000000	45.152831 
1524.000000	45.125031 
1523.000000	45.090055 
1522.000000	45.050787 
1521.000000	45.011019 
1520.000000	44.974637 
1519.000000	44.945168 
1518.000000	44.925069 
1517.000000	44.915437 
1516.000000	44.915771 
1515.000000	44.924235 
1514.000000	44.938111 
1513.000000	44.954299 
1512.000000	44.969606 
1511.000000	44.981527 
1510.000000	44.988274 
1509.000000	44.989132 
1508.000000	44.984245 
1507.000000	44.974708 
1506.000000	44.962143 
1505.000000	44.948506 
1504.000000	44.935750 
1503.000000	44.925451 
1502.000000	44.918680 
1501.000000	44.915318 
1500.000000	44.914340 
1499.000000	44.913601 
1498.000000	44.910478 
1497.000000	44.902443 
1496.000000	44.887375 
1495.000000	44.864368 
1494.000000	44.833970 
1493.000000	44.798064 
1492.000000	44.759821 
1491.000000	44.722795 
1490.000000	44.690322 
1489.000000	44.664883 
1488.000000	44.647669 
1487.000000	44.638204 
1486.000000	44.634819 
1485.000000	44.634962 
1484.000000	44.635987 
1483.000000	44.635391 
1482.000000	44.631910 
1481.000000	44.625234 
1480.000000	44.616508 
1479.000000	44.607353 
1478.000000	44.599890 
1477.000000	44.595766 
1476.000000	44.595885 
1475.000000	44.600152 
1474.000000	44.607305 
1473.000000	44.615030 
1472.000000	44.620490 
1471.000000	44.621062 
1470.000000	44.614648 
1469.000000	44.600272 
1468.000000	44.577908 
1467.000000	44.548654 
1466.000000	44.514298 
1465.000000	44.476866 
1464.000000	44.438290 
1463.000000	44.399976 
1462.000000	44.362998 
1461.000000	44.327998 
1460.000000	44.295334 
1459.000000	44.265508 
1458.000000	44.238948 
1457.000000	44.216513 
1456.000000	44.198846 
1455.000000	44.186735 
1454.000000	44.180440 
1453.000000	44.180130 
1452.000000	44.185209 
1451.000000	44.195103 
1450.000000	44.209027 
1449.000000	44.226312 
1448.000000	44.246244 
1447.000000	44.267964 
1446.000000	44.290375 
1445.000000	44.312000 
1444.000000	44.330906 
1443.000000	44.344878 
1442.000000	44.351577 
1441.000000	44.349193 
1440.000000	44.336605 
1439.000000	44.313502 
1438.000000	44.280457 
1437.000000	44.238996 
1436.000000	44.191122 
1435.000000	44.139337 
1434.000000	44.086146 
1433.000000	44.034099 
1432.000000	43.985605 
1431.000000	43.942904 
1430.000000	43.907880 
1429.000000	43.881964 
1428.000000	43.865942 
1427.000000	43.859529 
1426.000000	43.861484 
1425.000000	43.869280 
1424.000000	43.879818 
1423.000000	43.889737 
1422.000000	43.895983 
1421.000000	43.896245 
1420.000000	43.889617 
1419.000000	43.876528 
1418.000000	43.858718 
1417.000000	43.838691 
1416.000000	43.819427 
1415.000000	43.803763 
1414.000000	43.793821 
1413.000000	43.790507 
1412.000000	43.793439 
1411.000000	43.801093 
1410.000000	43.810987 
1409.000000	43.820381 
1408.000000	43.826532 
1407.000000	43.827533 
1406.000000	43.822336 
1405.000000	43.811106 
1404.000000	43.794775 
1403.000000	43.774628 
1402.000000	43.752288 
1401.000000	43.729186 
1400.000000	43.706178 
1399.000000	43.683695 
1398.000000	43.661689 
1397.000000	43.640065 
1396.000000	43.619084 
1395.000000	43.599152 
1394.000000	43.581032 
1393.000000	43.565320 
1392.000000	43.552494 
1391.000000	43.542456 
1390.000000	43.534326 
1389.000000	43.526744 
1388.000000	43.517923 
1387.000000	43.506336 
1386.000000	43.491220 
1385.000000	43.472528 
1384.000000	43.451189 
1383.000000	43.428897 
1382.000000	43.407702 
1381.000000	43.389749 
1380.000000	43.376326 
1379.000000	43.367958 
1378.000000	43.363857 
1377.000000	43.362617 
1376.000000	43.361711 
1375.000000	43.358492 
1374.000000	43.350148 
1373.000000	43.334555 
1372.000000	43.310379 
1371.000000	43.277430 
1370.000000	43.236851 
1369.000000	43.190693 
1368.000000	43.142318 
1367.000000	43.095564 
1366.000000	43.054652 
1365.000000	43.023252 
1364.000000	43.004393 
1363.000000	42.999672 
1362.000000	43.009090 
1361.000000	43.030929 
1360.000000	43.061876 
1359.000000	43.097710 
1358.000000	43.133831 
1357.000000	43.165802 
1356.000000	43.190121 
1355.000000	43.204474 
1354.000000	43.207716 
1353.000000	43.199825 
1352.000000	43.181800 
1351.000000	43.155145 
1350.000000	43.121647 
1349.000000	43.083095 
1348.000000	43.041729 
1347.000000	42.999672 
1346.000000	42.959260 
1345.000000	42.922592 
1344.000000	42.891716 
1343.000000	42.868185 
1342.000000	42.852783 
1341.000000	42.845487 
1340.000000	42.845106 
1339.000000	42.849826 
1338.000000	42.857217 
1337.000000	42.864823 
1336.000000	42.870545 
1335.000000	42.872905 
1334.000000	42.871165 
1333.000000	42.865395 
1332.000000	42.856359 
1331.000000	42.845320 
1330.000000	42.833781 
1329.000000	42.823052 
1328.000000	42.813992 
1327.000000	42.807149 
1326.000000	42.802429 
1325.000000	42.799258 
1324.000000	42.796659 
1323.000000	42.793607 
1322.000000	42.789387 
1321.000000	42.783379 
1320.000000	42.775607 
1319.000000	42.766213 
1318.000000	42.755794 
1317.000000	42.745137 
1316.000000	42.734718 
1315.000000	42.724609 
1314.000000	42.714571 
1313.000000	42.704105 
1312.000000	42.692542 
1311.000000	42.679286 
1310.000000	42.663955 
1309.000000	42.646598 
1308.000000	42.627501 
1307.000000	42.607212 
1306.000000	42.586183 
1305.000000	42.564702 
1304.000000	42.542815 
1303.000000	42.520380 
1302.000000	42.497229 
1301.000000	42.473292 
1300.000000	42.448878 
1299.000000	42.424535 
1298.000000	42.401194 
1297.000000	42.379808 
1296.000000	42.361068 
1295.000000	42.345309 
1294.000000	42.332243 
1293.000000	42.321348 
1292.000000	42.312073 
1291.000000	42.304277 
1290.000000	42.297863 
1289.000000	42.293286 
1288.000000	42.291259 
1287.000000	42.292284 
1286.000000	42.296338 
1285.000000	42.302727 
1284.000000	42.310118 
1283.000000	42.316842 
1282.000000	42.321205 
1281.000000	42.322015 
1280.000000	42.318987 
1279.000000	42.312812 
1278.000000	42.304944 
1277.000000	42.297220 
1276.000000	42.291283 
1275.000000	42.288351 
1274.000000	42.288661 
1273.000000	42.291760 
1272.000000	42.296218 
1271.000000	42.300653 
1270.000000	42.303371 
1269.000000	42.303228 
1268.000000	42.299008 
1267.000000	42.290019 
1266.000000	42.275500 
1265.000000	42.254829 
1264.000000	42.227482 
1263.000000	42.193365 
1262.000000	42.153143 
1261.000000	42.108535 
1260.000000	42.062187 
1259.000000	42.017459 
1258.000000	41.977643 
1257.000000	41.945576 
1256.000000	41.922569 
1255.000000	41.908335 
1254.000000	41.901206 
1253.000000	41.898775 
1252.000000	41.898488 
1251.000000	41.898488 
1250.000000	41.897940 
1249.000000	41.897249 
1248.000000	41.897559 
1247.000000	41.900134 
1246.000000	41.905713 
1245.000000	41.914057 
1244.000000	41.923689 
1243.000000	41.932439 
1242.000000	41.937923 
1241.000000	41.938018 
1240.000000	41.931796 
1239.000000	41.919279 
1238.000000	41.901946 
1237.000000	41.881728 
1236.000000	41.860675 
1235.000000	41.840076 
1234.000000	41.820311 
1233.000000	41.800737 
1232.000000	41.780209 
1231.000000	41.757512 
1230.000000	41.731858 
1229.000000	41.703534 
1228.000000	41.674089 
1227.000000	41.645884 
1226.000000	41.621828 
1225.000000	41.604471 
1224.000000	41.595578 
1223.000000	41.595363 
1222.000000	41.602635 
1221.000000	41.614842 
1220.000000	41.628575 
1219.000000	41.640472 
1218.000000	41.647577 
1217.000000	41.647934 
1216.000000	41.640496 
1215.000000	41.625380 
1214.000000	41.603469 
1213.000000	41.576218 
1212.000000	41.545224 
1211.000000	41.512179 
1210.000000	41.478610 
1209.000000	41.446232 
1208.000000	41.416501 
1207.000000	41.390776 
1206.000000	41.370010 
1205.000000	41.354727 
1204.000000	41.344594 
1203.000000	41.338276 
1202.000000	41.333746 
1201.000000	41.328644 
1200.000000	41.320776 
1199.000000	41.308474 
1198.000000	41.291046 
1197.000000	41.268968 
1196.000000	41.243362 
1195.000000	41.215705 
1194.000000	41.187214 
1193.000000	41.158699 
1192.000000	41.130232 
1191.000000	41.101527 
1190.000000	41.072034 
1189.000000	41.041779 
1188.000000	41.011309 
1187.000000	40.982270 
1186.000000	40.956735 
1185.000000	40.937232 
1184.000000	40.925908 
1183.000000	40.924406 
1182.000000	40.932703 
1181.000000	40.949726 
1180.000000	40.973091 
1179.000000	40.999841 
1178.000000	41.026830 
1177.000000	41.051483 
1176.000000	41.072058 
1175.000000	41.087937 
1174.000000	41.099286 
1173.000000	41.106772 
1172.000000	41.111183 
1171.000000	41.112995 
1170.000000	41.112112 
1169.000000	41.107821 
1168.000000	41.099166 
1167.000000	41.085481 
1166.000000	41.066622 
1165.000000	41.043329 
1164.000000	41.017103 
1163.000000	40.990352 
1162.000000	40.965557 
1161.000000	40.944910 
1160.000000	40.929770 
1159.000000	40.920543 
1158.000000	40.916419 
1157.000000	40.915417 
1156.000000	40.915131 
1155.000000	40.913319 
1154.000000	40.907907 
1153.000000	40.897512 
1152.000000	40.881276 
1151.000000	40.859222 
1150.000000	40.831470 
1149.000000	40.798211 
1148.000000	40.759587 
1147.000000	40.715980 
1146.000000	40.668487 
1145.000000	40.619397 
1144.000000	40.571570 
1143.000000	40.528345 
1142.000000	40.493416 
1141.000000	40.469956 
1140.000000	40.459203 
1139.000000	40.460467 
1138.000000	40.471124 
1137.000000	40.487456 
1136.000000	40.504813 
1135.000000	40.519571 
1134.000000	40.529489 
1133.000000	40.535020 
1132.000000	40.538263 
1131.000000	40.543317 
1130.000000	40.554189 
1129.000000	40.574741 
1128.000000	40.606832 
1127.000000	40.650558 
1126.000000	40.704250 
1125.000000	40.764689 
1124.000000	40.827822 
1123.000000	40.888953 
1122.000000	40.943384 
1121.000000	40.986180 
1120.000000	41.012716 
1119.000000	41.018247 
1118.000000	40.998530 
1117.000000	40.950751 
1116.000000	40.874147 
1115.000000	40.771007 
1114.000000	40.646696 
1113.000000	40.509700 
1112.000000	40.370345 
1111.000000	40.239167 
1110.000000	40.125417 
1109.000000	40.035295 
1108.000000	39.971709 
1107.000000	39.934086 
1106.000000	39.919137 
1105.000000	39.921498 
1104.000000	39.934992 
1103.000000	39.953470 
1102.000000	39.971661 
1101.000000	39.984679 
1100.000000	39.989280 
1099.000000	39.983367 
1098.000000	39.966630 
1097.000000	39.940047 
1096.000000	39.906358 
1095.000000	39.869570 
1094.000000	39.834165 
1093.000000	39.804029 
1092.000000	39.781403 
1091.000000	39.766383 
1090.000000	39.756631 
1089.000000	39.748287 
1088.000000	39.736938 
1087.000000	39.719104 
1086.000000	39.693832 
1085.000000	39.662694 
1084.000000	39.628982 
1083.000000	39.596915 
1082.000000	39.570760 
1081.000000	39.553284 
1080.000000	39.544367 
1079.000000	39.541912 
1078.000000	39.542675 
1077.000000	39.543151 
1076.000000	39.540767 
1075.000000	39.534378 
1074.000000	39.524507 
1073.000000	39.512658 
1072.000000	39.500308 
1071.000000	39.488053 
1070.000000	39.475011 
1069.000000	39.459848 
1068.000000	39.441442 
1067.000000	39.419817 
1066.000000	39.396572 
1065.000000	39.374876 
1064.000000	39.358639 
1063.000000	39.351439 
1062.000000	39.355683 
1061.000000	39.371514 
1060.000000	39.397096 
1059.000000	39.429283 
1058.000000	39.464473 
1057.000000	39.499807 
1056.000000	39.533495 
1055.000000	39.565491 
1054.000000	39.596271 
1053.000000	39.625930 
1052.000000	39.653182 
1051.000000	39.675331 
1050.000000	39.688253 
1049.000000	39.687848 
1048.000000	39.670658 
1047.000000	39.635705 
1046.000000	39.584112 
1045.000000	39.519762 
1044.000000	39.447903 
1043.000000	39.374041 
1042.000000	39.303660 
1041.000000	39.241361 
1040.000000	39.190578 
1039.000000	39.153647 
1038.000000	39.131689 
1037.000000	39.124894 
1036.000000	39.132213 
1035.000000	39.152216 
1034.000000	39.182782 
1033.000000	39.221930 
1032.000000	39.267039 
1031.000000	39.315772 
1030.000000	39.366006 
1029.000000	39.415693 
1028.000000	39.463019 
1027.000000	39.505624 
1026.000000	39.541244 
1025.000000	39.566612 
1024.000000	39.578509 
1023.000000	39.573240 
1022.000000	39.548134 
1021.000000	39.501619 
1020.000000	39.434599 
1019.000000	39.350295 
1018.000000	39.254236 
1017.000000	39.153861 
1016.000000	39.057517 
1015.000000	38.973283 
1014.000000	38.907766 
1013.000000	38.865137 
1012.000000	38.846516 
1011.000000	38.849592 
1010.000000	38.869166 
1009.000000	38.897800 
1008.000000	38.927483 
1007.000000	38.950657 
1006.000000	38.961958 
1005.000000	38.958382 
1004.000000	38.940119 
1003.000000	38.909888 
1002.000000	38.872599 
1001.000000	38.833522 
1000.000000	38.797783 
999.000000	 38.769507 
998.000000	 38.750958 
997.000000	 38.742542 
996.000000	 38.742971 
995.000000	 38.750076 
994.000000	 38.761138 
993.000000	 38.773536 
992.000000	 38.785171 
991.000000	 38.794755 
990.000000	 38.801813 
989.000000	 38.806271 
988.000000	 38.808012 
987.000000	 38.806366 
986.000000	 38.800501 
985.000000	 38.789391 
984.000000	 38.771772 
983.000000	 38.746571 
982.000000	 38.713717 
981.000000	 38.674449 
980.000000	 38.631343 
979.000000	 38.587808 
978.000000	 38.547897 
977.000000	 38.515233 
976.000000	 38.492465 
975.000000	 38.480353 
974.000000	 38.477945 
973.000000	 38.482356 
972.000000	 38.489627 
971.000000	 38.495421 
970.000000	 38.495874 
969.000000	 38.488173 
968.000000	 38.470745 
967.000000	 38.443756 
966.000000	 38.408350 
965.000000	 38.367033 
964.000000	 38.322830 
963.000000	 38.279390 
962.000000	 38.240242 
961.000000	 38.208818 
960.000000	 38.188076 
959.000000	 38.180065 
958.000000	 38.185191 
957.000000	 38.202309 
956.000000	 38.228702 
955.000000	 38.260126 
954.000000	 38.291668 
953.000000	 38.318467 
952.000000	 38.336873 
951.000000	 38.345122 
950.000000	 38.343405 
949.000000	 38.333749 
948.000000	 38.318848 
947.000000	 38.301944 
946.000000	 38.285231 
945.000000	 38.269829 
944.000000	 38.255214 
943.000000	 38.240003 
942.000000	 38.222289 
941.000000	 38.200879 
940.000000	 38.175559 
939.000000	 38.147449 
938.000000	 38.118553 
937.000000	 38.091444 
936.000000	 38.068056 
935.000000	 38.049149 
934.000000	 38.033652 
933.000000	 38.018727 
932.000000	 38.000464 
931.000000	 37.975144 
930.000000	 37.940287 
929.000000	 37.895774 
928.000000	 37.844038 
927.000000	 37.789893 
926.000000	 37.739753 
925.000000	 37.700080 
924.000000	 37.675833 
923.000000	 37.669396 
922.000000	 37.680101 
921.000000	 37.704110 
920.000000	 37.735271 
919.000000	 37.766218 
918.000000	 37.790036 
917.000000	 37.801384 
916.000000	 37.797164 
915.000000	 37.777328 
914.000000	 37.744116 
913.000000	 37.701869 
912.000000	 37.655901 
911.000000	 37.611556 
910.000000	 37.573385 
909.000000	 37.544226 
908.000000	 37.525296 
907.000000	 37.515640 
906.000000	 37.512755 
905.000000	 37.512969 
904.000000	 37.512373 
903.000000	 37.507343 
902.000000	 37.495541 
901.000000	 37.476158 
900.000000	 37.450122 
899.000000	 37.419962 
898.000000	 37.389183 
897.000000	 37.361359 
896.000000	 37.339520 
895.000000	 37.325406 
894.000000	 37.319111 
893.000000	 37.319421 
892.000000	 37.324047 
891.000000	 37.330412 
890.000000	 37.336111 
889.000000	 37.339448 
888.000000	 37.339663 
887.000000	 37.336993 
886.000000	 37.332034 
885.000000	 37.325263 
884.000000	 37.316846 
883.000000	 37.306427 
882.000000	 37.293243 
881.000000	 37.276673 
880.000000	 37.256360 
879.000000	 37.232732 
878.000000	 37.207031 
877.000000	 37.181329 
876.000000	 37.157607 
875.000000	 37.137532 
874.000000	 37.121582 
873.000000	 37.109303 
872.000000	 37.099599 
871.000000	 37.091302 
870.000000	 37.083482 
869.000000	 37.075829 
868.000000	 37.068819 
867.000000	 37.063479 
866.000000	 37.060904 
865.000000	 37.061572 
864.000000	 37.065029 
863.000000	 37.069511 
862.000000	 37.072491 
861.000000	 37.070822 
860.000000	 37.061810 
859.000000	 37.043571 
858.000000	 37.015652 
857.000000	 36.979365 
856.000000	 36.937880 
855.000000	 36.895442 
854.000000	 36.856579 
853.000000	 36.825251 
852.000000	 36.804056 
851.000000	 36.793518 
850.000000	 36.791992 
849.000000	 36.795592 
848.000000	 36.798977 
847.000000	 36.796307 
846.000000	 36.782717 
845.000000	 36.755299 
844.000000	 36.714243 
843.000000	 36.662697 
842.000000	 36.606431 
841.000000	 36.552524 
840.000000	 36.507749 
839.000000	 36.477351 
838.000000	 36.463427 
837.000000	 36.465167 
836.000000	 36.478352 
835.000000	 36.496806 
834.000000	 36.513328 
833.000000	 36.521172 
832.000000	 36.515545 
831.000000	 36.493968 
830.000000	 36.457324 
829.000000	 36.409235 
828.000000	 36.355543 
827.000000	 36.302828 
826.000000	 36.257171 
825.000000	 36.222887 
824.000000	 36.201691 
823.000000	 36.192417 
822.000000	 36.191534 
821.000000	 36.194109 
820.000000	 36.194682 
819.000000	 36.188888 
818.000000	 36.173963 
817.000000	 36.149835 
816.000000	 36.118292 
815.000000	 36.083245 
814.000000	 36.049461 
813.000000	 36.021876 
812.000000	 36.004400 
811.000000	 35.999083 
810.000000	 36.005568 
809.000000	 36.021018 
808.000000	 36.040854 
807.000000	 36.059379 
806.000000	 36.071228 
805.000000	 36.072206 
804.000000	 36.059999 
803.000000	 36.034774 
802.000000	 35.998940 
801.000000	 35.956430 
800.000000	 35.911798 
799.000000	 35.869169 
798.000000	 35.831451 
797.000000	 35.799860 
796.000000	 35.773897 
795.000000	 35.751342 
794.000000	 35.729122 
793.000000	 35.704064 
792.000000	 35.674023 
791.000000	 35.638546 
790.000000	 35.599446 
789.000000	 35.559773 
788.000000	 35.523653 
787.000000	 35.495519 
786.000000	 35.478734 
785.000000	 35.474681 
784.000000	 35.481929 
783.000000	 35.496616 
782.000000	 35.512781 
781.000000	 35.523581 
780.000000	 35.522699 
779.000000	 35.505819 
778.000000	 35.471487 
777.000000	 35.421180 
776.000000	 35.359501 
775.000000	 35.292887 
774.000000	 35.228586 
773.000000	 35.173201 
772.000000	 35.131907 
771.000000	 35.107374 
770.000000	 35.099649 
769.000000	 35.106277 
768.000000	 35.122227 
767.000000	 35.140681 
766.000000	 35.153865 
765.000000	 35.154318 
764.000000	 35.135579 
763.000000	 35.093951 
762.000000	 35.029029 
761.000000	 34.944319 
760.000000	 34.846782 
759.000000	 34.745383 
758.000000	 34.650301 
757.000000	 34.569811 
756.000000	 34.509110 
755.000000	 34.468913 
754.000000	 34.445619 
753.000000	 34.432578 
752.000000	 34.421753 
751.000000	 34.406685 
750.000000	 34.383416 
749.000000	 34.352588 
748.000000	 34.318518 
747.000000	 34.288191 
746.000000	 34.268474 
745.000000	 34.264302 
744.000000	 34.276795 
743.000000	 34.302759 
742.000000	 34.335589 
741.000000	 34.366798 
740.000000	 34.388470 
739.000000	 34.395503 
738.000000	 34.387159 
737.000000	 34.366750 
736.000000	 34.340810 
735.000000	 34.317016 
734.000000	 34.302020 
733.000000	 34.299492 
732.000000	 34.308981 
731.000000	 34.326815 
730.000000	 34.346342 
729.000000	 34.360551 
728.000000	 34.363269 
727.000000	 34.351325 
726.000000	 34.324574 
725.000000	 34.285712 
724.000000	 34.239315 
723.000000	 34.190392 
722.000000	 34.143018 
721.000000	 34.099483 
720.000000	 34.060072 
719.000000	 34.023618 
718.000000	 33.988356 
717.000000	 33.953142 
716.000000	 33.918046 
715.000000	 33.884644 
714.000000	 33.855676 
713.000000	 33.834457 
712.000000	 33.823561 
711.000000	 33.824253 
710.000000	 33.835983 
709.000000	 33.856272 
708.000000	 33.880996 
707.000000	 33.904981 
706.000000	 33.923268 
705.000000	 33.931660 
704.000000	 33.927226 
703.000000	 33.908772 
702.000000	 33.876872 
701.000000	 33.833479 
700.000000	 33.781504 
699.000000	 33.724308 
698.000000	 33.665657 
697.000000	 33.608675 
696.000000	 33.555793 
695.000000	 33.508729 
694.000000	 33.468818 
693.000000	 33.436846 
692.000000	 33.413243 
691.000000	 33.397936 
690.000000	 33.390545 
689.000000	 33.390450 
688.000000	 33.396720 
687.000000	 33.408236 
686.000000	 33.423447 
685.000000	 33.440685 
684.000000	 33.457827 
683.000000	 33.472418 
682.000000	 33.481550 
681.000000	 33.482551 
680.000000	 33.472824 
679.000000	 33.450794 
678.000000	 33.415699 
677.000000	 33.368277 
676.000000	 33.310055 
675.000000	 33.243799 
674.000000	 33.171939 
673.000000	 33.096837 
672.000000	 33.019852 
671.000000	 32.941937 
670.000000	 32.863426 
669.000000	 32.784652 
668.000000	 32.706618 
667.000000	 32.631325 
666.000000	 32.562041 
665.000000	 32.502532 
664.000000	 32.456564 
663.000000	 32.426857 
662.000000	 32.414221 
661.000000	 32.417130 
660.000000	 32.432031 
659.000000	 32.453989 
658.000000	 32.477450 
657.000000	 32.497525 
656.000000	 32.510685 
655.000000	 32.515358 
654.000000	 32.511639 
653.000000	 32.501029 
652.000000	 32.485651 
651.000000	 32.467460 
650.000000	 32.447838 
649.000000	 32.426619 
648.000000	 32.402849 
647.000000	 32.374453 
646.000000	 32.339715 
645.000000	 32.297134 
644.000000	 32.246136 
643.000000	 32.187509 
642.000000	 32.123684 
641.000000	 32.058072 
640.000000	 31.994509 
639.000000	 31.936669 
638.000000	 31.887507 
637.000000	 31.848573 
636.000000	 31.819891 
635.000000	 31.800103 
634.000000	 31.786704 
633.000000	 31.776714 
632.000000	 31.767201 
631.000000	 31.755757 
630.000000	 31.740641 
629.000000	 31.721210 
628.000000	 31.697678 
627.000000	 31.670188 
626.000000	 31.639099 
625.000000	 31.604599 
624.000000	 31.567215 
623.000000	 31.527376 
622.000000	 31.486392 
621.000000	 31.446480 
620.000000	 31.410598 
619.000000	 31.382393 
618.000000	 31.364917 
617.000000	 31.359863 
616.000000	 31.366491 
615.000000	 31.381702 
614.000000	 31.399774 
613.000000	 31.413459 
612.000000	 31.415438 
611.000000	 31.400132 
610.000000	 31.365013 
609.000000	 31.311249 
608.000000	 31.243562 
607.000000	 31.169009 
606.000000	 31.094932 
605.000000	 31.027078 
604.000000	 30.968356 
603.000000	 30.918431 
602.000000	 30.874443 
601.000000	 30.832290 
600.000000	 30.788135 
599.000000	 30.739903 
598.000000	 30.687928 
597.000000	 30.635142 
596.000000	 30.585050 
595.000000	 30.542230 
594.000000	 30.510139 
593.000000	 30.491185 
592.000000	 30.485606 
591.000000	 30.492091 
590.000000	 30.508136 
589.000000	 30.530524 
588.000000	 30.555725 
587.000000	 30.579829 
586.000000	 30.599021 
585.000000	 30.609583 
584.000000	 30.608010 
583.000000	 30.591702 
582.000000	 30.559396 
581.000000	 30.511784 
580.000000	 30.451488 
579.000000	 30.383133 
578.000000	 30.312371 
577.000000	 30.244851 
576.000000	 30.184888 
575.000000	 30.134654 
574.000000	 30.093622 
573.000000	 30.058884 
572.000000	 30.025410 
571.000000	 29.988098 
570.000000	 29.942274 
569.000000	 29.885101 
568.000000	 29.816102 
567.000000	 29.736900 
566.000000	 29.651093 
565.000000	 29.563188 
564.000000	 29.478192 
563.000000	 29.399895 
562.000000	 29.331421 
561.000000	 29.274678 
560.000000	 29.230332 
559.000000	 29.197740 
558.000000	 29.175496 
557.000000	 29.161643 
556.000000	 29.153776 
555.000000	 29.149150 
554.000000	 29.144811 
553.000000	 29.137349 
552.000000	 29.123401 
551.000000	 29.099631 
550.000000	 29.062891 
549.000000	 29.010534 
548.000000	 28.940749 
547.000000	 28.853201 
546.000000	 28.749108 
545.000000	 28.631877 
544.000000	 28.507280 
543.000000	 28.383278 
542.000000	 28.268504 
541.000000	 28.171896 
540.000000	 28.100943 
539.000000	 28.061342 
538.000000	 28.054499 
537.000000	 28.079247 
536.000000	 28.131222 
535.000000	 28.204703 
534.000000	 28.292536 
533.000000	 28.387904 
532.000000	 28.484058 
531.000000	 28.575015 
530.000000	 28.655385 
529.000000	 28.719782 
528.000000	 28.762841 
527.000000	 28.779649 
526.000000	 28.766632 
525.000000	 28.721952 
524.000000	 28.645920 
523.000000	 28.542399 
522.000000	 28.417706 
521.000000	 28.279852 
520.000000	 28.136372 
519.000000	 27.994322 
518.000000	 27.858352 
517.000000	 27.730655 
516.000000	 27.610611 
515.000000	 27.496242 
514.000000	 27.384829 
513.000000	 27.273797 
512.000000	 27.162051 
511.000000	 27.049446 
510.000000	 26.938533 
509.000000	 26.832723 
508.000000	 26.737189 
507.000000	 26.656341 
506.000000	 26.594471 
505.000000	 26.553893 
504.000000	 26.535081 
503.000000	 26.535367 
502.000000	 26.550936 
501.000000	 26.577472 
500.000000	 26.610755 
499.000000	 26.647090 
498.000000	 26.684403 
497.000000	 26.722025 
496.000000	 26.760172 
495.000000	 26.799058 
494.000000	 26.838850 
493.000000	 26.878428 
492.000000	 26.915192 
491.000000	 26.944351 
490.000000	 26.960682 
489.000000	 26.958322 
488.000000	 26.932859 
487.000000	 26.881742 
486.000000	 26.806044 
485.000000	 26.709985 
484.000000	 26.602268 
483.000000	 26.492643 
482.000000	 26.390504 
481.000000	 26.302742 
480.000000	 26.233220 
479.000000	 26.181340 
478.000000	 26.142668 
477.000000	 26.110649 
476.000000	 26.078367 
475.000000	 26.041412 
474.000000	 25.998902 
473.000000	 25.953698 
472.000000	 25.910735 
471.000000	 25.875568 
470.000000	 25.851154 
469.000000	 25.836515 
468.000000	 25.824761 
467.000000	 25.803256 
466.000000	 25.755953 
465.000000	 25.667023 
464.000000	 25.525474 
463.000000	 25.328326 
462.000000	 25.083851 
461.000000	 24.808979 
460.000000	 24.529933 
459.000000	 24.277138 
458.000000	 24.080204 
457.000000	 23.960804 
456.000000	 23.929405 
455.000000	 23.983597 
454.000000	 24.107074 
453.000000	 24.273395 
452.000000	 24.449658 
451.000000	 24.602389 
450.000000	 24.703216 
449.000000	 24.732780 
448.000000	 24.685049 
447.000000	 24.567103 
446.000000	 24.398493 
445.000000	 24.206423 
444.000000	 24.023103 
443.000000	 23.879313 
442.000000	 23.799586 
441.000000	 23.796916 
440.000000	 23.873138 
439.000000	 24.015522 
438.000000	 24.201536 
437.000000	 24.398732 
436.000000	 24.567842 
435.000000	 24.670124 
434.000000	 24.676012 
433.000000	 24.570083 
432.000000	 24.352145 
431.000000	 24.040031 
430.000000	 23.665952 
429.000000	 23.271226 
428.000000	 22.901725 
427.000000	 22.594738 
426.000000	 22.372388 
425.000000	 22.238731 
424.000000	 22.183537 
423.000000	 22.182798 
422.000000	 22.205781 
421.000000	 22.223186 
420.000000	 22.212576 
419.000000	 22.162890 
418.000000	 22.076129 
417.000000	 21.947526 
416.000000	 21.765923 
415.000000	 21.528339 
414.000000	 21.245217 
413.000000	 20.927739 
412.000000	 20.601630 
411.000000	 20.316314 
410.000000	 20.137238 
409.000000	 20.134639 
408.000000	 20.358729 
407.000000	 20.837426 
406.000000	 21.541500 
405.000000	 22.376036 
404.000000	 23.194289 
403.000000	 23.837900 
402.000000	 24.157547 
401.000000	 24.045133 
400.000000	 23.462510 
399.000000	 22.469019 
398.000000	 21.180725 
397.000000	 19.731378 
396.000000	 18.272376 
395.000000	 16.936969 
394.000000	 15.868997 
393.000000	 15.205407 
392.000000	 15.118932 
391.000000	 15.798497 
390.000000	 17.392897 
389.000000	 19.964909 
388.000000	 23.482418 
387.000000	 27.786993 
386.000000	 32.564330 
385.000000	 37.397956 
384.000000	 41.810250 
383.000000	 45.384478 
382.000000	 47.856473 
381.000000	 49.184560 
380.000000	 49.542450 
379.000000	 49.294066 
378.000000	 48.901891 
377.000000	 48.835349 
376.000000	 49.437141 
375.000000	 50.904798 
374.000000	 53.335142 
373.000000	 56.633353 
372.000000	 60.608029 
371.000000	 64.905285 
370.000000	 69.059967 

