PE IR       SPECTRUM    SPECTRUM    ASCII       PEDS        1.60        
  -1
C-1BE1~1.ASC
17/03/27
17:10:59.00
17/03/27
17:10:59.00
tln
$C-4040-8_t0033$<tbV0>[-13.0,-7.8,8.0,0.0,27,1,0]
370.000000
64









2002,4.07    
MIRTGS : RIGHTBACK : INTERNAL 2
MIR : ON : INTERNAL 2
OPTKBR

0.200000
8
8.000000
FILLER
RATIO
SPECTRUM
UNLOCKED 256

DOUBLE
64
COMBINED
1
0
0


1.000000
RATIO


1
0
TRUE
51149
0
LEFT NOT FITTED RIGHT NOT FITTED 0
NONE
NONE
15600
12.000000
4.427000
51148
TRUE
1 0 8 72 0 0 0 0 

15798.010000






#HDR
-1
-1
#GR
CM-1
%T
0.00002384185791015625
0.0
5000.000000
-1.000000
4631
8
89.653158
33.025765
#DATA
5000.000000	64.634847 
4999.000000	64.598369 
4998.000000	64.579510 
4997.000000	64.573621 
4996.000000	64.574623 
4995.000000	64.577436 
4994.000000	64.578247 
4993.000000	64.574956 
4992.000000	64.566612 
4991.000000	64.552497 
4990.000000	64.531850 
4989.000000	64.502644 
4988.000000	64.463543 
4987.000000	64.414334 
4986.000000	64.357495 
4985.000000	64.298367 
4984.000000	64.245080 
4983.000000	64.206886 
4982.000000	64.192318 
4981.000000	64.207005 
4980.000000	64.251112 
4979.000000	64.319252 
4978.000000	64.400935 
4977.000000	64.483618 
4976.000000	64.555406 
4975.000000	64.608383 
4974.000000	64.640283 
4973.000000	64.654803 
4972.000000	64.659500 
4971.000000	64.663434 
4970.000000	64.674901 
4969.000000	64.697933 
4968.000000	64.731407 
4967.000000	64.768767 
4966.000000	64.801168 
4965.000000	64.818763 
4964.000000	64.814352 
4963.000000	64.784836 
4962.000000	64.732670 
4961.000000	64.665341 
4960.000000	64.593744 
4959.000000	64.530277 
4958.000000	64.486002 
4957.000000	64.468836 
4956.000000	64.481973 
4955.000000	64.523458 
4954.000000	64.586472 
4953.000000	64.660406 
4952.000000	64.733147 
4951.000000	64.792680 
4950.000000	64.830374 
4949.000000	64.842224 
4948.000000	64.830708 
4947.000000	64.803910 
4946.000000	64.773941 
4945.000000	64.754271 
4944.000000	64.755916 
4943.000000	64.785242 
4942.000000	64.841151 
4941.000000	64.915871 
4940.000000	64.996266 
4939.000000	65.067291 
4938.000000	65.116024 
4937.000000	65.134930 
4936.000000	65.123963 
4935.000000	65.090084 
4934.000000	65.045499 
4933.000000	65.004277 
4932.000000	64.978003 
4931.000000	64.972805 
4930.000000	64.987874 
4929.000000	65.016078 
4928.000000	65.046739 
4927.000000	65.069270 
4926.000000	65.076255 
4925.000000	65.065908 
4924.000000	65.042257 
4923.000000	65.014624 
4922.000000	64.994287 
4921.000000	64.992070 
4920.000000	65.014457 
4919.000000	65.062904 
4918.000000	65.133595 
4917.000000	65.218472 
4916.000000	65.308022 
4915.000000	65.392160 
4914.000000	65.463232 
4913.000000	65.515327 
4912.000000	65.545487 
4911.000000	65.552091 
4910.000000	65.534591 
4909.000000	65.493249 
4908.000000	65.429043 
4907.000000	65.345263 
4906.000000	65.247941 
4905.000000	65.146088 
4904.000000	65.050864 
4903.000000	64.974093 
4902.000000	64.925932 
4901.000000	64.912486 
4900.000000	64.934158 
4899.000000	64.984989 
4898.000000	65.054392 
4897.000000	65.128922 
4896.000000	65.195894 
4895.000000	65.245985 
4894.000000	65.275502 
4893.000000	65.286016 
4892.000000	65.283536 
4891.000000	65.275979 
4890.000000	65.270853 
4889.000000	65.272688 
4888.000000	65.282559 
4887.000000	65.298533 
4886.000000	65.316414 
4885.000000	65.331959 
4884.000000	65.341973 
4883.000000	65.346217 
4882.000000	65.346002 
4881.000000	65.343379 
4880.000000	65.340137 
4879.000000	65.336656 
4878.000000	65.331768 
4877.000000	65.322971 
4876.000000	65.307545 
4875.000000	65.283846 
4874.000000	65.252566 
4873.000000	65.217137 
4872.000000	65.182614 
4871.000000	65.154552 
4870.000000	65.137267 
4869.000000	65.132904 
4868.000000	65.140676 
4867.000000	65.157246 
4866.000000	65.177774 
4865.000000	65.197086 
4864.000000	65.211749 
4863.000000	65.219354 
4862.000000	65.219736 
4861.000000	65.213012 
4860.000000	65.199065 
4859.000000	65.176510 
4858.000000	65.143060 
4857.000000	65.096044 
4856.000000	65.033459 
4855.000000	64.955782 
4854.000000	64.867019 
4853.000000	64.774727 
4852.000000	64.689230 
4851.000000	64.621281 
4850.000000	64.579606 
4849.000000	64.569091 
4848.000000	64.589548 
4847.000000	64.635372 
4846.000000	64.696884 
4845.000000	64.762425 
4844.000000	64.821052 
4843.000000	64.864301 
4842.000000	64.888334 
4841.000000	64.893651 
4840.000000	64.884996 
4839.000000	64.868950 
4838.000000	64.853072 
4837.000000	64.843750 
4836.000000	64.845442 
4835.000000	64.860272 
4834.000000	64.888048 
4833.000000	64.927268 
4832.000000	64.975094 
4831.000000	65.028667 
4830.000000	65.084528 
4829.000000	65.138769 
4828.000000	65.187001 
4827.000000	65.224909 
4826.000000	65.247941 
4825.000000	65.251970 
4824.000000	65.234470 
4823.000000	65.195584 
4822.000000	65.138339 
4821.000000	65.068769 
4820.000000	64.995169 
4819.000000	64.926648 
4818.000000	64.871263 
4817.000000	64.834403 
4816.000000	64.817595 
4815.000000	64.818120 
4814.000000	64.830279 
4813.000000	64.846777 
4812.000000	64.859771 
4811.000000	64.863610 
4810.000000	64.855408 
4809.000000	64.836311 
4808.000000	64.809870 
4807.000000	64.782238 
4806.000000	64.759874 
4805.000000	64.749121 
4804.000000	64.754533 
4803.000000	64.778542 
4802.000000	64.821124 
4801.000000	64.879870 
4800.000000	64.950752 
4799.000000	65.027976 
4798.000000	65.104746 
4797.000000	65.173649 
4796.000000	65.227460 
4795.000000	65.260004 
4794.000000	65.266966 
4793.000000	65.246796 
4792.000000	65.200853 
4791.000000	65.133523 
4790.000000	65.051174 
4789.000000	64.961743 
4788.000000	64.873075 
4787.000000	64.791965 
4786.000000	64.723157 
4785.000000	64.669108 
4784.000000	64.630174 
4783.000000	64.605236 
4782.000000	64.592766 
4781.000000	64.590764 
4780.000000	64.598560 
4779.000000	64.615750 
4778.000000	64.643383 
4777.000000	64.681911 
4776.000000	64.731979 
4775.000000	64.792966 
4774.000000	64.863228 
4773.000000	64.939713 
4772.000000	65.018033 
4771.000000	65.093016 
4770.000000	65.159106 
4769.000000	65.211272 
4768.000000	65.245389 
4767.000000	65.258836 
4766.000000	65.250968 
4765.000000	65.223145 
4764.000000	65.178513 
4763.000000	65.121221 
4762.000000	65.056419 
4761.000000	64.989066 
4760.000000	64.923667 
4759.000000	64.863705 
4758.000000	64.811658 
4757.000000	64.768981 
4756.000000	64.736032 
4755.000000	64.712882 
4754.000000	64.699268 
4753.000000	64.695119 
4752.000000	64.700317 
4751.000000	64.715027 
4750.000000	64.738416 
4749.000000	64.769291 
4748.000000	64.805364 
4747.000000	64.843821 
4746.000000	64.880967 
4745.000000	64.914131 
4744.000000	64.942193 
4743.000000	64.965772 
4742.000000	64.987015 
4741.000000	65.009331 
4740.000000	65.036129 
4739.000000	65.069460 
4738.000000	65.108990 
4737.000000	65.151381 
4736.000000	65.190792 
4735.000000	65.220284 
4734.000000	65.233349 
4733.000000	65.225362 
4732.000000	65.194916 
4731.000000	65.144848 
4730.000000	65.081405 
4729.000000	65.012526 
4728.000000	64.946269 
4727.000000	64.889597 
4726.000000	64.846730 
4725.000000	64.818930 
4724.000000	64.804410 
4723.000000	64.799642 
4722.000000	64.799690 
4721.000000	64.799761 
4720.000000	64.795637 
4719.000000	64.784002 
4718.000000	64.763593 
4717.000000	64.734792 
4716.000000	64.699983 
4715.000000	64.662599 
4714.000000	64.627504 
4713.000000	64.600086 
4712.000000	64.585304 
4711.000000	64.586806 
4710.000000	64.606428 
4709.000000	64.643836 
4708.000000	64.696240 
4707.000000	64.759039 
4706.000000	64.826583 
4705.000000	64.893126 
4704.000000	64.953875 
4703.000000	65.005159 
4702.000000	65.045022 
4701.000000	65.072560 
4700.000000	65.088129 
4699.000000	65.092206 
4698.000000	65.085530 
4697.000000	65.068578 
4696.000000	65.042734 
4695.000000	65.009379 
4694.000000	64.970517 
4693.000000	64.928364 
4692.000000	64.885926 
4691.000000	64.845800 
4690.000000	64.810276 
4689.000000	64.780521 
4688.000000	64.756655 
4687.000000	64.737701 
4686.000000	64.721941 
4685.000000	64.707589 
4684.000000	64.693427 
4683.000000	64.679074 
4682.000000	64.665246 
4681.000000	64.653468 
4680.000000	64.645600 
4679.000000	64.643025 
4678.000000	64.646220 
4677.000000	64.654207 
4676.000000	64.665150 
4675.000000	64.677023 
4674.000000	64.688062 
4673.000000	64.696931 
4672.000000	64.703202 
4671.000000	64.707827 
4670.000000	64.712238 
4669.000000	64.717721 
4668.000000	64.725017 
4667.000000	64.733719 
4666.000000	64.742875 
4665.000000	64.751291 
4664.000000	64.758062 
4663.000000	64.762926 
4662.000000	64.766931 
4661.000000	64.772129 
4660.000000	64.780306 
4659.000000	64.792537 
4658.000000	64.808487 
4657.000000	64.826703 
4656.000000	64.845204 
4655.000000	64.861893 
4654.000000	64.875912 
4653.000000	64.887046 
4652.000000	64.895772 
4651.000000	64.902234 
4650.000000	64.905619 
4649.000000	64.903903 
4648.000000	64.893817 
4647.000000	64.872145 
4646.000000	64.836406 
4645.000000	64.786815 
4644.000000	64.726638 
4643.000000	64.662551 
4642.000000	64.603352 
4641.000000	64.558815 
4640.000000	64.537048 
4639.000000	64.543342 
4638.000000	64.578342 
4637.000000	64.638352 
4636.000000	64.715886 
4635.000000	64.801406 
4634.000000	64.885115 
4633.000000	64.957952 
4632.000000	65.013074 
4631.000000	65.046238 
4630.000000	65.056347 
4629.000000	65.045070 
4628.000000	65.016484 
4627.000000	64.976382 
4626.000000	64.931106 
4625.000000	64.887070 
4624.000000	64.849209 
4623.000000	64.820933 
4622.000000	64.803171 
4621.000000	64.795041 
4620.000000	64.794135 
4619.000000	64.797186 
4618.000000	64.801287 
4617.000000	64.804697 
4616.000000	64.807391 
4615.000000	64.810395 
4614.000000	64.816069 
4613.000000	64.826488 
4612.000000	64.843750 
4611.000000	64.868736 
4610.000000	64.901709 
4609.000000	64.941835 
4608.000000	64.988374 
4607.000000	65.040588 
4606.000000	65.096974 
4605.000000	65.155291 
4604.000000	65.211987 
4603.000000	65.262246 
4602.000000	65.300726 
4601.000000	65.322232 
4600.000000	65.322971 
4599.000000	65.301442 
4598.000000	65.259599 
4597.000000	65.202093 
4596.000000	65.136408 
4595.000000	65.070438 
4594.000000	65.011048 
4593.000000	64.962196 
4592.000000	64.924883 
4591.000000	64.896941 
4590.000000	64.874267 
4589.000000	64.852571 
4588.000000	64.828252 
4587.000000	64.800691 
4586.000000	64.772009 
4585.000000	64.747405 
4584.000000	64.732599 
4583.000000	64.733886 
4582.000000	64.755821 
4581.000000	64.800477 
4580.000000	64.866352 
4579.000000	64.948582 
4578.000000	65.039706 
4577.000000	65.130376 
4576.000000	65.211033 
4575.000000	65.273427 
4574.000000	65.312266 
4573.000000	65.325427 
4572.000000	65.314769 
4571.000000	65.286469 
4570.000000	65.249300 
4569.000000	65.213680 
4568.000000	65.188193 
4567.000000	65.179014 
4566.000000	65.186786 
4565.000000	65.208292 
4564.000000	65.235686 
4563.000000	65.258550 
4562.000000	65.266561 
4561.000000	65.252661 
4560.000000	65.214395 
4559.000000	65.154194 
4558.000000	65.079545 
4557.000000	65.000891 
4556.000000	64.929890 
4555.000000	64.876556 
4554.000000	64.847517 
4553.000000	64.844894 
4552.000000	64.866018 
4551.000000	64.904189 
4550.000000	64.950037 
4549.000000	64.993262 
4548.000000	65.024018 
4547.000000	65.034389 
4546.000000	65.018796 
4545.000000	64.975452 
4544.000000	64.905738 
4543.000000	64.815545 
4542.000000	64.713335 
4541.000000	64.610600 
4540.000000	64.519691 
4539.000000	64.452934 
4538.000000	64.420366 
4537.000000	64.428281 
4536.000000	64.478182 
4535.000000	64.566087 
4534.000000	64.683055 
4533.000000	64.816474 
4532.000000	64.951801 
4531.000000	65.075278 
4530.000000	65.175509 
4529.000000	65.245723 
4528.000000	65.283894 
4527.000000	65.293025 
4526.000000	65.279841 
4525.000000	65.252923 
4524.000000	65.220785 
4523.000000	65.190744 
4522.000000	65.167617 
4521.000000	65.153765 
4520.000000	65.149044 
4519.000000	65.152072 
4518.000000	65.160632 
4517.000000	65.172505 
4516.000000	65.185523 
4515.000000	65.197968 
4514.000000	65.208292 
4513.000000	65.214800 
4512.000000	65.215873 
4511.000000	65.210103 
4510.000000	65.197181 
4509.000000	65.177631 
4508.000000	65.153551 
4507.000000	65.128493 
4506.000000	65.106749 
4505.000000	65.092492 
4504.000000	65.088486 
4503.000000	65.095376 
4502.000000	65.111398 
4501.000000	65.132975 
4500.000000	65.154647 
4499.000000	65.170335 
4498.000000	65.174531 
4497.000000	65.163803 
4496.000000	65.137195 
4495.000000	65.096688 
4494.000000	65.047240 
4493.000000	64.995718 
4492.000000	64.950251 
4491.000000	64.918231 
4490.000000	64.904952 
4489.000000	64.912366 
4488.000000	64.938879 
4487.000000	64.979553 
4486.000000	65.027165 
4485.000000	65.073680 
4484.000000	65.111851 
4483.000000	65.136933 
4482.000000	65.147399 
4481.000000	65.144777 
4480.000000	65.132927 
4479.000000	65.116715 
4478.000000	65.100789 
4477.000000	65.088367 
4476.000000	65.080523 
4475.000000	65.076828 
4474.000000	65.076231 
4473.000000	65.077686 
4472.000000	65.081000 
4471.000000	65.086936 
4470.000000	65.096879 
4469.000000	65.112066 
4468.000000	65.132975 
4467.000000	65.158915 
4466.000000	65.188026 
4465.000000	65.217661 
4464.000000	65.244889 
4463.000000	65.267848 
4462.000000	65.285611 
4461.000000	65.298676 
4460.000000	65.308117 
4459.000000	65.315222 
4458.000000	65.320301 
4457.000000	65.322804 
4456.000000	65.320730 
4455.000000	65.311598 
4454.000000	65.292668 
4453.000000	65.262675 
4452.000000	65.221238 
4451.000000	65.169429 
4450.000000	65.109610 
4449.000000	65.045356 
4448.000000	64.980912 
4447.000000	64.920496 
4446.000000	64.868211 
4445.000000	64.827752 
4444.000000	64.801669 
4443.000000	64.791202 
4442.000000	64.795589 
4441.000000	64.811873 
4440.000000	64.835214 
4439.000000	64.859247 
4438.000000	64.876723 
4437.000000	64.880895 
4436.000000	64.866566 
4435.000000	64.831638 
4434.000000	64.777135 
4433.000000	64.708232 
4432.000000	64.632344 
4431.000000	64.559388 
4430.000000	64.499354 
4429.000000	64.461994 
4428.000000	64.454078 
4427.000000	64.479899 
4426.000000	64.540863 
4425.000000	64.634537 
4424.000000	64.754414 
4423.000000	64.890813 
4422.000000	65.031647 
4421.000000	65.164446 
4420.000000	65.277886 
4419.000000	65.363836 
4418.000000	65.418672 
4417.000000	65.440845 
4416.000000	65.430545 
4415.000000	65.389704 
4414.000000	65.321731 
4413.000000	65.234375 
4412.000000	65.138411 
4411.000000	65.046215 
4410.000000	64.969563 
4409.000000	64.915180 
4408.000000	64.885759 
4407.000000	64.880251 
4406.000000	64.897155 
4405.000000	64.932894 
4404.000000	64.987373 
4403.000000	65.065383 
4402.000000	65.173912 
4401.000000	65.320324 
4400.000000	65.505409 
4399.000000	65.719056 
4398.000000	65.940737 
4397.000000	66.141891 
4396.000000	66.294002 
4395.000000	66.370177 
4394.000000	66.366982 
4393.000000	66.309928 
4392.000000	66.242194 
4391.000000	66.215181 
4390.000000	66.259360 
4389.000000	66.373610 
4388.000000	66.514945 
4387.000000	66.612339 
4386.000000	66.593170 
4385.000000	66.411995 
4384.000000	66.071367 
4383.000000	65.631580 
4382.000000	65.200161 
4381.000000	64.906787 
4380.000000	64.869141 
4379.000000	65.158462 
4378.000000	65.773653 
4377.000000	66.637635 
4376.000000	67.623877 
4375.000000	68.570518 
4374.000000	69.333267 
4373.000000	69.788622 
4372.000000	69.873094 
4371.000000	69.560527 
4370.000000	68.855166 
4369.000000	67.791032 
4368.000000	66.414690 
4367.000000	64.814400 
4366.000000	63.118124 
4365.000000	61.493158 
4364.000000	60.131001 
4363.000000	59.191489 
4362.000000	58.771109 
4361.000000	58.856058 
4360.000000	59.327363 
4359.000000	59.983038 
4358.000000	60.600161 
4357.000000	60.990190 
4356.000000	61.062169 
4355.000000	60.844683 
4354.000000	60.481953 
4353.000000	60.181212 
4352.000000	60.153746 
4351.000000	60.541033 
4350.000000	61.374831 
4349.000000	62.561273 
4348.000000	63.908648 
4347.000000	65.188050 
4346.000000	66.186881 
4345.000000	66.781020 
4344.000000	66.943144 
4343.000000	66.744923 
4342.000000	66.320705 
4341.000000	65.815067 
4340.000000	65.353345 
4339.000000	65.007972 
4338.000000	64.800214 
4337.000000	64.713072 
4336.000000	64.701223 
4335.000000	64.716863 
4334.000000	64.725756 
4333.000000	64.719247 
4332.000000	64.701938 
4331.000000	64.689230 
4330.000000	64.693474 
4329.000000	64.721417 
4328.000000	64.769148 
4327.000000	64.826345 
4326.000000	64.881467 
4325.000000	64.926147 
4324.000000	64.962506 
4323.000000	64.999318 
4322.000000	65.045261 
4321.000000	65.108299 
4320.000000	65.191245 
4319.000000	65.291452 
4318.000000	65.402078 
4317.000000	65.511989 
4316.000000	65.611648 
4315.000000	65.690016 
4314.000000	65.734934 
4313.000000	65.739512 
4312.000000	65.704965 
4311.000000	65.638947 
4310.000000	65.554690 
4309.000000	65.466189 
4308.000000	65.384888 
4307.000000	65.319776 
4306.000000	65.275740 
4305.000000	65.252923 
4304.000000	65.247535 
4303.000000	65.253710 
4302.000000	65.265154 
4301.000000	65.276193 
4300.000000	65.283346 
4299.000000	65.284323 
4298.000000	65.279150 
4297.000000	65.269088 
4296.000000	65.256404 
4295.000000	65.243554 
4294.000000	65.232300 
4293.000000	65.223717 
4292.000000	65.216994 
4291.000000	65.209937 
4290.000000	65.199398 
4289.000000	65.182399 
4288.000000	65.157341 
4287.000000	65.124082 
4286.000000	65.085625 
4285.000000	65.047574 
4284.000000	65.017271 
4283.000000	65.001988 
4282.000000	65.007829 
4281.000000	65.037941 
4280.000000	65.091490 
4279.000000	65.163278 
4278.000000	65.243864 
4277.000000	65.321826 
4276.000000	65.385723 
4275.000000	65.427207 
4274.000000	65.442156 
4273.000000	65.432333 
4272.000000	65.404367 
4271.000000	65.368413 
4270.000000	65.335655 
4269.000000	65.315294 
4268.000000	65.313100 
4267.000000	65.329313 
4266.000000	65.359687 
4265.000000	65.395784 
4264.000000	65.428614 
4263.000000	65.449452 
4262.000000	65.452098 
4261.000000	65.433883 
4260.000000	65.395927 
4259.000000	65.342307 
4258.000000	65.278553 
4257.000000	65.210938 
4256.000000	65.145182 
4255.000000	65.086483 
4254.000000	65.039396 
4253.000000	65.007305 
4252.000000	64.992284 
4251.000000	64.994430 
4250.000000	65.011620 
4249.000000	65.038681 
4248.000000	65.068674 
4247.000000	65.094041 
4246.000000	65.108871 
4245.000000	65.109109 
4244.000000	65.094780 
4243.000000	65.069508 
4242.000000	65.040564 
4241.000000	65.016150 
4240.000000	65.004754 
4239.000000	65.012669 
4238.000000	65.043210 
4237.000000	65.096139 
4236.000000	65.167570 
4235.000000	65.251231 
4234.000000	65.338850 
4233.000000	65.422034 
4232.000000	65.492558 
4231.000000	65.543889 
4230.000000	65.571212 
4229.000000	65.571928 
4228.000000	65.545988 
4227.000000	65.495800 
4226.000000	65.426325 
4225.000000	65.344238 
4224.000000	65.257072 
4223.000000	65.171957 
4222.000000	65.094828 
4221.000000	65.029716 
4220.000000	64.978337 
4219.000000	64.940547 
4218.000000	64.914584 
4217.000000	64.898085 
4216.000000	64.888834 
4215.000000	64.885187 
4214.000000	64.885592 
4213.000000	64.888811 
4212.000000	64.892888 
4211.000000	64.895415 
4210.000000	64.893364 
4209.000000	64.883828 
4208.000000	64.864063 
4207.000000	64.832901 
4206.000000	64.791560 
4205.000000	64.742994 
4204.000000	64.691400 
4203.000000	64.641046 
4202.000000	64.595603 
4201.000000	64.557433 
4200.000000	64.527273 
4199.000000	64.504408 
4198.000000	64.487004 
4197.000000	64.472556 
4196.000000	64.458584 
4195.000000	64.443325 
4194.000000	64.425969 
4193.000000	64.405679 
4192.000000	64.382123 
4191.000000	64.354991 
4190.000000	64.324975 
4189.000000	64.292716 
4188.000000	64.260578 
4187.000000	64.231514 
4186.000000	64.210462 
4185.000000	64.203000 
4184.000000	64.215588 
4183.000000	64.253330 
4182.000000	64.319777 
4181.000000	64.415764 
4180.000000	64.538431 
4179.000000	64.681029 
4178.000000	64.833021 
4177.000000	64.981126 
4176.000000	65.111494 
4175.000000	65.211939 
4174.000000	65.274572 
4173.000000	65.297412 
4172.000000	65.285801 
4171.000000	65.250992 
4170.000000	65.208101 
4169.000000	65.172171 
4168.000000	65.156030 
4167.000000	65.166449 
4166.000000	65.203571 
4165.000000	65.260219 
4164.000000	65.324926 
4163.000000	65.383791 
4162.000000	65.424227 
4161.000000	65.437293 
4160.000000	65.419530 
4159.000000	65.373301 
4158.000000	65.305376 
4157.000000	65.225744 
4156.000000	65.144777 
4155.000000	65.071415 
4154.000000	65.011954 
4153.000000	64.969396 
4152.000000	64.943861 
4151.000000	64.933514 
4150.000000	64.936137 
4149.000000	64.949154 
4148.000000	64.970207 
4147.000000	64.997768 
4146.000000	65.030860 
4145.000000	65.067934 
4144.000000	65.106678 
4143.000000	65.144681 
4142.000000	65.179157 
4141.000000	65.207386 
4140.000000	65.226864 
4139.000000	65.235686 
4138.000000	65.232563 
4137.000000	65.217351 
4136.000000	65.191173 
4135.000000	65.156340 
4134.000000	65.116548 
4133.000000	65.076470 
4132.000000	65.041065 
4131.000000	65.015149 
4130.000000	65.001988 
4129.000000	65.002989 
4128.000000	65.016460 
4127.000000	65.038228 
4126.000000	65.061831 
4125.000000	65.080285 
4124.000000	65.086984 
4123.000000	65.077137 
4122.000000	65.049028 
4121.000000	65.004515 
4120.000000	64.948678 
4119.000000	64.888429 
4118.000000	64.831662 
4117.000000	64.785361 
4116.000000	64.754652 
4115.000000	64.741730 
4114.000000	64.745926 
4113.000000	64.763855 
4112.000000	64.790248 
4111.000000	64.818954 
4110.000000	64.843773 
4109.000000	64.859938 
4108.000000	64.864420 
4107.000000	64.857006 
4106.000000	64.839458 
4105.000000	64.815664 
4104.000000	64.790582 
4103.000000	64.769291 
4102.000000	64.756250 
4101.000000	64.754056 
4100.000000	64.763092 
4099.000000	64.781427 
4098.000000	64.805483 
4097.000000	64.830851 
4096.000000	64.853191 
4095.000000	64.869499 
4094.000000	64.878535 
4093.000000	64.881753 
4092.000000	64.882731 
4091.000000	64.886236 
4090.000000	64.897036 
4089.000000	64.918732 
4088.000000	64.952683 
4087.000000	64.997696 
4086.000000	65.049910 
4085.000000	65.103554 
4084.000000	65.152120 
4083.000000	65.189957 
4082.000000	65.213274 
4081.000000	65.220618 
4080.000000	65.213203 
4079.000000	65.194487 
4078.000000	65.169191 
4077.000000	65.142536 
4076.000000	65.119075 
4075.000000	65.102362 
4074.000000	65.093946 
4073.000000	65.093922 
4072.000000	65.100359 
4071.000000	65.110731 
4070.000000	65.121340 
4069.000000	65.128326 
4068.000000	65.127825 
4067.000000	65.116548 
4066.000000	65.092253 
4065.000000	65.054106 
4064.000000	65.003132 
4063.000000	64.942169 
4062.000000	64.875721 
4061.000000	64.809536 
4060.000000	64.749741 
4059.000000	64.702033 
4058.000000	64.670610 
4057.000000	64.657855 
4056.000000	64.663219 
4055.000000	64.684104 
4054.000000	64.715909 
4053.000000	64.753389 
4052.000000	64.790773 
4051.000000	64.823603 
4050.000000	64.848923 
4049.000000	64.865970 
4048.000000	64.875698 
4047.000000	64.880275 
4046.000000	64.882159 
4045.000000	64.883661 
4044.000000	64.886140 
4043.000000	64.890122 
4042.000000	64.895153 
4041.000000	64.900469 
4040.000000	64.905357 
4039.000000	64.909815 
4038.000000	64.914464 
4037.000000	64.920616 
4036.000000	64.929914 
4035.000000	64.943623 
4034.000000	64.962220 
4033.000000	64.985275 
4032.000000	65.011191 
4031.000000	65.037345 
4030.000000	65.060663 
4029.000000	65.078639 
4028.000000	65.089583 
4027.000000	65.092945 
4026.000000	65.089273 
4025.000000	65.080499 
4024.000000	65.068936 
4023.000000	65.057253 
4022.000000	65.047383 
4021.000000	65.040516 
4020.000000	65.036439 
4019.000000	65.034174 
4018.000000	65.031623 
4017.000000	65.026521 
4016.000000	65.016889 
4015.000000	65.001606 
4014.000000	64.980626 
4013.000000	64.955139 
4012.000000	64.927124 
4011.000000	64.899110 
4010.000000	64.873671 
4009.000000	64.852952 
4008.000000	64.838552 
4007.000000	64.831471 
4006.000000	64.832019 
4005.000000	64.840126 
4004.000000	64.855241 
4003.000000	64.876723 
4002.000000	64.903259 
4001.000000	64.933371 
4000.000000	64.965176 
3999.000000	64.996528 
3998.000000	65.025448 
3997.000000	65.050029 
3996.000000	65.068912 
3995.000000	65.081143 
3994.000000	65.086698 
3993.000000	65.085840 
3992.000000	65.079045 
3991.000000	65.066742 
3990.000000	65.049672 
3989.000000	65.028572 
3988.000000	65.004420 
3987.000000	64.978814 
3986.000000	64.953899 
3985.000000	64.932227 
3984.000000	64.916563 
3983.000000	64.909148 
3982.000000	64.911127 
3981.000000	64.922070 
3980.000000	64.939999 
3979.000000	64.961338 
3978.000000	64.982032 
3977.000000	64.998173 
3976.000000	65.007448 
3975.000000	65.009117 
3974.000000	65.004754 
3973.000000	64.997529 
3972.000000	64.991927 
3971.000000	64.991950 
3970.000000	65.000796 
3969.000000	65.020108 
3968.000000	65.049481 
3967.000000	65.086984 
3966.000000	65.129017 
3965.000000	65.171551 
3964.000000	65.210318 
3963.000000	65.241646 
3962.000000	65.262627 
3961.000000	65.271496 
3960.000000	65.267658 
3959.000000	65.251755 
3958.000000	65.225219 
3957.000000	65.190052 
3956.000000	65.148854 
3955.000000	65.104508 
3954.000000	65.059351 
3953.000000	65.015196 
3952.000000	64.973068 
3951.000000	64.933657 
3950.000000	64.897155 
3949.000000	64.864039 
3948.000000	64.834952 
3947.000000	64.811158 
3946.000000	64.794206 
3945.000000	64.786052 
3944.000000	64.787864 
3943.000000	64.800095 
3942.000000	64.822101 
3941.000000	64.852070 
3940.000000	64.886736 
3939.000000	64.922094 
3938.000000	64.953589 
3937.000000	64.977288 
3936.000000	64.990353 
3935.000000	64.992046 
3934.000000	64.983677 
3933.000000	64.968943 
3932.000000	64.953017 
3931.000000	64.941573 
3930.000000	64.939522 
3929.000000	64.950060 
3928.000000	64.973783 
3927.000000	65.008497 
3926.000000	65.049743 
3925.000000	65.091753 
3924.000000	65.128803 
3923.000000	65.156579 
3922.000000	65.172815 
3921.000000	65.177869 
3920.000000	65.174126 
3919.000000	65.164852 
3918.000000	65.153479 
3917.000000	65.142393 
3916.000000	65.133023 
3915.000000	65.125465 
3914.000000	65.119290 
3913.000000	65.114331 
3912.000000	65.110993 
3911.000000	65.110421 
3910.000000	65.114712 
3909.000000	65.125918 
3908.000000	65.146040 
3907.000000	65.176129 
3906.000000	65.215945 
3905.000000	65.263438 
3904.000000	65.315246 
3903.000000	65.366935 
3902.000000	65.413355 
3901.000000	65.449333 
3900.000000	65.470695 
3899.000000	65.474605 
3898.000000	65.460228 
3897.000000	65.428638 
3896.000000	65.383052 
3895.000000	65.328168 
3894.000000	65.269827 
3893.000000	65.214109 
3892.000000	65.166616 
3891.000000	65.131711 
3890.000000	65.111899 
3889.000000	65.107917 
3888.000000	65.118813 
3887.000000	65.142512 
3886.000000	65.176057 
3885.000000	65.216469 
3884.000000	65.260839 
3883.000000	65.306615 
3882.000000	65.351366 
3881.000000	65.392756 
3880.000000	65.428423 
3879.000000	65.455484 
3878.000000	65.470933 
3877.000000	65.471625 
3876.000000	65.455126 
3875.000000	65.420055 
3874.000000	65.367197 
3873.000000	65.300035 
3872.000000	65.224933 
3871.000000	65.150165 
3870.000000	65.084743 
3869.000000	65.036964 
3868.000000	65.012645 
3867.000000	65.013980 
3866.000000	65.039038 
3865.000000	65.082263 
3864.000000	65.136098 
3863.000000	65.192055 
3862.000000	65.242934 
3861.000000	65.283536 
3860.000000	65.311861 
3859.000000	65.328335 
3858.000000	65.335488 
3857.000000	65.336394 
3856.000000	65.333724 
3855.000000	65.329146 
3854.000000	65.322971 
3853.000000	65.314650 
3852.000000	65.302991 
3851.000000	65.287256 
3850.000000	65.266704 
3849.000000	65.241432 
3848.000000	65.211796 
3847.000000	65.178632 
3846.000000	65.143060 
3845.000000	65.106391 
3844.000000	65.070462 
3843.000000	65.037274 
3842.000000	65.008521 
3841.000000	64.985370 
3840.000000	64.968395 
3839.000000	64.957332 
3838.000000	64.950609 
3837.000000	64.946293 
3836.000000	64.942145 
3835.000000	64.936590 
3834.000000	64.928627 
3833.000000	64.918565 
3832.000000	64.907479 
3831.000000	64.897251 
3830.000000	64.890146 
3829.000000	64.887976 
3828.000000	64.891290 
3827.000000	64.899587 
3826.000000	64.911556 
3825.000000	64.925336 
3824.000000	64.938998 
3823.000000	64.951324 
3822.000000	64.962267 
3821.000000	64.972758 
3820.000000	64.984583 
3819.000000	64.999914 
3818.000000	65.020823 
3817.000000	65.048527 
3816.000000	65.083050 
3815.000000	65.123057 
3814.000000	65.165996 
3813.000000	65.208888 
3812.000000	65.248703 
3811.000000	65.282964 
3810.000000	65.309739 
3809.000000	65.328645 
3808.000000	65.339589 
3807.000000	65.342903 
3806.000000	65.338492 
3805.000000	65.326428 
3804.000000	65.306186 
3803.000000	65.277433 
3802.000000	65.239882 
3801.000000	65.194630 
3800.000000	65.143561 
3799.000000	65.089678 
3798.000000	65.036368 
3797.000000	64.987182 
3796.000000	64.944529 
3795.000000	64.909410 
3794.000000	64.881038 
3793.000000	64.857482 
3792.000000	64.836454 
3791.000000	64.816403 
3790.000000	64.796662 
3789.000000	64.778256 
3788.000000	64.763331 
3787.000000	64.754915 
3786.000000	64.755249 
3785.000000	64.765739 
3784.000000	64.786291 
3783.000000	64.815473 
3782.000000	64.850425 
3781.000000	64.888024 
3780.000000	64.925122 
3779.000000	64.959454 
3778.000000	64.989423 
3777.000000	65.014553 
3776.000000	65.035152 
3775.000000	65.052461 
3774.000000	65.067791 
3773.000000	65.082955 
3772.000000	65.099787 
3771.000000	65.120005 
3770.000000	65.145015 
3769.000000	65.175390 
3768.000000	65.210437 
3767.000000	65.248227 
3766.000000	65.285730 
3765.000000	65.319085 
3764.000000	65.344262 
3763.000000	65.358257 
3762.000000	65.359759 
3761.000000	65.349316 
3760.000000	65.329504 
3759.000000	65.304279 
3758.000000	65.278244 
3757.000000	65.255761 
3756.000000	65.239834 
3755.000000	65.231919 
3754.000000	65.231394 
3753.000000	65.236353 
3752.000000	65.243864 
3751.000000	65.250778 
3750.000000	65.254592 
3749.000000	65.254020 
3748.000000	65.248942 
3747.000000	65.239787 
3746.000000	65.227532 
3745.000000	65.213036 
3744.000000	65.196824 
3743.000000	65.178894 
3742.000000	65.159296 
3741.000000	65.138387 
3740.000000	65.117216 
3739.000000	65.097522 
3738.000000	65.081572 
3737.000000	65.071535 
3736.000000	65.068912 
3735.000000	65.074300 
3734.000000	65.087008 
3733.000000	65.105390 
3732.000000	65.127134 
3731.000000	65.149831 
3730.000000	65.171217 
3729.000000	65.189552 
3728.000000	65.203690 
3727.000000	65.212941 
3726.000000	65.216732 
3725.000000	65.214610 
3724.000000	65.206313 
3723.000000	65.192055 
3722.000000	65.172648 
3721.000000	65.149688 
3720.000000	65.125727 
3719.000000	65.103912 
3718.000000	65.087747 
3717.000000	65.079998 
3716.000000	65.082335 
3715.000000	65.094685 
3714.000000	65.115356 
3713.000000	65.141320 
3712.000000	65.168881 
3711.000000	65.194606 
3710.000000	65.216159 
3709.000000	65.232467 
3708.000000	65.244102 
3707.000000	65.252852 
3706.000000	65.261101 
3705.000000	65.270948 
3704.000000	65.283441 
3703.000000	65.298676 
3702.000000	65.315270 
3701.000000	65.331196 
3700.000000	65.343761 
3699.000000	65.350914 
3698.000000	65.351152 
3697.000000	65.344142 
3696.000000	65.330362 
3695.000000	65.310978 
3694.000000	65.287494 
3693.000000	65.261530 
3692.000000	65.234637 
3691.000000	65.208172 
3690.000000	65.183472 
3689.000000	65.162038 
3688.000000	65.145111 
3687.000000	65.133738 
3686.000000	65.128350 
3685.000000	65.128755 
3684.000000	65.133833 
3683.000000	65.141725 
3682.000000	65.149903 
3681.000000	65.155577 
3680.000000	65.156078 
3679.000000	65.149378 
3678.000000	65.134215 
3677.000000	65.110516 
3676.000000	65.079355 
3675.000000	65.043139 
3674.000000	65.004754 
3673.000000	64.967703 
3672.000000	64.935255 
3671.000000	64.910221 
3670.000000	64.894509 
3669.000000	64.889121 
3668.000000	64.893984 
3667.000000	64.908266 
3666.000000	64.930224 
3665.000000	64.957714 
3664.000000	64.988160 
3663.000000	65.019083 
3662.000000	65.048074 
3661.000000	65.073204 
3660.000000	65.092897 
3659.000000	65.106368 
3658.000000	65.113639 
3657.000000	65.115308 
3656.000000	65.112328 
3655.000000	65.106081 
3654.000000	65.098047 
3653.000000	65.089440 
3652.000000	65.081095 
3651.000000	65.073752 
3650.000000	65.067934 
3649.000000	65.064215 
3648.000000	65.063095 
3647.000000	65.065169 
3646.000000	65.070652 
3645.000000	65.079092 
3644.000000	65.089344 
3643.000000	65.099525 
3642.000000	65.107250 
3641.000000	65.110087 
3640.000000	65.106415 
3639.000000	65.095686 
3638.000000	65.078759 
3637.000000	65.057659 
3636.000000	65.035438 
3635.000000	65.015172 
3634.000000	64.999818 
3633.000000	64.991664 
3632.000000	64.991831 
3631.000000	65.000176 
3630.000000	65.015697 
3629.000000	65.036892 
3628.000000	65.061926 
3627.000000	65.088891 
3626.000000	65.116024 
3625.000000	65.141797 
3624.000000	65.164923 
3623.000000	65.184593 
3622.000000	65.200161 
3621.000000	65.211367 
3620.000000	65.218472 
3619.000000	65.222048 
3618.000000	65.222954 
3617.000000	65.222001 
3616.000000	65.220165 
3615.000000	65.217876 
3614.000000	65.215396 
3613.000000	65.212273 
3612.000000	65.207862 
3611.000000	65.200805 
3610.000000	65.189838 
3609.000000	65.173649 
3608.000000	65.151214 
3607.000000	65.122199 
3606.000000	65.087080 
3605.000000	65.047407 
3604.000000	65.005850 
3603.000000	64.965605 
3602.000000	64.930272 
3601.000000	64.903402 
3600.000000	64.888048 
3599.000000	64.886116 
3598.000000	64.898324 
3597.000000	64.923644 
3596.000000	64.959597 
3595.000000	65.002608 
3594.000000	65.048623 
3593.000000	65.093040 
3592.000000	65.131950 
3591.000000	65.162491 
3590.000000	65.183234 
3589.000000	65.194201 
3588.000000	65.196299 
3587.000000	65.191102 
3586.000000	65.180277 
3585.000000	65.165591 
3584.000000	65.148138 
3583.000000	65.128731 
3582.000000	65.108132 
3581.000000	65.087509 
3580.000000	65.068578 
3579.000000	65.053772 
3578.000000	65.045928 
3577.000000	65.047883 
3576.000000	65.061688 
3575.000000	65.087866 
3574.000000	65.125131 
3573.000000	65.170097 
3572.000000	65.217614 
3571.000000	65.261673 
3570.000000	65.296292 
3569.000000	65.316510 
3568.000000	65.318942 
3567.000000	65.302586 
3566.000000	65.268874 
3565.000000	65.221643 
3564.000000	65.166807 
3563.000000	65.111351 
3562.000000	65.062355 
3561.000000	65.025806 
3560.000000	65.005874 
3559.000000	65.004086 
3558.000000	65.019130 
3557.000000	65.047383 
3556.000000	65.083813 
3555.000000	65.122795 
3554.000000	65.159082 
3553.000000	65.188574 
3552.000000	65.208721 
3551.000000	65.218400 
3550.000000	65.217900 
3549.000000	65.208292 
3548.000000	65.191388 
3547.000000	65.169382 
3546.000000	65.144562 
3545.000000	65.119719 
3544.000000	65.097761 
3543.000000	65.081572 
3542.000000	65.073585 
3541.000000	65.075421 
3540.000000	65.087604 
3539.000000	65.108871 
3538.000000	65.136885 
3537.000000	65.168404 
3536.000000	65.200066 
3535.000000	65.228939 
3534.000000	65.252971 
3533.000000	65.271091 
3532.000000	65.283083 
3531.000000	65.289521 
3530.000000	65.290975 
3529.000000	65.287542 
3528.000000	65.278959 
3527.000000	65.264892 
3526.000000	65.245413 
3525.000000	65.221500 
3524.000000	65.194892 
3523.000000	65.168094 
3522.000000	65.143728 
3521.000000	65.124082 
3520.000000	65.110015 
3519.000000	65.101194 
3518.000000	65.096092 
3517.000000	65.092730 
3516.000000	65.089607 
3515.000000	65.086078 
3514.000000	65.082335 
3513.000000	65.079593 
3512.000000	65.079116 
3511.000000	65.082716 
3510.000000	65.091395 
3509.000000	65.105700 
3508.000000	65.125155 
3507.000000	65.148591 
3506.000000	65.174627 
3505.000000	65.201520 
3504.000000	65.227580 
3503.000000	65.251064 
3502.000000	65.270423 
3501.000000	65.283894 
3500.000000	65.289783 
3499.000000	65.286135 
3498.000000	65.271258 
3497.000000	65.244245 
3496.000000	65.205645 
3495.000000	65.157365 
3494.000000	65.103197 
3493.000000	65.048599 
3492.000000	65.000224 
3491.000000	64.964842 
3490.000000	64.947962 
3489.000000	64.953112 
3488.000000	64.980459 
3487.000000	65.026426 
3486.000000	65.084052 
3485.000000	65.143895 
3484.000000	65.196132 
3483.000000	65.232253 
3482.000000	65.247082 
3481.000000	65.239167 
3480.000000	65.211224 
3479.000000	65.169072 
3478.000000	65.120220 
3477.000000	65.072131 
3476.000000	65.030860 
3475.000000	65.000319 
3474.000000	64.982128 
3473.000000	64.976215 
3472.000000	64.981484 
3471.000000	64.996790 
3470.000000	65.021228 
3469.000000	65.054368 
3468.000000	65.095806 
3467.000000	65.144634 
3466.000000	65.199017 
3465.000000	65.256047 
3464.000000	65.311861 
3463.000000	65.362048 
3462.000000	65.403056 
3461.000000	65.432071 
3460.000000	65.447759 
3459.000000	65.449857 
3458.000000	65.439534 
3457.000000	65.418553 
3456.000000	65.389347 
3455.000000	65.354204 
3454.000000	65.315461 
3453.000000	65.275239 
3452.000000	65.236043 
3451.000000	65.200185 
3450.000000	65.169954 
3449.000000	65.147304 
3448.000000	65.133714 
3447.000000	65.129947 
3446.000000	65.135788 
3445.000000	65.149927 
3444.000000	65.170097 
3443.000000	65.193676 
3442.000000	65.218067 
3441.000000	65.241384 
3440.000000	65.262627 
3439.000000	65.281772 
3438.000000	65.299391 
3437.000000	65.316510 
3436.000000	65.333747 
3435.000000	65.351128 
3434.000000	65.367293 
3433.000000	65.380167 
3432.000000	65.386652 
3431.000000	65.383839 
3430.000000	65.369224 
3429.000000	65.341877 
3428.000000	65.302443 
3427.000000	65.253567 
3426.000000	65.199351 
3425.000000	65.144276 
3424.000000	65.093278 
3423.000000	65.050458 
3422.000000	65.019083 
3421.000000	65.001130 
3420.000000	64.997148 
3419.000000	65.006470 
3418.000000	65.027213 
3417.000000	65.056490 
3416.000000	65.090465 
3415.000000	65.124940 
3414.000000	65.155744 
3413.000000	65.179419 
3412.000000	65.193510 
3411.000000	65.197229 
3410.000000	65.191483 
3409.000000	65.178728 
3408.000000	65.162348 
3407.000000	65.145921 
3406.000000	65.132713 
3405.000000	65.125012 
3404.000000	65.123915 
3403.000000	65.129303 
3402.000000	65.140438 
3401.000000	65.156197 
3400.000000	65.175652 
3399.000000	65.197610 
3398.000000	65.220737 
3397.000000	65.243053 
3396.000000	65.262055 
3395.000000	65.274858 
3394.000000	65.278410 
3393.000000	65.270400 
3392.000000	65.250134 
3391.000000	65.218782 
3390.000000	65.179657 
3389.000000	65.137934 
3388.000000	65.099573 
3387.000000	65.070271 
3386.000000	65.054059 
3385.000000	65.052509 
3384.000000	65.064358 
3383.000000	65.085530 
3382.000000	65.110135 
3381.000000	65.131640 
3380.000000	65.144562 
3379.000000	65.145659 
3378.000000	65.134763 
3377.000000	65.114355 
3376.000000	65.089321 
3375.000000	65.065574 
3374.000000	65.048575 
3373.000000	65.042114 
3372.000000	65.047264 
3371.000000	65.062499 
3370.000000	65.083456 
3369.000000	65.104627 
3368.000000	65.120148 
3367.000000	65.125298 
3366.000000	65.117573 
3365.000000	65.096950 
3364.000000	65.066385 
3363.000000	65.030956 
3362.000000	64.997220 
3361.000000	64.971756 
3360.000000	64.960336 
3359.000000	64.966750 
3358.000000	64.992475 
3357.000000	65.035986 
3356.000000	65.093040 
3355.000000	65.157222 
3354.000000	65.221142 
3353.000000	65.277290 
3352.000000	65.319275 
3351.000000	65.342664 
3350.000000	65.345788 
3349.000000	65.329813 
3348.000000	65.298199 
3347.000000	65.256190 
3346.000000	65.209960 
3345.000000	65.165281 
3344.000000	65.126943 
3343.000000	65.097951 
3342.000000	65.079641 
3341.000000	65.071511 
3340.000000	65.072131 
3339.000000	65.079092 
3338.000000	65.089559 
3337.000000	65.100789 
3336.000000	65.110492 
3335.000000	65.116906 
3334.000000	65.118765 
3333.000000	65.116143 
3332.000000	65.110397 
3331.000000	65.103983 
3330.000000	65.100169 
3329.000000	65.102148 
3328.000000	65.112328 
3327.000000	65.131902 
3326.000000	65.160655 
3325.000000	65.196943 
3324.000000	65.238213 
3323.000000	65.281629 
3322.000000	65.324306 
3321.000000	65.364122 
3320.000000	65.399122 
3319.000000	65.428066 
3318.000000	65.449380 
3317.000000	65.461659 
3316.000000	65.463209 
3315.000000	65.452599 
3314.000000	65.428757 
3313.000000	65.391540 
3312.000000	65.342116 
3311.000000	65.283322 
3310.000000	65.218973 
3309.000000	65.153646 
3308.000000	65.091776 
3307.000000	65.037465 
3306.000000	64.993858 
3305.000000	64.963412 
3304.000000	64.947366 
3303.000000	64.946198 
3302.000000	64.959621 
3301.000000	64.987039 
3300.000000	65.026879 
3299.000000	65.076994 
3298.000000	65.134406 
3297.000000	65.195655 
3296.000000	65.256619 
3295.000000	65.312933 
3294.000000	65.360736 
3293.000000	65.396690 
3292.000000	65.418648 
3291.000000	65.425705 
3290.000000	65.418338 
3289.000000	65.398383 
3288.000000	65.368962 
3287.000000	65.334033 
3286.000000	65.298295 
3285.000000	65.266370 
3284.000000	65.242576 
3283.000000	65.229487 
3282.000000	65.227746 
3281.000000	65.235829 
3280.000000	65.250492 
3279.000000	65.267062 
3278.000000	65.280628 
3277.000000	65.287256 
3276.000000	65.284919 
3275.000000	65.273594 
3274.000000	65.255117 
3273.000000	65.232777 
3272.000000	65.210103 
3271.000000	65.190124 
3270.000000	65.174841 
3269.000000	65.164566 
3268.000000	65.158700 
3267.000000	65.156102 
3266.000000	65.155696 
3265.000000	65.157032 
3264.000000	65.160179 
3263.000000	65.165901 
3262.000000	65.175056 
3261.000000	65.187501 
3260.000000	65.202784 
3259.000000	65.219545 
3258.000000	65.236306 
3257.000000	65.251564 
3256.000000	65.264391 
3255.000000	65.274786 
3254.000000	65.283679 
3253.000000	65.292596 
3252.000000	65.302991 
3251.000000	65.315508 
3250.000000	65.329861 
3249.000000	65.344572 
3248.000000	65.357375 
3247.000000	65.365695 
3246.000000	65.367460 
3245.000000	65.361762 
3244.000000	65.349388 
3243.000000	65.332531 
3242.000000	65.314626 
3241.000000	65.299153 
3240.000000	65.288877 
3239.000000	65.284967 
3238.000000	65.286874 
3237.000000	65.292167 
3236.000000	65.297198 
3235.000000	65.297985 
3234.000000	65.291213 
3233.000000	65.275239 
3232.000000	65.250396 
3231.000000	65.219330 
3230.000000	65.186142 
3229.000000	65.155816 
3228.000000	65.132975 
3227.000000	65.120935 
3226.000000	65.121054 
3225.000000	65.132331 
3224.000000	65.151715 
3223.000000	65.174627 
3222.000000	65.196180 
3221.000000	65.211820 
3220.000000	65.218687 
3219.000000	65.215706 
3218.000000	65.204143 
3217.000000	65.187120 
3216.000000	65.168881 
3215.000000	65.153884 
3214.000000	65.145587 
3213.000000	65.145778 
3212.000000	65.154027 
3211.000000	65.168213 
3210.000000	65.184807 
3209.000000	65.199971 
3208.000000	65.210652 
3207.000000	65.215039 
3206.000000	65.213274 
3205.000000	65.206718 
3204.000000	65.197896 
3203.000000	65.189504 
3202.000000	65.183997 
3201.000000	65.182971 
3200.000000	65.187168 
3199.000000	65.196394 
3198.000000	65.209841 
3197.000000	65.226411 
3196.000000	65.244817 
3195.000000	65.264034 
3194.000000	65.282678 
3193.000000	65.299749 
3192.000000	65.314006 
3191.000000	65.324783 
3190.000000	65.331792 
3189.000000	65.335607 
3188.000000	65.337514 
3187.000000	65.339064 
3186.000000	65.342164 
3185.000000	65.348005 
3184.000000	65.357160 
3183.000000	65.368676 
3182.000000	65.380787 
3181.000000	65.390849 
3180.000000	65.396261 
3179.000000	65.395021 
3178.000000	65.386223 
3177.000000	65.370106 
3176.000000	65.348076 
3175.000000	65.322041 
3174.000000	65.294003 
3173.000000	65.265512 
3172.000000	65.237593 
3171.000000	65.210771 
3170.000000	65.185475 
3169.000000	65.162229 
3168.000000	65.141963 
3167.000000	65.126228 
3166.000000	65.116596 
3165.000000	65.114164 
3164.000000	65.119004 
3163.000000	65.129804 
3162.000000	65.143990 
3161.000000	65.157890 
3160.000000	65.167689 
3159.000000	65.170383 
3158.000000	65.164184 
3157.000000	65.149259 
3156.000000	65.127468 
3155.000000	65.102005 
3154.000000	65.076589 
3153.000000	65.054631 
3152.000000	65.038895 
3151.000000	65.031075 
3150.000000	65.031743 
3149.000000	65.040493 
3148.000000	65.055942 
3147.000000	65.075922 
3146.000000	65.097665 
3145.000000	65.118193 
3144.000000	65.133881 
3143.000000	65.141344 
3142.000000	65.137934 
3141.000000	65.122628 
3140.000000	65.096163 
3139.000000	65.061569 
3138.000000	65.023660 
3137.000000	64.988160 
3136.000000	64.960527 
3135.000000	64.944601 
3134.000000	64.941859 
3133.000000	64.951133 
3132.000000	64.968919 
3131.000000	64.990472 
3130.000000	65.010929 
3129.000000	65.026545 
3128.000000	65.035033 
3127.000000	65.036392 
3126.000000	65.032029 
3125.000000	65.024757 
3124.000000	65.017461 
3123.000000	65.013313 
3122.000000	65.014648 
3121.000000	65.023422 
3120.000000	65.040850 
3119.000000	65.067744 
3118.000000	65.104103 
3117.000000	65.148973 
3116.000000	65.200233 
3115.000000	65.254211 
3114.000000	65.306305 
3113.000000	65.351462 
3112.000000	65.385150 
3111.000000	65.404343 
3110.000000	65.408015 
3109.000000	65.397524 
3108.000000	65.376019 
3107.000000	65.348172 
3106.000000	65.318942 
3105.000000	65.293025 
3104.000000	65.273714 
3103.000000	65.262937 
3102.000000	65.260696 
3101.000000	65.265798 
3100.000000	65.276098 
3099.000000	65.289044 
3098.000000	65.302205 
3097.000000	65.313863 
3096.000000	65.322804 
3095.000000	65.328264 
3094.000000	65.329980 
3093.000000	65.328025 
3092.000000	65.322566 
3091.000000	65.313911 
3090.000000	65.302348 
3089.000000	65.288424 
3088.000000	65.272974 
3087.000000	65.257096 
3086.000000	65.242624 
3085.000000	65.231466 
3084.000000	65.225505 
3083.000000	65.225958 
3082.000000	65.233039 
3081.000000	65.245580 
3080.000000	65.260958 
3079.000000	65.275859 
3078.000000	65.286803 
3077.000000	65.291142 
3076.000000	65.287685 
3075.000000	65.276885 
3074.000000	65.260791 
3073.000000	65.242362 
3072.000000	65.224838 
3071.000000	65.210771 
3070.000000	65.201115 
3069.000000	65.195441 
3068.000000	65.191984 
3067.000000	65.188574 
3066.000000	65.183281 
3065.000000	65.175271 
3064.000000	65.165138 
3063.000000	65.154743 
3062.000000	65.146851 
3061.000000	65.143990 
3060.000000	65.147900 
3059.000000	65.158915 
3058.000000	65.175747 
3057.000000	65.195751 
3056.000000	65.215587 
3055.000000	65.232014 
3054.000000	65.242648 
3053.000000	65.246295 
3052.000000	65.243363 
3051.000000	65.235328 
3050.000000	65.224814 
3049.000000	65.214490 
3048.000000	65.206956 
3047.000000	65.204095 
3046.000000	65.206956 
3045.000000	65.215659 
3044.000000	65.229368 
3043.000000	65.246605 
3042.000000	65.265417 
3041.000000	65.283727 
3040.000000	65.299630 
3039.000000	65.311455 
3038.000000	65.318298 
3037.000000	65.320062 
3036.000000	65.317201 
3035.000000	65.310573 
3034.000000	65.301346 
3033.000000	65.290451 
3032.000000	65.278315 
3031.000000	65.264701 
3030.000000	65.248870 
3029.000000	65.229940 
3028.000000	65.207171 
3027.000000	65.180587 
3026.000000	65.151119 
3025.000000	65.120792 
3024.000000	65.092206 
3023.000000	65.068197 
3022.000000	65.051031 
3021.000000	65.042042 
3020.000000	65.041303 
3019.000000	65.047669 
3018.000000	65.058875 
3017.000000	65.072298 
3016.000000	65.085291 
3015.000000	65.095996 
3014.000000	65.103507 
3013.000000	65.108084 
3012.000000	65.110826 
3011.000000	65.113568 
3010.000000	65.118050 
3009.000000	65.125632 
3008.000000	65.136909 
3007.000000	65.151643 
3006.000000	65.168619 
3005.000000	65.185976 
3004.000000	65.201663 
3003.000000	65.213918 
3002.000000	65.221810 
3001.000000	65.225219 
3000.000000	65.224742 
2999.000000	65.221810 
2998.000000	65.217876 
2997.000000	65.214061 
2996.000000	65.210556 
2995.000000	65.206670 
2994.000000	65.201210 
2993.000000	65.192651 
2992.000000	65.179991 
2991.000000	65.163183 
2990.000000	65.143465 
2989.000000	65.123224 
2988.000000	65.105557 
2987.000000	65.093493 
2986.000000	65.089416 
2985.000000	65.094494 
2984.000000	65.108203 
2983.000000	65.128493 
2982.000000	65.152359 
2981.000000	65.176868 
2980.000000	65.199446 
2979.000000	65.218853 
2978.000000	65.235233 
2977.000000	65.250039 
2976.000000	65.265297 
2975.000000	65.282845 
2974.000000	65.303587 
2973.000000	65.326952 
2972.000000	65.350937 
2971.000000	65.372133 
2970.000000	65.386962 
2969.000000	65.392279 
2968.000000	65.386414 
2967.000000	65.369510 
2966.000000	65.343546 
2965.000000	65.311813 
2964.000000	65.278458 
2963.000000	65.247011 
2962.000000	65.219926 
2961.000000	65.197944 
2960.000000	65.180087 
2959.000000	65.164208 
2958.000000	65.147852 
2957.000000	65.128827 
2956.000000	65.106225 
2955.000000	65.080714 
2954.000000	65.054392 
2953.000000	65.030145 
2952.000000	65.010929 
2951.000000	64.998865 
2950.000000	64.994621 
2949.000000	64.997029 
2948.000000	65.003395 
2947.000000	65.010046 
2946.000000	65.013456 
2945.000000	65.010809 
2944.000000	65.001106 
2943.000000	64.985108 
2942.000000	64.965486 
2941.000000	64.945983 
2940.000000	64.930677 
2939.000000	64.922904 
2938.000000	64.924454 
2937.000000	64.935350 
2936.000000	64.953494 
2935.000000	64.975357 
2934.000000	64.996504 
2933.000000	65.012764 
2932.000000	65.020489 
2931.000000	65.017223 
2930.000000	65.002179 
2929.000000	64.976453 
2928.000000	64.942479 
2927.000000	64.903712 
2926.000000	64.864301 
2925.000000	64.828395 
2924.000000	64.799571 
2923.000000	64.780306 
2922.000000	64.771819 
2921.000000	64.773941 
2920.000000	64.785146 
2919.000000	64.803123 
2918.000000	64.824986 
2917.000000	64.848256 
2916.000000	64.870738 
2915.000000	64.891505 
2914.000000	64.910006 
2913.000000	64.926576 
2912.000000	64.941620 
2911.000000	64.955520 
2910.000000	64.968323 
2909.000000	64.979958 
2908.000000	64.990067 
2907.000000	64.998722 
2906.000000	65.006566 
2905.000000	65.014648 
2904.000000	65.024375 
2903.000000	65.036964 
2902.000000	65.053176 
2901.000000	65.072941 
2900.000000	65.095090 
2899.000000	65.117597 
2898.000000	65.137839 
2897.000000	65.153336 
2896.000000	65.162372 
2895.000000	65.164446 
2894.000000	65.160298 
2893.000000	65.152192 
2892.000000	65.142941 
2891.000000	65.135526 
2890.000000	65.132021 
2889.000000	65.133333 
2888.000000	65.138602 
2887.000000	65.145564 
2886.000000	65.151309 
2885.000000	65.153145 
2884.000000	65.149426 
2883.000000	65.139865 
2882.000000	65.126252 
2881.000000	65.111923 
2880.000000	65.101194 
2879.000000	65.098071 
2878.000000	65.105438 
2877.000000	65.124225 
2876.000000	65.153050 
2875.000000	65.188288 
2874.000000	65.224814 
2873.000000	65.256834 
2872.000000	65.278983 
2871.000000	65.287232 
2870.000000	65.279555 
2869.000000	65.256094 
2868.000000	65.219116 
2867.000000	65.172505 
2866.000000	65.121364 
2865.000000	65.070843 
2864.000000	65.025901 
2863.000000	64.990067 
2862.000000	64.965486 
2861.000000	64.952349 
2860.000000	64.949226 
2859.000000	64.953446 
2858.000000	64.961504 
2857.000000	64.970064 
2856.000000	64.976072 
2855.000000	64.978075 
2854.000000	64.975690 
2853.000000	64.970135 
2852.000000	64.963531 
2851.000000	64.958572 
2850.000000	64.957666 
2849.000000	64.962649 
2848.000000	64.974308 
2847.000000	64.992356 
2846.000000	65.015339 
2845.000000	65.041065 
2844.000000	65.066933 
2843.000000	65.090203 
2842.000000	65.108680 
2841.000000	65.120697 
2840.000000	65.125632 
2839.000000	65.123939 
2838.000000	65.117216 
2837.000000	65.108132 
2836.000000	65.099692 
2835.000000	65.094876 
2834.000000	65.095782 
2833.000000	65.103626 
2832.000000	65.118122 
2831.000000	65.137648 
2830.000000	65.159606 
2829.000000	65.181207 
2828.000000	65.200138 
2827.000000	65.215182 
2826.000000	65.226316 
2825.000000	65.234661 
2824.000000	65.241789 
2823.000000	65.249013 
2822.000000	65.256762 
2821.000000	65.264320 
2820.000000	65.269827 
2819.000000	65.270805 
2818.000000	65.264940 
2817.000000	65.251064 
2816.000000	65.229558 
2815.000000	65.202403 
2814.000000	65.172791 
2813.000000	65.144634 
2812.000000	65.121507 
2811.000000	65.106034 
2810.000000	65.098977 
2809.000000	65.099525 
2808.000000	65.105462 
2807.000000	65.113806 
2806.000000	65.121650 
2805.000000	65.126776 
2804.000000	65.127873 
2803.000000	65.125036 
2802.000000	65.119028 
2801.000000	65.111732 
2800.000000	65.105319 
2799.000000	65.102195 
2798.000000	65.104222 
2797.000000	65.112662 
2796.000000	65.128159 
2795.000000	65.150403 
2794.000000	65.178108 
2793.000000	65.209650 
2792.000000	65.243029 
2791.000000	65.276145 
2790.000000	65.306997 
2789.000000	65.333724 
2788.000000	65.354728 
2787.000000	65.368866 
2786.000000	65.375518 
2785.000000	65.375041 
2784.000000	65.368485 
2783.000000	65.358114 
2782.000000	65.346360 
2781.000000	65.335798 
2780.000000	65.328216 
2779.000000	65.324831 
2778.000000	65.325450 
2777.000000	65.328717 
2776.000000	65.332341 
2775.000000	65.333867 
2774.000000	65.331101 
2773.000000	65.322542 
2772.000000	65.307641 
2771.000000	65.286946 
2770.000000	65.262031 
2769.000000	65.235185 
2768.000000	65.208864 
2767.000000	65.185165 
2766.000000	65.165829 
2765.000000	65.152072 
2764.000000	65.144276 
2763.000000	65.142130 
2762.000000	65.144991 
2761.000000	65.152096 
2760.000000	65.162205 
2759.000000	65.174269 
2758.000000	65.187025 
2757.000000	65.199708 
2756.000000	65.211486 
2755.000000	65.221834 
2754.000000	65.230822 
2753.000000	65.239119 
2752.000000	65.247750 
2751.000000	65.257859 
2750.000000	65.270590 
2749.000000	65.286493 
2748.000000	65.305495 
2747.000000	65.326404 
2746.000000	65.346980 
2745.000000	65.364265 
2744.000000	65.375161 
2743.000000	65.376687 
2742.000000	65.366935 
2741.000000	65.345311 
2740.000000	65.313076 
2739.000000	65.272927 
2738.000000	65.228700 
2737.000000	65.184783 
2736.000000	65.145349 
2735.000000	65.113472 
2734.000000	65.090775 
2733.000000	65.077257 
2732.000000	65.071415 
2731.000000	65.070700 
2730.000000	65.072298 
2729.000000	65.073657 
2728.000000	65.073204 
2727.000000	65.070605 
2726.000000	65.066766 
2725.000000	65.063118 
2724.000000	65.061640 
2723.000000	65.063714 
2722.000000	65.070223 
2721.000000	65.080809 
2720.000000	65.094447 
2719.000000	65.109515 
2718.000000	65.124416 
2717.000000	65.137839 
2716.000000	65.149307 
2715.000000	65.159153 
2714.000000	65.168261 
2713.000000	65.177702 
2712.000000	65.188264 
2711.000000	65.200209 
2710.000000	65.213179 
2709.000000	65.226221 
2708.000000	65.238213 
2707.000000	65.248060 
2706.000000	65.255308 
2705.000000	65.260195 
2704.000000	65.263295 
2703.000000	65.265464 
2702.000000	65.267825 
2701.000000	65.271043 
2700.000000	65.275406 
2699.000000	65.280628 
2698.000000	65.286207 
2697.000000	65.291428 
2696.000000	65.295791 
2695.000000	65.298748 
2694.000000	65.300107 
2693.000000	65.299630 
2692.000000	65.297222 
2691.000000	65.292716 
2690.000000	65.285921 
2689.000000	65.276885 
2688.000000	65.266299 
2687.000000	65.255212 
2686.000000	65.245056 
2685.000000	65.237379 
2684.000000	65.233564 
2683.000000	65.234065 
2682.000000	65.238595 
2681.000000	65.246033 
2680.000000	65.254878 
2679.000000	65.263462 
2678.000000	65.270423 
2677.000000	65.275168 
2676.000000	65.278029 
2675.000000	65.279817 
2674.000000	65.281653 
2673.000000	65.284490 
2672.000000	65.288829 
2671.000000	65.294528 
2670.000000	65.300703 
2669.000000	65.306282 
2668.000000	65.309810 
2667.000000	65.310454 
2666.000000	65.307497 
2665.000000	65.300846 
2664.000000	65.290617 
2663.000000	65.277338 
2662.000000	65.261650 
2661.000000	65.244293 
2660.000000	65.226125 
2659.000000	65.208268 
2658.000000	65.191841 
2657.000000	65.178012 
2656.000000	65.167808 
2655.000000	65.161728 
2654.000000	65.159821 
2653.000000	65.161609 
2652.000000	65.165877 
2651.000000	65.171337 
2650.000000	65.176510 
2649.000000	65.180492 
2648.000000	65.182828 
2647.000000	65.183687 
2646.000000	65.183711 
2645.000000	65.183949 
2644.000000	65.185236 
2643.000000	65.188193 
2642.000000	65.193104 
2641.000000	65.199708 
2640.000000	65.207624 
2639.000000	65.216064 
2638.000000	65.224337 
2637.000000	65.231585 
2636.000000	65.237188 
2635.000000	65.240526 
2634.000000	65.241074 
2633.000000	65.238380 
2632.000000	65.232348 
2631.000000	65.223145 
2630.000000	65.211343 
2629.000000	65.198063 
2628.000000	65.184712 
2627.000000	65.172982 
2626.000000	65.164184 
2625.000000	65.159344 
2624.000000	65.158700 
2623.000000	65.161752 
2622.000000	65.167498 
2621.000000	65.174484 
2620.000000	65.181279 
2619.000000	65.186953 
2618.000000	65.191435 
2617.000000	65.195178 
2616.000000	65.199303 
2615.000000	65.205121 
2614.000000	65.213704 
2613.000000	65.225696 
2612.000000	65.240883 
2611.000000	65.258193 
2610.000000	65.276050 
2609.000000	65.292668 
2608.000000	65.306639 
2607.000000	65.317225 
2606.000000	65.324473 
2605.000000	65.329170 
2604.000000	65.332460 
2603.000000	65.335392 
2602.000000	65.338683 
2601.000000	65.342092 
2600.000000	65.344691 
2599.000000	65.344810 
2598.000000	65.340662 
2597.000000	65.330767 
2596.000000	65.314197 
2595.000000	65.291190 
2594.000000	65.262985 
2593.000000	65.231895 
2592.000000	65.200805 
2591.000000	65.172863 
2590.000000	65.150594 
2589.000000	65.136265 
2588.000000	65.131115 
2587.000000	65.135478 
2586.000000	65.148758 
2585.000000	65.169191 
2584.000000	65.194344 
2583.000000	65.221214 
2582.000000	65.246486 
2581.000000	65.267133 
2580.000000	65.280747 
2579.000000	65.285921 
2578.000000	65.282535 
2577.000000	65.271306 
2576.000000	65.253877 
2575.000000	65.232443 
2574.000000	65.209388 
2573.000000	65.187406 
2572.000000	65.168833 
2571.000000	65.155768 
2570.000000	65.149545 
2569.000000	65.150451 
2568.000000	65.157461 
2567.000000	65.168428 
2566.000000	65.180850 
2565.000000	65.191984 
2564.000000	65.199947 
2563.000000	65.203809 
2562.000000	65.203881 
2561.000000	65.200996 
2560.000000	65.196633 
2559.000000	65.192127 
2558.000000	65.188837 
2557.000000	65.187549 
2556.000000	65.188908 
2555.000000	65.193605 
2554.000000	65.202021 
2553.000000	65.214300 
2552.000000	65.230298 
2551.000000	65.249443 
2550.000000	65.270519 
2549.000000	65.291833 
2548.000000	65.311288 
2547.000000	65.326929 
2546.000000	65.337252 
2545.000000	65.341567 
2544.000000	65.340161 
2543.000000	65.334105 
2542.000000	65.325212 
2541.000000	65.315341 
2540.000000	65.306258 
2539.000000	65.299177 
2538.000000	65.294814 
2537.000000	65.293478 
2536.000000	65.295076 
2535.000000	65.299415 
2534.000000	65.306210 
2533.000000	65.315294 
2532.000000	65.326261 
2531.000000	65.339016 
2530.000000	65.353441 
2529.000000	65.369439 
2528.000000	65.386891 
2527.000000	65.405607 
2526.000000	65.425205 
2525.000000	65.445017 
2524.000000	65.463805 
2523.000000	65.480113 
2522.000000	65.492057 
2521.000000	65.497756 
2520.000000	65.495586 
2519.000000	65.484642 
2518.000000	65.464901 
2517.000000	65.437483 
2516.000000	65.404415 
2515.000000	65.368103 
2514.000000	65.331006 
2513.000000	65.295386 
2512.000000	65.263152 
2511.000000	65.235686 
2510.000000	65.214204 
2509.000000	65.199661 
2508.000000	65.192842 
2507.000000	65.194058 
2506.000000	65.202832 
2505.000000	65.217781 
2504.000000	65.236473 
2503.000000	65.255641 
2502.000000	65.271639 
2501.000000	65.280866 
2500.000000	65.280604 
2499.000000	65.269660 
2498.000000	65.248918 
2497.000000	65.220999 
2496.000000	65.190196 
2495.000000	65.161705 
2494.000000	65.140581 
2493.000000	65.130996 
2492.000000	65.135478 
2491.000000	65.154409 
2490.000000	65.186285 
2489.000000	65.227746 
2488.000000	65.274190 
2487.000000	65.320587 
2486.000000	65.362215 
2485.000000	65.395092 
2484.000000	65.416479 
2483.000000	65.425109 
2482.000000	65.421271 
2481.000000	65.406489 
2480.000000	65.383028 
2479.000000	65.353560 
2478.000000	65.321230 
2477.000000	65.288877 
2476.000000	65.259075 
2475.000000	65.233969 
2474.000000	65.215229 
2473.000000	65.203833 
2472.000000	65.200066 
2471.000000	65.203237 
2470.000000	65.211963 
2469.000000	65.224218 
2468.000000	65.237832 
2467.000000	65.250587 
2466.000000	65.260744 
2465.000000	65.267181 
2464.000000	65.269684 
2463.000000	65.268850 
2462.000000	65.266013 
2461.000000	65.262866 
2460.000000	65.261125 
2459.000000	65.262103 
2458.000000	65.266370 
2457.000000	65.274024 
2456.000000	65.284419 
2455.000000	65.296506 
2454.000000	65.309023 
2453.000000	65.321040 
2452.000000	65.331888 
2451.000000	65.341424 
2450.000000	65.349769 
2449.000000	65.356922 
2448.000000	65.362691 
2447.000000	65.366697 
2446.000000	65.368032 
2445.000000	65.365552 
2444.000000	65.358209 
2443.000000	65.345549 
2442.000000	65.327668 
2441.000000	65.305542 
2440.000000	65.280961 
2439.000000	65.256118 
2438.000000	65.233373 
2437.000000	65.214610 
2436.000000	65.200686 
2435.000000	65.191435 
2434.000000	65.185785 
2433.000000	65.182113 
2432.000000	65.178513 
2431.000000	65.173912 
2430.000000	65.168094 
2429.000000	65.162634 
2428.000000	65.159893 
2427.000000	65.163516 
2426.000000	65.176939 
2425.000000	65.203022 
2424.000000	65.242695 
2423.000000	65.294480 
2422.000000	65.354585 
2421.000000	65.417122 
2420.000000	65.475296 
2419.000000	65.522551 
2418.000000	65.553927 
2417.000000	65.567040 
2416.000000	65.562462 
2415.000000	65.543389 
2414.000000	65.514516 
2413.000000	65.481257 
2412.000000	65.448427 
2411.000000	65.419244 
2410.000000	65.394878 
2409.000000	65.375041 
2408.000000	65.358352 
2407.000000	65.343213 
2406.000000	65.328598 
2405.000000	65.314340 
2404.000000	65.301299 
2403.000000	65.290713 
2402.000000	65.283942 
2401.000000	65.281438 
2400.000000	65.282893 
2399.000000	65.287113 
2398.000000	65.292477 
2397.000000	65.297222 
2396.000000	65.300107 
2395.000000	65.300703 
2394.000000	65.299439 
2393.000000	65.297317 
2392.000000	65.295910 
2391.000000	65.296840 
2390.000000	65.301370 
2389.000000	65.310049 
2388.000000	65.322923 
2387.000000	65.339422 
2386.000000	65.358543 
2385.000000	65.378832 
2384.000000	65.398645 
2383.000000	65.416359 
2382.000000	65.430474 
2381.000000	65.439796 
2380.000000	65.443444 
2379.000000	65.440940 
2378.000000	65.432643 
2377.000000	65.419387 
2376.000000	65.402698 
2375.000000	65.384149 
2374.000000	65.365719 
2373.000000	65.348982 
2372.000000	65.335059 
2371.000000	65.324568 
2370.000000	65.317463 
2369.000000	65.313243 
2368.000000	65.311050 
2367.000000	65.309834 
2366.000000	65.308618 
2365.000000	65.306568 
2364.000000	65.303158 
2363.000000	65.298128 
2362.000000	65.291452 
2361.000000	65.283465 
2360.000000	65.274739 
2359.000000	65.265917 
2358.000000	65.257644 
2357.000000	65.250563 
2356.000000	65.245008 
2355.000000	65.240859 
2354.000000	65.237736 
2353.000000	65.234899 
2352.000000	65.231633 
2351.000000	65.227293 
2350.000000	65.221810 
2349.000000	65.215730 
2348.000000	65.210294 
2347.000000	65.207314 
2346.000000	65.208601 
2345.000000	65.215611 
2344.000000	65.228962 
2343.000000	65.248250 
2342.000000	65.271949 
2341.000000	65.297746 
2340.000000	65.322995 
2339.000000	65.345263 
2338.000000	65.362572 
2337.000000	65.373945 
2336.000000	65.379261 
2335.000000	65.379166 
2334.000000	65.374803 
2333.000000	65.367460 
2332.000000	65.358352 
2331.000000	65.348458 
2330.000000	65.338540 
2329.000000	65.329170 
2328.000000	65.321016 
2327.000000	65.314555 
2326.000000	65.310215 
2325.000000	65.308213 
2324.000000	65.308427 
2323.000000	65.310239 
2322.000000	65.313076 
2321.000000	65.316033 
2320.000000	65.318393 
2319.000000	65.319752 
2318.000000	65.320014 
2317.000000	65.319442 
2316.000000	65.318751 
2315.000000	65.318775 
2314.000000	65.320348 
2313.000000	65.324211 
2312.000000	65.330648 
2311.000000	65.339517 
2310.000000	65.349984 
2309.000000	65.360784 
2308.000000	65.370225 
2307.000000	65.376639 
2306.000000	65.378689 
2305.000000	65.375685 
2304.000000	65.367627 
2303.000000	65.355324 
2302.000000	65.340399 
2301.000000	65.324950 
2300.000000	65.311002 
2299.000000	65.300202 
2298.000000	65.293574 
2297.000000	65.291309 
2296.000000	65.293002 
2295.000000	65.297698 
2294.000000	65.304350 
2293.000000	65.312004 
2292.000000	65.320229 
2291.000000	65.328836 
2290.000000	65.337944 
2289.000000	65.347743 
2288.000000	65.358328 
2287.000000	65.369319 
2286.000000	65.380001 
2285.000000	65.389442 
2284.000000	65.396642 
2283.000000	65.400695 
2282.000000	65.401124 
2281.000000	65.397763 
2280.000000	65.390849 
2279.000000	65.380907 
2278.000000	65.368580 
2277.000000	65.354585 
2276.000000	65.339684 
2275.000000	65.324926 
2274.000000	65.311431 
2273.000000	65.300416 
2272.000000	65.292954 
2271.000000	65.289807 
2270.000000	65.291237 
2269.000000	65.296792 
2268.000000	65.305376 
2267.000000	65.315508 
2266.000000	65.325593 
2265.000000	65.334272 
2264.000000	65.340709 
2263.000000	65.345001 
2262.000000	65.347862 
2261.000000	65.350604 
2260.000000	65.354704 
2259.000000	65.361332 
2258.000000	65.371060 
2257.000000	65.383529 
2256.000000	65.397548 
2255.000000	65.411281 
2254.000000	65.422558 
2253.000000	65.429520 
2252.000000	65.430903 
2251.000000	65.426278 
2250.000000	65.416264 
2249.000000	65.402340 
2248.000000	65.386247 
2247.000000	65.370059 
2246.000000	65.355396 
2245.000000	65.343189 
2244.000000	65.333795 
2243.000000	65.326976 
2242.000000	65.322136 
2241.000000	65.318751 
2240.000000	65.316510 
2239.000000	65.315580 
2238.000000	65.316438 
2237.000000	65.319681 
2236.000000	65.325665 
2235.000000	65.334248 
2234.000000	65.344643 
2233.000000	65.355443 
2232.000000	65.364789 
2231.000000	65.370774 
2230.000000	65.371966 
2229.000000	65.367817 
2228.000000	65.358853 
2227.000000	65.346717 
2226.000000	65.333604 
2225.000000	65.322041 
2224.000000	65.314292 
2223.000000	65.311932 
2222.000000	65.315675 
2221.000000	65.325021 
2220.000000	65.338659 
2219.000000	65.354752 
2218.000000	65.371179 
2217.000000	65.386176 
2216.000000	65.398335 
2215.000000	65.407180 
2214.000000	65.412759 
2213.000000	65.415787 
2212.000000	65.417551 
2211.000000	65.419268 
2210.000000	65.421915 
2209.000000	65.425825 
2208.000000	65.430712 
2207.000000	65.435504 
2206.000000	65.438652 
2205.000000	65.438532 
2204.000000	65.433788 
2203.000000	65.424108 
2202.000000	65.410494 
2201.000000	65.395212 
2200.000000	65.381455 
2199.000000	65.372776 
2198.000000	65.372228 
2197.000000	65.381407 
2196.000000	65.399885 
2195.000000	65.425181 
2194.000000	65.453004 
2193.000000	65.478086 
2192.000000	65.495371 
2191.000000	65.501141 
2190.000000	65.493893 
2189.000000	65.474653 
2188.000000	65.446972 
2187.000000	65.416216 
2186.000000	65.388369 
2185.000000	65.368700 
2184.000000	65.360498 
2183.000000	65.364742 
2182.000000	65.379524 
2181.000000	65.401005 
2180.000000	65.423965 
2179.000000	65.443158 
2178.000000	65.454506 
2177.000000	65.455842 
2176.000000	65.447139 
2175.000000	65.430188 
2174.000000	65.408134 
2173.000000	65.384626 
2172.000000	65.362739 
2171.000000	65.344429 
2170.000000	65.330505 
2169.000000	65.320467 
2168.000000	65.313053 
2167.000000	65.306448 
2166.000000	65.299272 
2165.000000	65.290355 
2164.000000	65.279245 
2163.000000	65.265822 
2162.000000	65.250158 
2161.000000	65.232777 
2160.000000	65.214180 
2159.000000	65.195202 
2158.000000	65.176630 
2157.000000	65.159869 
2156.000000	65.146327 
2155.000000	65.137743 
2154.000000	65.135598 
2153.000000	65.141081 
2152.000000	65.154504 
2151.000000	65.175342 
2150.000000	65.202140 
2149.000000	65.232992 
2148.000000	65.265512 
2147.000000	65.297436 
2146.000000	65.326762 
2145.000000	65.351939 
2144.000000	65.371799 
2143.000000	65.385699 
2142.000000	65.393519 
2141.000000	65.395474 
2140.000000	65.392279 
2139.000000	65.385198 
2138.000000	65.375876 
2137.000000	65.366435 
2136.000000	65.358495 
2135.000000	65.353822 
2134.000000	65.353178 
2133.000000	65.356492 
2132.000000	65.362763 
2131.000000	65.370297 
2130.000000	65.377092 
2129.000000	65.381360 
2128.000000	65.381956 
2127.000000	65.378737 
2126.000000	65.372586 
2125.000000	65.365123 
2124.000000	65.358400 
2123.000000	65.354275 
2122.000000	65.354180 
2121.000000	65.358614 
2120.000000	65.367269 
2119.000000	65.378856 
2118.000000	65.391540 
2117.000000	65.403199 
2116.000000	65.411710 
2115.000000	65.415501 
2114.000000	65.413641 
2113.000000	65.406346 
2112.000000	65.394425 
2111.000000	65.379500 
2110.000000	65.363860 
2109.000000	65.349984 
2108.000000	65.340018 
2107.000000	65.335536 
2106.000000	65.337395 
2105.000000	65.345382 
2104.000000	65.358400 
2103.000000	65.374660 
2102.000000	65.392017 
2101.000000	65.408444 
2100.000000	65.422177 
2099.000000	65.432214 
2098.000000	65.438175 
2097.000000	65.440559 
2096.000000	65.440464 
2095.000000	65.439414 
2094.000000	65.439128 
2093.000000	65.441513 
2092.000000	65.448188 
2091.000000	65.460109 
2090.000000	65.477252 
2089.000000	65.498781 
2088.000000	65.522694 
2087.000000	65.546083 
2086.000000	65.565276 
2085.000000	65.576529 
2084.000000	65.576481 
2083.000000	65.563130 
2082.000000	65.536069 
2081.000000	65.496802 
2080.000000	65.448498 
2079.000000	65.395760 
2078.000000	65.343713 
2077.000000	65.297198 
2076.000000	65.260219 
2075.000000	65.235471 
2074.000000	65.224075 
2073.000000	65.225434 
2072.000000	65.237879 
2071.000000	65.258836 
2070.000000	65.285587 
2069.000000	65.315222 
2068.000000	65.345954 
2067.000000	65.376806 
2066.000000	65.407848 
2065.000000	65.439581 
2064.000000	65.472722 
2063.000000	65.507459 
2062.000000	65.543341 
2061.000000	65.578722 
2060.000000	65.611171 
2059.000000	65.637350 
2058.000000	65.654349 
2057.000000	65.659594 
2056.000000	65.651845 
2055.000000	65.631008 
2054.000000	65.598821 
2053.000000	65.557932 
2052.000000	65.511775 
2051.000000	65.463709 
2050.000000	65.417122 
2049.000000	65.374636 
2048.000000	65.338063 
2047.000000	65.308356 
2046.000000	65.286135 
2045.000000	65.271043 
2044.000000	65.262246 
2043.000000	65.258479 
2042.000000	65.258002 
2041.000000	65.259146 
2040.000000	65.260601 
2039.000000	65.261459 
2038.000000	65.261507 
2037.000000	65.261173 
2036.000000	65.261411 
2035.000000	65.263295 
2034.000000	65.267682 
2033.000000	65.275096 
2032.000000	65.285658 
2031.000000	65.298819 
2030.000000	65.313839 
2029.000000	65.329861 
2028.000000	65.346431 
2027.000000	65.363454 
2026.000000	65.381026 
2025.000000	65.399432 
2024.000000	65.418553 
2023.000000	65.438103 
2022.000000	65.457105 
2021.000000	65.473985 
2020.000000	65.486812 
2019.000000	65.494108 
2018.000000	65.494608 
2017.000000	65.488028 
2016.000000	65.475130 
2015.000000	65.457677 
2014.000000	65.438222 
2013.000000	65.419507 
2012.000000	65.404057 
2011.000000	65.393733 
2010.000000	65.389394 
2009.000000	65.390658 
2008.000000	65.396189 
2007.000000	65.403914 
2006.000000	65.411591 
2005.000000	65.417337 
2004.000000	65.419864 
2003.000000	65.418863 
2002.000000	65.415215 
2001.000000	65.410709 
2000.000000	65.407562 
1999.000000	65.407776 
1998.000000	65.412807 
1997.000000	65.422964 
1996.000000	65.437245 
1995.000000	65.453338 
1994.000000	65.468311 
1993.000000	65.478968 
1992.000000	65.482854 
1991.000000	65.478682 
1990.000000	65.466666 
1989.000000	65.448617 
1988.000000	65.427517 
1987.000000	65.406727 
1986.000000	65.389251 
1985.000000	65.377044 
1984.000000	65.370750 
1983.000000	65.369558 
1982.000000	65.371704 
1981.000000	65.374970 
1980.000000	65.377140 
1979.000000	65.376639 
1978.000000	65.372562 
1977.000000	65.364789 
1976.000000	65.353822 
1975.000000	65.340471 
1974.000000	65.325736 
1973.000000	65.310502 
1972.000000	65.295600 
1971.000000	65.281987 
1970.000000	65.270709 
1969.000000	65.262985 
1968.000000	65.260100 
1967.000000	65.263175 
1966.000000	65.273070 
1965.000000	65.289807 
1964.000000	65.312480 
1963.000000	65.339112 
1962.000000	65.366911 
1961.000000	65.392661 
1960.000000	65.413069 
1959.000000	65.425419 
1958.000000	65.428090 
1957.000000	65.420770 
1956.000000	65.404415 
1955.000000	65.380859 
1954.000000	65.352749 
1953.000000	65.322947 
1952.000000	65.294027 
1951.000000	65.267968 
1950.000000	65.246057 
1949.000000	65.228891 
1948.000000	65.216588 
1947.000000	65.208959 
1946.000000	65.205502 
1945.000000	65.205764 
1944.000000	65.208935 
1943.000000	65.214586 
1942.000000	65.222048 
1941.000000	65.230917 
1940.000000	65.240859 
1939.000000	65.251755 
1938.000000	65.263724 
1937.000000	65.276956 
1936.000000	65.291595 
1935.000000	65.307593 
1934.000000	65.324521 
1933.000000	65.341663 
1932.000000	65.358042 
1931.000000	65.372610 
1930.000000	65.384483 
1929.000000	65.393018 
1928.000000	65.398025 
1927.000000	65.399718 
1926.000000	65.398454 
1925.000000	65.394473 
1924.000000	65.387797 
1923.000000	65.378236 
1922.000000	65.365624 
1921.000000	65.349960 
1920.000000	65.331816 
1919.000000	65.312576 
1918.000000	65.294361 
1917.000000	65.279531 
1916.000000	65.270161 
1915.000000	65.267825 
1914.000000	65.272784 
1913.000000	65.283846 
1912.000000	65.298748 
1911.000000	65.314269 
1910.000000	65.327286 
1909.000000	65.335559 
1908.000000	65.337944 
1907.000000	65.334749 
1906.000000	65.327596 
1905.000000	65.318989 
1904.000000	65.311622 
1903.000000	65.307545 
1902.000000	65.307831 
1901.000000	65.312480 
1900.000000	65.320420 
1899.000000	65.329790 
1898.000000	65.338563 
1897.000000	65.344953 
1896.000000	65.347599 
1895.000000	65.346121 
1894.000000	65.340781 
1893.000000	65.332627 
1892.000000	65.323019 
1891.000000	65.313649 
1890.000000	65.305829 
1889.000000	65.300655 
1888.000000	65.298676 
1887.000000	65.299797 
1886.000000	65.303468 
1885.000000	65.308570 
1884.000000	65.313863 
1883.000000	65.318059 
1882.000000	65.320014 
1881.000000	65.318989 
1880.000000	65.314722 
1879.000000	65.307569 
1878.000000	65.298485 
1877.000000	65.288758 
1876.000000	65.279746 
1875.000000	65.272760 
1874.000000	65.268778 
1873.000000	65.268373 
1872.000000	65.271663 
1871.000000	65.278410 
1870.000000	65.288019 
1869.000000	65.299916 
1868.000000	65.313601 
1867.000000	65.328526 
1866.000000	65.344166 
1865.000000	65.359830 
1864.000000	65.374732 
1863.000000	65.387892 
1862.000000	65.398240 
1861.000000	65.404725 
1860.000000	65.406632 
1859.000000	65.403628 
1858.000000	65.395975 
1857.000000	65.384674 
1856.000000	65.370941 
1855.000000	65.356159 
1854.000000	65.341567 
1853.000000	65.328025 
1852.000000	65.315771 
1851.000000	65.304732 
1850.000000	65.294456 
1849.000000	65.284705 
1848.000000	65.275454 
1847.000000	65.267252 
1846.000000	65.260887 
1845.000000	65.257501 
1844.000000	65.258026 
1843.000000	65.263223 
1842.000000	65.273118 
1841.000000	65.286922 
1840.000000	65.303397 
1839.000000	65.320849 
1838.000000	65.337538 
1837.000000	65.352010 
1836.000000	65.363311 
1835.000000	65.371060 
1834.000000	65.375351 
1833.000000	65.376710 
1832.000000	65.375757 
1831.000000	65.373325 
1830.000000	65.370035 
1829.000000	65.366387 
1828.000000	65.362763 
1827.000000	65.359401 
1826.000000	65.356540 
1825.000000	65.354156 
1824.000000	65.351963 
1823.000000	65.349626 
1822.000000	65.346646 
1821.000000	65.342402 
1820.000000	65.336275 
1819.000000	65.327858 
1818.000000	65.317130 
1817.000000	65.304350 
1816.000000	65.290117 
1815.000000	65.275144 
1814.000000	65.260314 
1813.000000	65.246438 
1812.000000	65.234327 
1811.000000	65.224504 
1810.000000	65.217304 
1809.000000	65.212941 
1808.000000	65.211606 
1807.000000	65.213203 
1806.000000	65.217614 
1805.000000	65.224456 
1804.000000	65.233325 
1803.000000	65.243506 
1802.000000	65.254235 
1801.000000	65.264630 
1800.000000	65.274071 
1799.000000	65.282225 
1798.000000	65.289187 
1797.000000	65.295338 
1796.000000	65.301394 
1795.000000	65.308022 
1794.000000	65.315675 
1793.000000	65.324211 
1792.000000	65.332984 
1791.000000	65.340733 
1790.000000	65.345764 
1789.000000	65.346455 
1788.000000	65.341615 
1787.000000	65.330862 
1786.000000	65.314793 
1785.000000	65.295147 
1784.000000	65.274238 
1783.000000	65.254807 
1782.000000	65.239453 
1781.000000	65.229988 
1780.000000	65.227293 
1779.000000	65.231180 
1778.000000	65.240573 
1777.000000	65.253734 
1776.000000	65.268659 
1775.000000	65.283727 
1774.000000	65.297842 
1773.000000	65.310668 
1772.000000	65.322327 
1771.000000	65.333318 
1770.000000	65.344166 
1769.000000	65.355134 
1768.000000	65.365934 
1767.000000	65.375852 
1766.000000	65.384006 
1765.000000	65.389537 
1764.000000	65.391755 
1763.000000	65.390658 
1762.000000	65.386748 
1761.000000	65.381002 
1760.000000	65.374684 
1759.000000	65.369105 
1758.000000	65.365266 
1757.000000	65.363788 
1756.000000	65.364313 
1755.000000	65.366029 
1754.000000	65.367341 
1753.000000	65.366625 
1752.000000	65.362167 
1751.000000	65.352678 
1750.000000	65.337610 
1749.000000	65.317296 
1748.000000	65.293169 
1747.000000	65.267252 
1746.000000	65.242075 
1745.000000	65.220141 
1744.000000	65.203261 
1743.000000	65.192389 
1742.000000	65.187215 
1741.000000	65.186190 
1740.000000	65.186691 
1739.000000	65.185666 
1738.000000	65.180182 
1737.000000	65.168046 
1736.000000	65.148210 
1735.000000	65.121269 
1734.000000	65.089106 
1733.000000	65.054845 
1732.000000	65.022158 
1731.000000	64.994716 
1730.000000	64.975309 
1729.000000	64.965558 
1728.000000	64.965558 
1727.000000	64.974117 
1726.000000	64.988732 
1725.000000	65.006589 
1724.000000	65.024948 
1723.000000	65.041804 
1722.000000	65.055966 
1721.000000	65.067529 
1720.000000	65.077185 
1719.000000	65.086269 
1718.000000	65.096044 
1717.000000	65.107345 
1716.000000	65.120267 
1715.000000	65.134382 
1714.000000	65.148901 
1713.000000	65.162968 
1712.000000	65.175747 
1711.000000	65.186977 
1710.000000	65.196847 
1709.000000	65.205836 
1708.000000	65.214037 
1707.000000	65.221428 
1706.000000	65.227460 
1705.000000	65.231251 
1704.000000	65.231823 
1703.000000	65.228414 
1702.000000	65.220713 
1701.000000	65.209054 
1700.000000	65.194439 
1699.000000	65.178322 
1698.000000	65.162611 
1697.000000	65.149021 
1696.000000	65.139126 
1695.000000	65.133976 
1694.000000	65.133857 
1693.000000	65.138578 
1692.000000	65.147256 
1691.000000	65.158605 
1690.000000	65.171217 
1689.000000	65.183734 
1688.000000	65.195107 
1687.000000	65.204715 
1686.000000	65.212607 
1685.000000	65.219545 
1684.000000	65.226745 
1683.000000	65.235352 
1682.000000	65.246200 
1681.000000	65.259361 
1680.000000	65.273928 
1679.000000	65.288162 
1678.000000	65.299820 
1677.000000	65.306520 
1676.000000	65.306496 
1675.000000	65.298986 
1674.000000	65.284395 
1673.000000	65.264296 
1672.000000	65.241217 
1671.000000	65.218186 
1670.000000	65.198111 
1669.000000	65.183353 
1668.000000	65.175437 
1667.000000	65.174794 
1666.000000	65.180659 
1665.000000	65.191268 
1664.000000	65.204381 
1663.000000	65.217375 
1662.000000	65.227890 
1661.000000	65.233922 
1660.000000	65.234327 
1659.000000	65.229010 
1658.000000	65.218877 
1657.000000	65.205574 
1656.000000	65.191245 
1655.000000	65.177989 
1654.000000	65.167641 
1653.000000	65.161156 
1652.000000	65.158677 
1651.000000	65.159654 
1650.000000	65.163111 
1649.000000	65.167832 
1648.000000	65.173220 
1647.000000	65.178918 
1646.000000	65.185356 
1645.000000	65.193319 
1644.000000	65.203785 
1643.000000	65.217423 
1642.000000	65.234255 
1641.000000	65.253710 
1640.000000	65.274095 
1639.000000	65.293002 
1638.000000	65.307569 
1637.000000	65.315294 
1636.000000	65.314197 
1635.000000	65.303444 
1634.000000	65.283441 
1633.000000	65.255808 
1632.000000	65.223169 
1631.000000	65.188694 
1630.000000	65.155673 
1629.000000	65.126752 
1628.000000	65.103602 
1627.000000	65.086984 
1626.000000	65.076446 
1625.000000	65.070962 
1624.000000	65.069150 
1623.000000	65.069770 
1622.000000	65.071797 
1621.000000	65.074896 
1620.000000	65.078997 
1619.000000	65.084719 
1618.000000	65.092277 
1617.000000	65.102100 
1616.000000	65.114378 
1615.000000	65.129184 
1614.000000	65.146255 
1613.000000	65.164947 
1612.000000	65.184426 
1611.000000	65.203428 
1610.000000	65.220665 
1609.000000	65.234756 
1608.000000	65.244531 
1607.000000	65.249252 
1606.000000	65.248751 
1605.000000	65.243697 
1604.000000	65.235519 
1603.000000	65.226054 
1602.000000	65.217304 
1601.000000	65.210938 
1600.000000	65.207886 
1599.000000	65.208387 
1598.000000	65.211725 
1597.000000	65.216684 
1596.000000	65.221786 
1595.000000	65.225720 
1594.000000	65.227532 
1593.000000	65.226602 
1592.000000	65.222716 
1591.000000	65.215849 
1590.000000	65.206289 
1589.000000	65.194511 
1588.000000	65.181088 
1587.000000	65.166640 
1586.000000	65.151882 
1585.000000	65.137505 
1584.000000	65.123867 
1583.000000	65.111184 
1582.000000	65.099406 
1581.000000	65.088391 
1580.000000	65.077948 
1579.000000	65.067791 
1578.000000	65.057921 
1577.000000	65.048718 
1576.000000	65.040683 
1575.000000	65.034246 
1574.000000	65.029788 
1573.000000	65.027451 
1572.000000	65.027022 
1571.000000	65.028142 
1570.000000	65.030503 
1569.000000	65.034103 
1568.000000	65.039253 
1567.000000	65.046501 
1566.000000	65.056395 
1565.000000	65.069127 
1564.000000	65.084052 
1563.000000	65.100026 
1562.000000	65.115332 
1561.000000	65.128016 
1560.000000	65.136528 
1559.000000	65.140032 
1558.000000	65.138769 
1557.000000	65.133881 
1556.000000	65.127468 
1555.000000	65.121650 
1554.000000	65.118074 
1553.000000	65.117597 
1552.000000	65.119934 
1551.000000	65.123891 
1550.000000	65.127658 
1549.000000	65.129399 
1548.000000	65.127801 
1547.000000	65.122437 
1546.000000	65.113806 
1545.000000	65.103125 
1544.000000	65.092015 
1543.000000	65.082120 
1542.000000	65.074706 
1541.000000	65.070295 
1540.000000	65.068984 
1539.000000	65.070199 
1538.000000	65.073204 
1537.000000	65.077042 
1536.000000	65.081191 
1535.000000	65.085315 
1534.000000	65.089726 
1533.000000	65.094780 
1532.000000	65.101099 
1531.000000	65.109348 
1530.000000	65.119957 
1529.000000	65.133070 
1528.000000	65.148162 
1527.000000	65.164279 
1526.000000	65.179896 
1525.000000	65.193319 
1524.000000	65.202689 
1523.000000	65.206480 
1522.000000	65.203857 
1521.000000	65.194940 
1520.000000	65.180754 
1519.000000	65.163159 
1518.000000	65.144705 
1517.000000	65.128111 
1516.000000	65.115499 
1515.000000	65.108227 
1514.000000	65.106558 
1513.000000	65.109705 
1512.000000	65.116095 
1511.000000	65.123915 
1510.000000	65.131354 
1509.000000	65.137052 
1508.000000	65.140342 
1507.000000	65.141367 
1506.000000	65.140533 
1505.000000	65.138697 
1504.000000	65.136790 
1503.000000	65.135622 
1502.000000	65.135574 
1501.000000	65.136623 
1500.000000	65.138363 
1499.000000	65.140032 
1498.000000	65.140938 
1497.000000	65.140628 
1496.000000	65.139198 
1495.000000	65.137171 
1494.000000	65.135741 
1493.000000	65.136432 
1492.000000	65.140628 
1491.000000	65.149378 
1490.000000	65.162825 
1489.000000	65.180110 
1488.000000	65.199160 
1487.000000	65.217399 
1486.000000	65.231752 
1485.000000	65.239357 
1484.000000	65.237951 
1483.000000	65.226578 
1482.000000	65.205645 
1481.000000	65.176773 
1480.000000	65.142655 
1479.000000	65.106534 
1478.000000	65.071702 
1477.000000	65.040898 
1476.000000	65.016174 
1475.000000	64.998650 
1474.000000	64.988589 
1473.000000	64.985561 
1472.000000	64.988756 
1471.000000	64.997005 
1470.000000	65.009069 
1469.000000	65.023565 
1468.000000	65.038943 
1467.000000	65.053939 
1466.000000	65.067315 
1465.000000	65.078282 
1464.000000	65.086603 
1463.000000	65.092515 
1462.000000	65.096759 
1461.000000	65.100216 
1460.000000	65.103816 
1459.000000	65.108275 
1458.000000	65.113830 
1457.000000	65.120363 
1456.000000	65.127396 
1455.000000	65.134382 
1454.000000	65.141034 
1453.000000	65.147328 
1452.000000	65.153837 
1451.000000	65.161156 
1450.000000	65.169811 
1449.000000	65.179824 
1448.000000	65.190768 
1447.000000	65.201377 
1446.000000	65.209960 
1445.000000	65.214920 
1444.000000	65.215301 
1443.000000	65.210962 
1442.000000	65.202832 
1441.000000	65.192890 
1440.000000	65.183377 
1439.000000	65.176701 
1438.000000	65.174412 
1437.000000	65.176892 
1436.000000	65.182805 
1435.000000	65.189862 
1434.000000	65.195226 
1433.000000	65.195894 
1432.000000	65.190076 
1431.000000	65.177369 
1430.000000	65.159177 
1429.000000	65.138292 
1428.000000	65.118336 
1427.000000	65.102887 
1426.000000	65.094637 
1425.000000	65.094733 
1424.000000	65.102696 
1423.000000	65.116691 
1422.000000	65.134024 
1421.000000	65.151858 
1420.000000	65.167951 
1419.000000	65.181088 
1418.000000	65.190958 
1417.000000	65.197777 
1416.000000	65.202045 
1415.000000	65.203881 
1414.000000	65.202784 
1413.000000	65.197587 
1412.000000	65.186786 
1411.000000	65.169095 
1410.000000	65.144133 
1409.000000	65.112781 
1408.000000	65.077352 
1407.000000	65.041208 
1406.000000	65.008378 
1405.000000	64.982748 
1404.000000	64.966917 
1403.000000	64.962053 
1402.000000	64.967322 
1401.000000	64.980411 
1400.000000	64.997959 
1399.000000	65.016341 
1398.000000	65.032362 
1397.000000	65.044045 
1396.000000	65.050554 
1395.000000	65.052390 
1394.000000	65.050721 
1393.000000	65.047001 
1392.000000	65.042352 
1391.000000	65.037226 
1390.000000	65.031623 
1389.000000	65.024781 
1388.000000	65.016055 
1387.000000	65.005016 
1386.000000	64.991998 
1385.000000	64.978218 
1384.000000	64.965510 
1383.000000	64.956092 
1382.000000	64.951968 
1381.000000	64.954328 
1380.000000	64.963150 
1379.000000	64.977145 
1378.000000	64.993882 
1377.000000	65.010190 
1376.000000	65.023064 
1375.000000	65.030241 
1374.000000	65.030550 
1373.000000	65.024137 
1372.000000	65.012526 
1371.000000	64.998126 
1370.000000	64.983987 
1369.000000	64.972829 
1368.000000	64.966893 
1367.000000	64.967465 
1366.000000	64.974832 
1365.000000	64.988446 
1364.000000	65.006899 
1363.000000	65.028500 
1362.000000	65.051436 
1361.000000	65.074157 
1360.000000	65.095305 
1359.000000	65.113878 
1358.000000	65.129113 
1357.000000	65.140557 
1356.000000	65.147876 
1355.000000	65.151023 
1354.000000	65.150141 
1353.000000	65.145683 
1352.000000	65.138459 
1351.000000	65.129685 
1350.000000	65.120625 
1349.000000	65.112805 
1348.000000	65.107512 
1347.000000	65.106034 
1346.000000	65.109491 
1345.000000	65.118598 
1344.000000	65.133619 
1343.000000	65.154361 
1342.000000	65.180039 
1341.000000	65.209197 
1340.000000	65.239763 
1339.000000	65.268969 
1338.000000	65.293645 
1337.000000	65.310645 
1336.000000	65.317463 
1335.000000	65.312623 
1334.000000	65.296149 
1333.000000	65.269565 
1332.000000	65.235638 
1331.000000	65.198016 
1330.000000	65.160512 
1329.000000	65.126419 
1328.000000	65.098190 
1327.000000	65.077304 
1326.000000	65.064358 
1325.000000	65.059137 
1324.000000	65.061020 
1323.000000	65.068769 
1322.000000	65.081071 
1321.000000	65.096187 
1320.000000	65.112471 
1319.000000	65.128064 
1318.000000	65.141582 
1317.000000	65.151739 
1316.000000	65.158152 
1315.000000	65.161013 
1314.000000	65.161156 
1313.000000	65.159845 
1312.000000	65.158152 
1311.000000	65.156650 
1310.000000	65.155100 
1309.000000	65.152645 
1308.000000	65.147948 
1307.000000	65.139675 
1306.000000	65.127110 
1305.000000	65.110421 
1304.000000	65.090465 
1303.000000	65.068793 
1302.000000	65.047383 
1301.000000	65.028285 
1300.000000	65.013170 
1299.000000	65.003252 
1298.000000	64.999437 
1297.000000	65.001988 
1296.000000	65.010452 
1295.000000	65.023660 
1294.000000	65.040040 
1293.000000	65.057730 
1292.000000	65.074658 
1291.000000	65.089106 
1290.000000	65.099596 
1289.000000	65.105485 
1288.000000	65.106797 
1287.000000	65.104413 
1286.000000	65.099573 
1285.000000	65.093803 
1284.000000	65.088558 
1283.000000	65.085077 
1282.000000	65.084028 
1281.000000	65.085625 
1280.000000	65.089631 
1279.000000	65.095615 
1278.000000	65.103054 
1277.000000	65.111684 
1276.000000	65.121293 
1275.000000	65.131807 
1274.000000	65.143275 
1273.000000	65.155458 
1272.000000	65.168309 
1271.000000	65.181279 
1270.000000	65.193629 
1269.000000	65.204691 
1268.000000	65.213513 
1267.000000	65.219473 
1266.000000	65.221881 
1265.000000	65.220403 
1264.000000	65.215015 
1263.000000	65.205907 
1262.000000	65.193605 
1261.000000	65.179204 
1260.000000	65.164065 
1259.000000	65.149760 
1258.000000	65.137982 
1257.000000	65.130329 
1256.000000	65.127921 
1255.000000	65.131211 
1254.000000	65.139722 
1253.000000	65.152072 
1252.000000	65.166306 
1251.000000	65.179967 
1250.000000	65.190434 
1249.000000	65.195322 
1248.000000	65.192961 
1247.000000	65.182542 
1246.000000	65.164470 
1245.000000	65.139961 
1244.000000	65.111088 
1243.000000	65.080404 
1242.000000	65.050482 
1241.000000	65.023612 
1240.000000	65.001511 
1239.000000	64.985084 
1238.000000	64.974665 
1237.000000	64.969658 
1236.000000	64.969062 
1235.000000	64.971542 
1234.000000	64.975619 
1233.000000	64.979934 
1232.000000	64.983415 
1231.000000	64.985442 
1230.000000	64.985942 
1229.000000	64.985656 
1228.000000	64.985871 
1227.000000	64.988231 
1226.000000	64.994525 
1225.000000	65.006136 
1224.000000	65.023803 
1223.000000	65.047264 
1222.000000	65.075016 
1221.000000	65.104556 
1220.000000	65.132546 
1219.000000	65.155792 
1218.000000	65.171647 
1217.000000	65.178418 
1216.000000	65.175819 
1215.000000	65.164971 
1214.000000	65.147972 
1213.000000	65.127682 
1212.000000	65.106678 
1211.000000	65.086960 
1210.000000	65.069699 
1209.000000	65.055155 
1208.000000	65.043139 
1207.000000	65.033030 
1206.000000	65.024566 
1205.000000	65.017843 
1204.000000	65.013575 
1203.000000	65.012741 
1202.000000	65.016126 
1201.000000	65.023970 
1200.000000	65.035700 
1199.000000	65.049695 
1198.000000	65.063571 
1197.000000	65.074491 
1196.000000	65.079593 
1195.000000	65.076589 
1194.000000	65.064072 
1193.000000	65.041923 
1192.000000	65.011286 
1191.000000	64.974546 
1190.000000	64.934611 
1189.000000	64.895033 
1188.000000	64.859318 
1187.000000	64.830827 
1186.000000	64.812135 
1185.000000	64.805006 
1184.000000	64.810061 
1183.000000	64.826798 
1182.000000	64.853572 
1181.000000	64.887857 
1180.000000	64.926147 
1179.000000	64.964771 
1178.000000	65.000152 
1177.000000	65.029335 
1176.000000	65.050268 
1175.000000	65.062236 
1174.000000	65.065741 
1173.000000	65.062427 
1172.000000	65.054440 
1171.000000	65.044164 
1170.000000	65.033435 
1169.000000	65.023517 
1168.000000	65.014529 
1167.000000	65.005779 
1166.000000	64.995956 
1165.000000	64.983367 
1164.000000	64.966988 
1163.000000	64.946436 
1162.000000	64.922857 
1161.000000	64.898300 
1160.000000	64.875936 
1159.000000	64.859199 
1158.000000	64.851260 
1157.000000	64.854001 
1156.000000	64.867687 
1155.000000	64.890837 
1154.000000	64.920735 
1153.000000	64.953708 
1152.000000	64.986205 
1151.000000	65.015292 
1150.000000	65.039014 
1149.000000	65.056705 
1148.000000	65.068221 
1147.000000	65.073752 
1146.000000	65.073418 
1145.000000	65.067291 
1144.000000	65.055155 
1143.000000	65.036773 
1142.000000	65.012621 
1141.000000	64.984226 
1140.000000	64.954400 
1139.000000	64.926767 
1138.000000	64.905405 
1137.000000	64.893817 
1136.000000	64.894485 
1135.000000	64.908027 
1134.000000	64.932441 
1133.000000	64.963793 
1132.000000	64.996767 
1131.000000	65.026211 
1130.000000	65.048050 
1129.000000	65.060329 
1128.000000	65.063285 
1127.000000	65.059137 
1126.000000	65.051364 
1125.000000	65.043330 
1124.000000	65.037298 
1123.000000	65.033793 
1122.000000	65.031599 
1121.000000	65.028095 
1120.000000	65.020298 
1119.000000	65.004801 
1118.000000	64.979147 
1117.000000	64.942574 
1116.000000	64.896941 
1115.000000	64.846467 
1114.000000	64.798045 
1113.000000	64.759635 
1112.000000	64.739441 
1111.000000	64.743947 
1110.000000	64.776349 
1109.000000	64.835596 
1108.000000	64.915704 
1107.000000	65.006804 
1106.000000	65.096116 
1105.000000	65.170717 
1104.000000	65.219068 
1103.000000	65.233278 
1102.000000	65.210247 
1101.000000	65.152025 
1100.000000	65.065598 
1099.000000	64.961194 
1098.000000	64.851307 
1097.000000	64.748311 
1096.000000	64.664363 
1095.000000	64.610195 
1094.000000	64.593911 
1093.000000	64.619946 
1092.000000	64.688205 
1091.000000	64.793610 
1090.000000	64.925527 
1089.000000	65.069270 
1088.000000	65.207767 
1087.000000	65.324640 
1086.000000	65.406131 
1085.000000	65.444278 
1084.000000	65.437889 
1083.000000	65.392971 
1082.000000	65.321373 
1081.000000	65.238261 
1080.000000	65.159630 
1079.000000	65.098714 
1078.000000	65.065217 
1077.000000	65.062022 
1076.000000	65.087056 
1075.000000	65.132141 
1074.000000	65.186619 
1073.000000	65.237879 
1072.000000	65.274405 
1071.000000	65.287256 
1070.000000	65.271234 
1069.000000	65.225911 
1068.000000	65.155124 
1067.000000	65.066957 
1066.000000	64.971947 
1065.000000	64.880752 
1064.000000	64.801907 
1063.000000	64.740848 
1062.000000	64.698553 
1061.000000	64.671874 
1060.000000	64.654541 
1059.000000	64.638423 
1058.000000	64.616417 
1057.000000	64.583778 
1056.000000	64.540505 
1055.000000	64.489817 
1054.000000	64.438867 
1053.000000	64.396214 
1052.000000	64.370656 
1051.000000	64.368319 
1050.000000	64.391541 
1049.000000	64.437723 
1048.000000	64.500594 
1047.000000	64.571189 
1046.000000	64.640641 
1045.000000	64.701700 
1044.000000	64.750933 
1043.000000	64.788436 
1042.000000	64.818167 
1041.000000	64.846253 
1040.000000	64.878988 
1039.000000	64.920592 
1038.000000	64.972305 
1037.000000	65.031528 
1036.000000	65.092778 
1035.000000	65.148830 
1034.000000	65.192246 
1033.000000	65.217137 
1032.000000	65.220713 
1031.000000	65.204143 
1030.000000	65.171885 
1029.000000	65.131068 
1028.000000	65.090298 
1027.000000	65.057492 
1026.000000	65.038967 
1025.000000	65.037608 
1024.000000	65.053462 
1023.000000	65.082144 
1022.000000	65.116906 
1021.000000	65.148639 
1020.000000	65.168833 
1019.000000	65.170121 
1018.000000	65.148067 
1017.000000	65.101909 
1016.000000	65.034651 
1015.000000	64.952421 
1014.000000	64.863228 
1013.000000	64.775300 
1012.000000	64.695644 
1011.000000	64.629220 
1010.000000	64.578533 
1009.000000	64.543390 
1008.000000	64.521622 
1007.000000	64.510250 
1006.000000	64.506554 
1005.000000	64.507699 
1004.000000	64.512038 
1003.000000	64.518141 
1002.000000	64.525580 
1001.000000	64.533257 
1000.000000	64.540791 
999.000000	 64.547801 
998.000000	 64.555001 
997.000000	 64.563584 
996.000000	 64.575743 
995.000000	 64.593887 
994.000000	 64.620542 
993.000000	 64.657211 
992.000000	 64.704370 
991.000000	 64.760875 
990.000000	 64.824295 
989.000000	 64.890956 
988.000000	 64.956259 
987.000000	 65.015482 
986.000000	 65.064287 
985.000000	 65.099453 
984.000000	 65.118837 
983.000000	 65.121650 
982.000000	 65.109014 
981.000000	 65.083718 
980.000000	 65.049695 
979.000000	 65.011310 
978.000000	 64.973449 
977.000000	 64.940142 
976.000000	 64.914298 
975.000000	 64.896726 
974.000000	 64.886593 
973.000000	 64.881229 
972.000000	 64.877533 
971.000000	 64.871883 
970.000000	 64.861345 
969.000000	 64.844179 
968.000000	 64.820027 
967.000000	 64.789867 
966.000000	 64.755320 
965.000000	 64.718818 
964.000000	 64.682745 
963.000000	 64.649605 
962.000000	 64.621520 
961.000000	 64.600801 
960.000000	 64.589786 
959.000000	 64.590477 
958.000000	 64.604067 
957.000000	 64.630579 
956.000000	 64.668703 
955.000000	 64.715075 
954.000000	 64.764857 
953.000000	 64.812684 
952.000000	 64.853382 
951.000000	 64.883399 
950.000000	 64.900875 
949.000000	 64.905905 
948.000000	 64.899778 
947.000000	 64.885187 
946.000000	 64.864802 
945.000000	 64.840626 
944.000000	 64.813852 
943.000000	 64.785265 
942.000000	 64.755606 
941.000000	 64.726471 
940.000000	 64.699912 
939.000000	 64.678883 
938.000000	 64.665985 
937.000000	 64.663052 
936.000000	 64.669990 
935.000000	 64.684510 
934.000000	 64.702510 
933.000000	 64.718937 
932.000000	 64.728951 
931.000000	 64.729309 
930.000000	 64.719343 
929.000000	 64.701294 
928.000000	 64.679718 
927.000000	 64.660620 
926.000000	 64.650154 
925.000000	 64.653635 
924.000000	 64.674210 
923.000000	 64.712333 
922.000000	 64.766216 
921.000000	 64.831471 
920.000000	 64.902448 
919.000000	 64.972162 
918.000000	 65.033626 
917.000000	 65.080404 
916.000000	 65.107297 
915.000000	 65.111279 
914.000000	 65.091991 
913.000000	 65.051841 
912.000000	 64.996433 
911.000000	 64.932680 
910.000000	 64.868307 
909.000000	 64.809703 
908.000000	 64.761424 
907.000000	 64.724802 
906.000000	 64.698290 
905.000000	 64.677929 
904.000000	 64.658975 
903.000000	 64.637184 
902.000000	 64.610338 
901.000000	 64.578509 
900.000000	 64.544463 
899.000000	 64.512419 
898.000000	 64.487195 
897.000000	 64.472579 
896.000000	 64.470624 
895.000000	 64.480853 
894.000000	 64.500784 
893.000000	 64.526724 
892.000000	 64.554476 
891.000000	 64.580583 
890.000000	 64.602541 
889.000000	 64.619016 
888.000000	 64.629793 
887.000000	 64.635181 
886.000000	 64.635968 
885.000000	 64.632630 
884.000000	 64.625763 
883.000000	 64.616012 
882.000000	 64.604234 
881.000000	 64.591884 
880.000000	 64.580512 
879.000000	 64.571666 
878.000000	 64.566397 
877.000000	 64.565277 
876.000000	 64.568090 
875.000000	 64.574217 
874.000000	 64.582800 
873.000000	 64.593505 
872.000000	 64.606809 
871.000000	 64.624214 
870.000000	 64.647436 
869.000000	 64.677834 
868.000000	 64.715647 
867.000000	 64.759397 
866.000000	 64.806008 
865.000000	 64.851164 
864.000000	 64.890170 
863.000000	 64.919161 
862.000000	 64.936137 
861.000000	 64.941096 
860.000000	 64.936518 
859.000000	 64.925909 
858.000000	 64.913082 
857.000000	 64.900922 
856.000000	 64.891123 
855.000000	 64.883494 
854.000000	 64.876651 
853.000000	 64.868521 
852.000000	 64.857101 
851.000000	 64.841222 
850.000000	 64.820909 
849.000000	 64.796876 
848.000000	 64.770317 
847.000000	 64.741873 
846.000000	 64.711856 
845.000000	 64.680051 
844.000000	 64.646530 
843.000000	 64.611697 
842.000000	 64.577221 
841.000000	 64.546036 
840.000000	 64.521884 
839.000000	 64.508342 
838.000000	 64.507865 
837.000000	 64.520883 
836.000000	 64.545130 
835.000000	 64.575529 
834.000000	 64.605021 
833.000000	 64.625573 
832.000000	 64.630556 
831.000000	 64.615631 
830.000000	 64.581060 
829.000000	 64.531826 
828.000000	 64.476680 
827.000000	 64.426422 
826.000000	 64.390563 
825.000000	 64.374828 
824.000000	 64.379668 
823.000000	 64.400196 
822.000000	 64.427375 
821.000000	 64.450669 
820.000000	 64.461135 
819.000000	 64.453625 
818.000000	 64.427185 
817.000000	 64.385557 
816.000000	 64.335012 
815.000000	 64.283347 
814.000000	 64.237499 
813.000000	 64.202499 
812.000000	 64.181184 
811.000000	 64.173555 
810.000000	 64.177489 
809.000000	 64.189505 
808.000000	 64.205670 
807.000000	 64.222478 
806.000000	 64.237093 
805.000000	 64.247775 
804.000000	 64.253187 
803.000000	 64.253139 
802.000000	 64.247846 
801.000000	 64.238452 
800.000000	 64.226365 
799.000000	 64.214158 
798.000000	 64.205026 
797.000000	 64.202499 
796.000000	 64.209842 
795.000000	 64.229130 
794.000000	 64.260578 
793.000000	 64.302110 
792.000000	 64.349818 
791.000000	 64.398312 
790.000000	 64.441967 
789.000000	 64.475965 
788.000000	 64.497447 
787.000000	 64.506578 
786.000000	 64.505791 
785.000000	 64.499616 
784.000000	 64.492440 
783.000000	 64.487838 
782.000000	 64.486885 
781.000000	 64.488387 
780.000000	 64.488720 
779.000000	 64.483261 
778.000000	 64.467573 
777.000000	 64.439272 
776.000000	 64.398527 
775.000000	 64.348316 
774.000000	 64.293742 
773.000000	 64.240884 
772.000000	 64.195489 
771.000000	 64.161705 
770.000000	 64.141678 
769.000000	 64.135169 
768.000000	 64.140558 
767.000000	 64.155292 
766.000000	 64.176654 
765.000000	 64.201879 
764.000000	 64.228177 
763.000000	 64.252567 
762.000000	 64.271330 
761.000000	 64.280486 
760.000000	 64.276170 
759.000000	 64.255833 
758.000000	 64.218664 
757.000000	 64.166498 
756.000000	 64.104056 
755.000000	 64.038205 
754.000000	 63.976860 
753.000000	 63.927555 
752.000000	 63.895845 
751.000000	 63.884520 
750.000000	 63.893127 
749.000000	 63.918256 
748.000000	 63.954305 
747.000000	 63.994956 
746.000000	 64.034295 
745.000000	 64.067983 
744.000000	 64.093589 
743.000000	 64.110469 
742.000000	 64.119410 
741.000000	 64.121770 
740.000000	 64.118862 
739.000000	 64.112067 
738.000000	 64.102458 
737.000000	 64.091134 
736.000000	 64.079022 
735.000000	 64.067506 
734.000000	 64.057779 
733.000000	 64.050722 
732.000000	 64.046478 
731.000000	 64.044165 
730.000000	 64.042305 
729.000000	 64.038872 
728.000000	 64.032626 
727.000000	 64.023208 
726.000000	 64.011883 
725.000000	 64.001655 
724.000000	 63.996219 
723.000000	 63.999462 
722.000000	 64.013218 
721.000000	 64.036631 
720.000000	 64.065575 
719.000000	 64.093685 
718.000000	 64.113831 
717.000000	 64.120054 
716.000000	 64.109349 
715.000000	 64.082598 
714.000000	 64.044547 
713.000000	 64.002919 
712.000000	 63.966083 
711.000000	 63.941192 
710.000000	 63.932824 
709.000000	 63.941836 
708.000000	 63.965725 
707.000000	 63.998937 
706.000000	 64.034771 
705.000000	 64.066290 
704.000000	 64.087843 
703.000000	 64.095711 
702.000000	 64.088129 
701.000000	 64.065694 
700.000000	 64.030647 
699.000000	 63.986706 
698.000000	 63.938403 
697.000000	 63.890409 
696.000000	 63.847565 
695.000000	 63.813352 
694.000000	 63.790035 
693.000000	 63.777637 
692.000000	 63.774108 
691.000000	 63.776111 
690.000000	 63.779807 
689.000000	 63.781738 
688.000000	 63.779449 
687.000000	 63.772106 
686.000000	 63.760495 
685.000000	 63.746094 
684.000000	 63.730454 
683.000000	 63.714599 
682.000000	 63.698601 
681.000000	 63.681554 
680.000000	 63.662099 
679.000000	 63.638973 
678.000000	 63.612222 
677.000000	 63.583493 
676.000000	 63.556456 
675.000000	 63.535714 
674.000000	 63.525962 
673.000000	 63.530445 
672.000000	 63.549947 
671.000000	 63.582515 
670.000000	 63.623094 
669.000000	 63.664412 
668.000000	 63.698172 
667.000000	 63.716959 
666.000000	 63.715648 
665.000000	 63.692784 
664.000000	 63.650941 
663.000000	 63.595986 
662.000000	 63.535976 
661.000000	 63.479351 
660.000000	 63.432693 
659.000000	 63.399505 
658.000000	 63.379502 
657.000000	 63.369655 
656.000000	 63.365197 
655.000000	 63.362073 
654.000000	 63.358259 
653.000000	 63.354969 
652.000000	 63.355851 
651.000000	 63.365697 
650.000000	 63.388752 
649.000000	 63.426208 
648.000000	 63.474988 
647.000000	 63.527202 
646.000000	 63.571906 
645.000000	 63.597297 
644.000000	 63.593912 
643.000000	 63.557195 
642.000000	 63.489222 
641.000000	 63.398528 
640.000000	 63.298130 
639.000000	 63.202714 
638.000000	 63.125443 
637.000000	 63.075208 
636.000000	 63.055253 
635.000000	 63.062906 
634.000000	 63.090920 
633.000000	 63.129711 
632.000000	 63.170051 
631.000000	 63.205051 
630.000000	 63.231801 
629.000000	 63.251042 
628.000000	 63.266873 
627.000000	 63.284564 
626.000000	 63.308620 
625.000000	 63.341331 
624.000000	 63.381457 
623.000000	 63.424801 
622.000000	 63.464713 
621.000000	 63.494205 
620.000000	 63.507509 
619.000000	 63.501906 
618.000000	 63.478302 
617.000000	 63.441610 
616.000000	 63.399386 
615.000000	 63.360238 
614.000000	 63.331246 
613.000000	 63.316321 
612.000000	 63.315320 
611.000000	 63.324689 
610.000000	 63.338470 
609.000000	 63.350105 
608.000000	 63.354825 
607.000000	 63.350963 
606.000000	 63.339424 
605.000000	 63.323187 
604.000000	 63.305687 
603.000000	 63.289403 
602.000000	 63.275456 
601.000000	 63.262939 
600.000000	 63.249182 
599.000000	 63.230633 
598.000000	 63.204693 
597.000000	 63.170099 
596.000000	 63.127470 
595.000000	 63.079285 
594.000000	 63.028860 
593.000000	 62.980270 
592.000000	 62.936472 
591.000000	 62.900543 
590.000000	 62.874674 
589.000000	 62.861299 
588.000000	 62.862396 
587.000000	 62.880253 
586.000000	 62.916588 
585.000000	 62.972378 
584.000000	 63.046765 
583.000000	 63.136935 
582.000000	 63.237524 
581.000000	 63.341116 
580.000000	 63.438749 
579.000000	 63.520216 
578.000000	 63.575339 
577.000000	 63.595438 
576.000000	 63.575100 
575.000000	 63.513684 
574.000000	 63.415813 
573.000000	 63.291835 
572.000000	 63.155794 
571.000000	 63.023400 
570.000000	 62.909197 
569.000000	 62.824249 
568.000000	 62.774181 
567.000000	 62.759113 
566.000000	 62.773823 
565.000000	 62.808990 
564.000000	 62.853860 
563.000000	 62.898397 
562.000000	 62.935519 
561.000000	 62.960958 
560.000000	 62.974858 
559.000000	 62.979745 
558.000000	 62.980628 
557.000000	 62.982487 
556.000000	 62.989926 
555.000000	 63.005518 
554.000000	 63.029789 
553.000000	 63.061070 
552.000000	 63.095879 
551.000000	 63.129734 
550.000000	 63.157749 
549.000000	 63.175630 
548.000000	 63.181352 
547.000000	 63.175082 
546.000000	 63.159108 
545.000000	 63.136315 
544.000000	 63.110184 
543.000000	 63.082361 
542.000000	 63.052916 
541.000000	 63.018965 
540.000000	 62.975955 
539.000000	 62.918949 
538.000000	 62.844491 
537.000000	 62.752962 
536.000000	 62.648892 
535.000000	 62.541651 
534.000000	 62.443470 
533.000000	 62.367510 
532.000000	 62.324810 
531.000000	 62.321734 
530.000000	 62.357926 
529.000000	 62.427401 
528.000000	 62.519645 
527.000000	 62.621450 
526.000000	 62.719178 
525.000000	 62.800192 
524.000000	 62.854433 
523.000000	 62.875032 
522.000000	 62.858843 
521.000000	 62.806224 
520.000000	 62.720918 
519.000000	 62.610316 
518.000000	 62.483763 
517.000000	 62.352085 
516.000000	 62.225222 
515.000000	 62.112283 
514.000000	 62.018942 
513.000000	 61.947488 
512.000000	 61.896729 
511.000000	 61.862921 
510.000000	 61.841225 
509.000000	 61.826491 
508.000000	 61.814928 
507.000000	 61.804485 
506.000000	 61.794400 
505.000000	 61.783742 
504.000000	 61.771488 
503.000000	 61.755537 
502.000000	 61.734199 
501.000000	 61.706447 
500.000000	 61.673665 
499.000000	 61.639618 
498.000000	 61.610412 
497.000000	 61.593270 
496.000000	 61.594796 
495.000000	 61.619234 
494.000000	 61.667633 
493.000000	 61.737132 
492.000000	 61.821198 
491.000000	 61.910915 
490.000000	 61.996173 
489.000000	 62.068009 
488.000000	 62.119626 
487.000000	 62.148404 
486.000000	 62.155938 
485.000000	 62.148189 
484.000000	 62.134313 
483.000000	 62.124228 
482.000000	 62.126564 
481.000000	 62.145972 
480.000000	 62.182927 
479.000000	 62.232375 
478.000000	 62.286090 
477.000000	 62.332844 
476.000000	 62.361741 
475.000000	 62.364411 
474.000000	 62.337446 
473.000000	 62.283492 
472.000000	 62.210750 
471.000000	 62.132072 
470.000000	 62.061858 
469.000000	 62.013411 
468.000000	 61.995577 
467.000000	 62.011051 
466.000000	 62.054920 
465.000000	 62.116503 
464.000000	 62.180948 
463.000000	 62.231850 
462.000000	 62.255549 
461.000000	 62.243556 
460.000000	 62.195134 
459.000000	 62.118554 
458.000000	 62.027168 
457.000000	 61.936044 
456.000000	 61.856484 
455.000000	 61.794686 
454.000000	 61.747527 
453.000000	 61.703586 
452.000000	 61.648249 
451.000000	 61.569714 
450.000000	 61.462783 
449.000000	 61.331462 
448.000000	 61.189270 
447.000000	 61.056470 
446.000000	 60.952210 
445.000000	 60.888576 
444.000000	 60.870075 
443.000000	 60.893249 
442.000000	 60.943317 
441.000000	 61.000275 
440.000000	 61.052560 
439.000000	 61.098384 
438.000000	 61.140799 
437.000000	 61.186122 
436.000000	 61.246895 
435.000000	 61.330103 
434.000000	 61.426615 
433.000000	 61.513853 
432.000000	 61.567926 
431.000000	 61.561417 
430.000000	 61.470770 
429.000000	 61.281943 
428.000000	 60.999155 
427.000000	 60.640358 
426.000000	 60.235476 
425.000000	 59.818983 
424.000000	 59.419631 
423.000000	 59.063863 
422.000000	 58.782052 
421.000000	 58.574891 
420.000000	 58.407187 
419.000000	 58.237576 
418.000000	 58.028674 
417.000000	 57.725095 
416.000000	 57.262372 
415.000000	 56.587195 
414.000000	 55.663824 
413.000000	 54.478955 
412.000000	 53.041934 
411.000000	 51.405858 
410.000000	 49.641275 
409.000000	 47.816085 
408.000000	 45.989060 
407.000000	 44.185662 
406.000000	 42.424297 
405.000000	 40.754556 
404.000000	 39.233660 
403.000000	 37.906646 
402.000000	 36.817955 
401.000000	 35.962224 
400.000000	 35.357975 
399.000000	 34.950971 
398.000000	 34.822726 
397.000000	 35.163640 
396.000000	 36.301422 
395.000000	 38.604450 
394.000000	 42.375159 
393.000000	 47.726964 
392.000000	 54.458284 
391.000000	 62.034320 
390.000000	 69.729590 
389.000000	 76.768946 
388.000000	 82.503676 
387.000000	 86.537933 
386.000000	 88.837456 
385.000000	 89.653158 
384.000000	 89.486861 
383.000000	 88.833665 
382.000000	 88.041162 
381.000000	 87.148618 
380.000000	 85.981798 
379.000000	 84.143543 
378.000000	 81.245112 
377.000000	 76.980280 
376.000000	 71.451234 
375.000000	 64.966273 
374.000000	 57.920694 
373.000000	 50.793385 
372.000000	 44.042181 
371.000000	 38.041114 
370.000000	 33.025765 

