PE IR       SPECTRUM    SPECTRUM    ASCII       PEDS        1.60        
  -1
C-99E1~1.ASC
17/03/27
14:44:48.00
17/03/27
14:44:48.00
tln
$C-4040-8_t0003$<tbV0>[7.8,-13.0,8.0,0.0,27,1,0]
370.000000
64









2002,4.07    
MIRTGS : RIGHTBACK : INTERNAL 2
MIR : ON : INTERNAL 2
OPTKBR

0.200000
8
8.000000
FILLER
RATIO
SPECTRUM
UNLOCKED 256

DOUBLE
64
COMBINED
1
0
0


1.000000
RATIO


1
0
TRUE
51149
0
LEFT NOT FITTED RIGHT NOT FITTED 0
NONE
NONE
15600
12.000000
4.427000
51148
TRUE
1 0 8 72 0 0 0 0 

15798.010000






#HDR
-1
-1
#GR
CM-1
%T
0.00002384185791015625
0.0
5000.000000
-1.000000
4631
8
67.876505
12.558889
#DATA
5000.000000	62.307476 
4999.000000	62.381935 
4998.000000	62.486910 
4997.000000	62.625765 
4996.000000	62.800717 
4995.000000	63.008999 
4994.000000	63.241052 
4993.000000	63.480424 
4992.000000	63.705372 
4991.000000	63.893461 
4990.000000	64.024853 
4989.000000	64.087486 
4988.000000	64.077949 
4987.000000	64.002585 
4986.000000	63.876104 
4985.000000	63.719248 
4984.000000	63.553524 
4983.000000	63.397121 
4982.000000	63.262701 
4981.000000	63.155817 
4980.000000	63.074326 
4979.000000	63.010740 
4978.000000	62.955141 
4977.000000	62.899160 
4976.000000	62.839269 
4975.000000	62.777137 
4974.000000	62.718915 
4973.000000	62.671470 
4972.000000	62.638664 
4971.000000	62.618327 
4970.000000	62.600541 
4969.000000	62.570691 
4968.000000	62.512350 
4967.000000	62.414026 
4966.000000	62.272548 
4965.000000	62.097263 
4964.000000	61.907887 
4963.000000	61.732459 
4962.000000	61.599731 
4961.000000	61.534523 
4960.000000	61.551022 
4959.000000	61.650371 
4958.000000	61.819791 
4957.000000	62.037396 
4956.000000	62.276482 
4955.000000	62.510871 
4954.000000	62.718319 
4953.000000	62.880539 
4952.000000	62.984228 
4951.000000	63.020515 
4950.000000	62.985658 
4949.000000	62.880778 
4948.000000	62.712836 
4947.000000	62.497091 
4946.000000	62.255191 
4945.000000	62.013053 
4944.000000	61.798000 
4943.000000	61.634945 
4942.000000	61.543488 
4941.000000	61.534309 
4940.000000	61.609292 
4939.000000	61.761093 
4938.000000	61.974644 
4937.000000	62.228822 
4936.000000	62.499117 
4935.000000	62.760210 
4934.000000	62.988638 
4933.000000	63.164496 
4932.000000	63.274765 
4931.000000	63.314175 
4930.000000	63.287448 
4929.000000	63.208007 
4928.000000	63.096785 
4927.000000	62.978029 
4926.000000	62.875175 
4925.000000	62.805986 
4924.000000	62.778949 
4923.000000	62.792634 
4922.000000	62.837862 
4921.000000	62.901306 
4920.000000	62.969493 
4919.000000	63.032984 
4918.000000	63.087868 
4917.000000	63.136601 
4916.000000	63.185071 
4915.000000	63.240623 
4914.000000	63.307166 
4913.000000	63.384795 
4912.000000	63.468694 
4911.000000	63.550734 
4910.000000	63.622927 
4909.000000	63.678193 
4908.000000	63.714075 
4907.000000	63.730454 
4906.000000	63.730072 
4905.000000	63.714790 
4904.000000	63.684439 
4903.000000	63.637328 
4902.000000	63.571238 
4901.000000	63.485026 
4900.000000	63.380527 
4899.000000	63.264703 
4898.000000	63.149499 
4897.000000	63.049864 
4896.000000	62.980937 
4895.000000	62.954688 
4894.000000	62.977290 
4893.000000	63.047027 
4892.000000	63.154339 
4891.000000	63.283705 
4890.000000	63.415694 
4889.000000	63.531208 
4888.000000	63.613677 
4887.000000	63.652038 
4886.000000	63.641595 
4885.000000	63.583445 
4884.000000	63.485002 
4883.000000	63.357830 
4882.000000	63.216972 
4881.000000	63.078641 
4880.000000	62.958192 
4879.000000	62.868499 
4878.000000	62.817764 
4877.000000	62.809062 
4876.000000	62.838387 
4875.000000	62.895894 
4874.000000	62.967109 
4873.000000	63.035988 
4872.000000	63.087201 
4871.000000	63.109540 
4870.000000	63.097715 
4869.000000	63.053631 
4868.000000	62.984871 
4867.000000	62.903237 
4866.000000	62.821698 
4865.000000	62.751936 
4864.000000	62.702322 
4863.000000	62.676286 
4862.000000	62.672901 
4861.000000	62.687087 
4860.000000	62.711954 
4859.000000	62.740564 
4858.000000	62.766170 
4857.000000	62.785577 
4856.000000	62.798500 
4855.000000	62.808752 
4854.000000	62.821650 
4853.000000	62.844347 
4852.000000	62.883257 
4851.000000	62.943315 
4850.000000	63.026428 
4849.000000	63.130664 
4848.000000	63.250136 
4847.000000	63.376140 
4846.000000	63.498401 
4845.000000	63.606977 
4844.000000	63.693523 
4843.000000	63.752985 
4842.000000	63.782978 
4841.000000	63.784313 
4840.000000	63.759160 
4839.000000	63.711023 
4838.000000	63.643097 
4837.000000	63.558840 
4836.000000	63.461208 
4835.000000	63.354492 
4834.000000	63.243460 
4833.000000	63.134479 
4832.000000	63.034391 
4831.000000	62.950301 
4830.000000	62.887883 
4829.000000	62.850618 
4828.000000	62.838578 
4827.000000	62.848234 
4826.000000	62.872982 
4825.000000	62.904405 
4824.000000	62.933659 
4823.000000	62.952852 
4822.000000	62.956166 
4821.000000	62.940692 
4820.000000	62.906503 
4819.000000	62.856459 
4818.000000	62.795782 
4817.000000	62.731194 
4816.000000	62.669873 
4815.000000	62.618207 
4814.000000	62.581658 
4813.000000	62.563157 
4812.000000	62.562918 
4811.000000	62.578129 
4810.000000	62.603449 
4809.000000	62.632155 
4808.000000	62.657117 
4807.000000	62.672829 
4806.000000	62.675547 
4805.000000	62.664961 
4804.000000	62.643742 
4803.000000	62.617278 
4802.000000	62.591671 
4801.000000	62.573075 
4800.000000	62.566065 
4799.000000	62.573504 
4798.000000	62.596011 
4797.000000	62.632822 
4796.000000	62.682104 
4795.000000	62.741780 
4794.000000	62.809824 
4793.000000	62.884163 
4792.000000	62.962245 
4791.000000	63.040804 
4790.000000	63.115620 
4789.000000	63.181853 
4788.000000	63.234519 
4787.000000	63.269662 
4786.000000	63.284873 
4785.000000	63.280916 
4784.000000	63.261079 
4783.000000	63.230729 
4782.000000	63.195896 
4781.000000	63.163185 
4780.000000	63.137054 
4779.000000	63.120007 
4778.000000	63.111352 
4777.000000	63.108563 
4776.000000	63.107085 
4775.000000	63.102126 
4774.000000	63.089203 
4773.000000	63.065075 
4772.000000	63.028907 
4771.000000	62.982392 
4770.000000	62.929320 
4769.000000	62.874722 
4768.000000	62.824177 
4767.000000	62.782716 
4766.000000	62.753582 
4765.000000	62.737727 
4764.000000	62.734174 
4763.000000	62.740325 
4762.000000	62.752056 
4761.000000	62.765192 
4760.000000	62.776327 
4759.000000	62.784361 
4758.000000	62.789511 
4757.000000	62.794542 
4756.000000	62.803554 
4755.000000	62.821555 
4754.000000	62.852692 
4753.000000	62.898874 
4752.000000	62.959218 
4751.000000	63.028740 
4750.000000	63.100004 
4749.000000	63.162732 
4748.000000	63.206577 
4747.000000	63.222289 
4746.000000	63.204383 
4745.000000	63.151812 
4744.000000	63.068842 
4743.000000	62.963914 
4742.000000	62.848472 
4741.000000	62.734293 
4740.000000	62.631392 
4739.000000	62.546610 
4738.000000	62.483000 
4737.000000	62.439823 
4736.000000	62.413692 
4735.000000	62.400436 
4734.000000	62.396478 
4733.000000	62.399315 
4732.000000	62.408208 
4731.000000	62.422895 
4730.000000	62.444019 
4729.000000	62.471365 
4728.000000	62.504053 
4727.000000	62.539792 
4726.000000	62.575340 
4725.000000	62.607097 
4724.000000	62.631559 
4723.000000	62.646508 
4722.000000	62.650394 
4721.000000	62.642908 
4720.000000	62.624430 
4719.000000	62.596225 
4718.000000	62.560272 
4717.000000	62.519121 
4716.000000	62.476134 
4715.000000	62.435293 
4714.000000	62.400984 
4713.000000	62.377595 
4712.000000	62.368869 
4711.000000	62.377238 
4710.000000	62.403249 
4709.000000	62.445354 
4708.000000	62.500143 
4707.000000	62.562608 
4706.000000	62.626671 
4705.000000	62.686181 
4704.000000	62.735748 
4703.000000	62.771606 
4702.000000	62.792372 
4701.000000	62.799167 
4700.000000	62.794947 
4699.000000	62.784409 
4698.000000	62.772965 
4697.000000	62.765979 
4696.000000	62.767910 
4695.000000	62.781453 
4694.000000	62.807583 
4693.000000	62.845015 
4692.000000	62.891268 
4691.000000	62.942004 
4690.000000	62.992024 
4689.000000	63.035726 
4688.000000	63.068056 
4687.000000	63.084602 
4686.000000	63.082265 
4685.000000	63.059902 
4684.000000	63.018584 
4683.000000	62.961792 
4682.000000	62.894701 
4681.000000	62.824034 
4680.000000	62.756228 
4679.000000	62.696790 
4678.000000	62.648677 
4677.000000	62.612199 
4676.000000	62.584877 
4675.000000	62.562298 
4674.000000	62.539672 
4673.000000	62.512493 
4672.000000	62.479281 
4671.000000	62.441301 
4670.000000	62.403607 
4669.000000	62.372803 
4668.000000	62.356996 
4667.000000	62.362957 
4666.000000	62.395238 
4665.000000	62.454032 
4664.000000	62.535834 
4663.000000	62.633681 
4662.000000	62.738156 
4661.000000	62.839078 
4660.000000	62.927055 
4659.000000	62.994933 
4658.000000	63.038468 
4657.000000	63.056588 
4656.000000	63.051438 
4655.000000	63.027787 
4654.000000	62.992358 
4653.000000	62.952661 
4652.000000	62.916183 
4651.000000	62.889146 
4650.000000	62.876343 
4649.000000	62.880086 
4648.000000	62.900233 
4647.000000	62.934041 
4646.000000	62.977170 
4645.000000	63.024091 
4644.000000	63.069128 
4643.000000	63.107085 
4642.000000	63.134026 
4641.000000	63.147497 
4640.000000	63.146615 
4639.000000	63.131737 
4638.000000	63.104343 
4637.000000	63.066601 
4636.000000	63.021230 
4635.000000	62.971210 
4634.000000	62.919998 
4633.000000	62.870979 
4632.000000	62.827563 
4631.000000	62.792491 
4630.000000	62.767767 
4629.000000	62.753987 
4628.000000	62.750554 
4627.000000	62.755441 
4626.000000	62.765455 
4625.000000	62.777018 
4624.000000	62.786674 
4623.000000	62.791657 
4622.000000	62.790489 
4621.000000	62.782740 
4620.000000	62.769246 
4619.000000	62.751746 
4618.000000	62.732434 
4617.000000	62.713241 
4616.000000	62.695646 
4615.000000	62.680387 
4614.000000	62.667584 
4613.000000	62.657070 
4612.000000	62.648296 
4611.000000	62.640714 
4610.000000	62.634086 
4609.000000	62.628674 
4608.000000	62.625479 
4607.000000	62.625789 
4606.000000	62.631726 
4605.000000	62.645626 
4604.000000	62.669825 
4603.000000	62.705802 
4602.000000	62.753438 
4601.000000	62.810778 
4600.000000	62.873840 
4599.000000	62.937188 
4598.000000	62.994432 
4597.000000	63.039755 
4596.000000	63.069248 
4595.000000	63.082003 
4594.000000	63.080620 
4593.000000	63.070321 
4592.000000	63.058447 
4591.000000	63.051605 
4590.000000	63.054561 
4589.000000	63.068270 
4588.000000	63.090515 
4587.000000	63.115692 
4586.000000	63.136887 
4585.000000	63.147473 
4584.000000	63.143253 
4583.000000	63.122725 
4582.000000	63.087654 
4581.000000	63.041782 
4580.000000	62.989807 
4579.000000	62.936282 
4578.000000	62.884902 
4577.000000	62.838292 
4576.000000	62.798261 
4575.000000	62.766838 
4574.000000	62.746334 
4573.000000	62.739062 
4572.000000	62.746644 
4571.000000	62.769222 
4570.000000	62.805080 
4569.000000	62.849235 
4568.000000	62.895321 
4567.000000	62.936425 
4566.000000	62.967514 
4565.000000	62.986230 
4564.000000	62.994050 
4563.000000	62.996530 
4562.000000	63.000822 
4561.000000	63.013744 
4560.000000	63.038992 
4559.000000	63.076114 
4558.000000	63.119769 
4557.000000	63.161373 
4556.000000	63.191437 
4555.000000	63.202381 
4554.000000	63.190698 
4553.000000	63.158822 
4552.000000	63.112711 
4551.000000	63.060212 
4550.000000	63.008737 
4549.000000	62.963104 
4548.000000	62.923789 
4547.000000	62.887692 
4546.000000	62.850189 
4545.000000	62.807393 
4544.000000	62.758493 
4543.000000	62.706017 
4542.000000	62.656140 
4541.000000	62.615919 
4540.000000	62.590551 
4539.000000	62.580966 
4538.000000	62.582516 
4537.000000	62.585997 
4536.000000	62.579751 
4535.000000	62.553477 
4534.000000	62.500834 
4533.000000	62.422442 
4532.000000	62.325644 
4531.000000	62.224268 
4530.000000	62.133932 
4529.000000	62.071251 
4528.000000	62.049245 
4527.000000	62.075972 
4526.000000	62.152242 
4525.000000	62.272429 
4524.000000	62.425589 
4523.000000	62.596726 
4522.000000	62.769293 
4521.000000	62.927556 
4520.000000	63.058972 
4519.000000	63.155293 
4518.000000	63.213443 
4517.000000	63.235116 
4516.000000	63.225984 
4515.000000	63.195085 
4514.000000	63.152909 
4513.000000	63.110709 
4512.000000	63.077569 
4511.000000	63.061308 
4510.000000	63.064837 
4509.000000	63.086628 
4508.000000	63.120365 
4507.000000	63.157701 
4506.000000	63.188934 
4505.000000	63.206195 
4504.000000	63.203692 
4503.000000	63.179278 
4502.000000	63.133168 
4501.000000	63.067412 
4500.000000	62.984943 
4499.000000	62.889146 
4498.000000	62.783169 
4497.000000	62.670302 
4496.000000	62.555027 
4495.000000	62.443137 
4494.000000	62.342548 
4493.000000	62.261676 
4492.000000	62.207198 
4491.000000	62.182116 
4490.000000	62.182426 
4489.000000	62.200021 
4488.000000	62.221240 
4487.000000	62.234854 
4486.000000	62.235736 
4485.000000	62.227249 
4484.000000	62.223529 
4483.000000	62.240791 
4482.000000	62.288999 
4481.000000	62.369108 
4480.000000	62.470436 
4479.000000	62.573719 
4478.000000	62.654566 
4477.000000	62.693762 
4476.000000	62.684679 
4475.000000	62.633991 
4474.000000	62.560915 
4473.000000	62.489414 
4472.000000	62.440586 
4471.000000	62.427258 
4470.000000	62.450909 
4469.000000	62.499308 
4468.000000	62.551021 
4467.000000	62.588691 
4466.000000	62.603712 
4465.000000	62.597441 
4464.000000	62.580800 
4463.000000	62.567377 
4462.000000	62.573218 
4461.000000	62.600588 
4460.000000	62.652039 
4459.000000	62.732553 
4458.000000	62.856125 
4457.000000	63.046884 
4456.000000	63.332176 
4455.000000	63.730478 
4454.000000	64.245891 
4453.000000	64.861559 
4452.000000	65.538644 
4451.000000	66.222882 
4450.000000	66.850376 
4449.000000	67.364716 
4448.000000	67.716431 
4447.000000	67.876505 
4446.000000	67.826128 
4445.000000	67.560315 
4444.000000	67.082023 
4443.000000	66.403985 
4442.000000	65.549850 
4441.000000	64.555025 
4440.000000	63.471460 
4439.000000	62.359166 
4438.000000	61.285901 
4437.000000	60.310482 
4436.000000	59.459781 
4435.000000	58.736515 
4434.000000	58.105754 
4433.000000	57.536959 
4432.000000	57.010912 
4431.000000	56.554007 
4430.000000	56.233906 
4429.000000	56.148982 
4428.000000	56.393671 
4427.000000	57.023739 
4426.000000	58.020591 
4425.000000	59.281849 
4424.000000	60.631680 
4423.000000	61.851668 
4422.000000	62.729573 
4421.000000	63.103199 
4420.000000	62.899470 
4419.000000	62.147903 
4418.000000	60.972976 
4417.000000	59.566164 
4416.000000	58.143925 
4415.000000	56.907558 
4414.000000	56.007385 
4413.000000	55.528783 
4412.000000	55.485868 
4411.000000	55.841279 
4410.000000	56.519341 
4409.000000	57.417678 
4408.000000	58.432149 
4407.000000	59.458374 
4406.000000	60.417771 
4405.000000	61.247634 
4404.000000	61.919689 
4403.000000	62.432217 
4402.000000	62.805867 
4401.000000	63.071870 
4400.000000	63.260507 
4399.000000	63.398933 
4398.000000	63.498759 
4397.000000	63.564229 
4396.000000	63.588523 
4395.000000	63.568687 
4394.000000	63.502573 
4393.000000	63.398623 
4392.000000	63.270378 
4391.000000	63.136291 
4390.000000	63.016533 
4389.000000	62.929821 
4388.000000	62.886977 
4387.000000	62.889575 
4386.000000	62.930440 
4385.000000	62.995886 
4384.000000	63.073706 
4383.000000	63.154006 
4382.000000	63.227319 
4381.000000	63.286542 
4380.000000	63.324928 
4379.000000	63.338446 
4378.000000	63.326883 
4377.000000	63.293862 
4376.000000	63.243436 
4375.000000	63.182425 
4374.000000	63.122677 
4373.000000	63.076066 
4372.000000	63.050103 
4371.000000	63.049769 
4370.000000	63.078212 
4369.000000	63.134837 
4368.000000	63.215422 
4367.000000	63.312840 
4366.000000	63.418078 
4365.000000	63.520479 
4364.000000	63.609170 
4363.000000	63.674402 
4362.000000	63.708710 
4361.000000	63.708114 
4360.000000	63.672280 
4359.000000	63.603758 
4358.000000	63.507056 
4357.000000	63.388752 
4356.000000	63.256072 
4355.000000	63.116407 
4354.000000	62.976527 
4353.000000	62.842917 
4352.000000	62.721276 
4351.000000	62.616848 
4350.000000	62.533974 
4349.000000	62.475037 
4348.000000	62.440872 
4347.000000	62.430310 
4346.000000	62.440156 
4345.000000	62.464332 
4344.000000	62.495923 
4343.000000	62.527060 
4342.000000	62.551283 
4341.000000	62.563443 
4340.000000	62.561583 
4339.000000	62.546491 
4338.000000	62.521719 
4337.000000	62.492394 
4336.000000	62.464547 
4335.000000	62.443757 
4334.000000	62.433910 
4333.000000	62.436461 
4332.000000	62.450408 
4331.000000	62.472629 
4330.000000	62.498879 
4329.000000	62.524700 
4328.000000	62.546801 
4327.000000	62.563014 
4326.000000	62.573337 
4325.000000	62.578463 
4324.000000	62.578487 
4323.000000	62.572312 
4322.000000	62.558078 
4321.000000	62.533164 
4320.000000	62.494707 
4319.000000	62.441253 
4318.000000	62.374258 
4317.000000	62.297654 
4316.000000	62.217640 
4315.000000	62.141370 
4314.000000	62.075686 
4313.000000	62.025594 
4312.000000	61.993312 
4311.000000	61.978507 
4310.000000	61.978340 
4309.000000	61.989164 
4308.000000	62.007451 
4307.000000	62.030577 
4306.000000	62.057018 
4305.000000	62.085723 
4304.000000	62.115788 
4303.000000	62.145543 
4302.000000	62.172889 
4301.000000	62.195491 
4300.000000	62.211704 
4299.000000	62.221360 
4298.000000	62.225818 
4297.000000	62.228322 
4296.000000	62.232232 
4295.000000	62.240552 
4294.000000	62.254476 
4293.000000	62.273263 
4292.000000	62.293887 
4291.000000	62.312150 
4290.000000	62.323856 
4289.000000	62.326288 
4288.000000	62.319040 
4287.000000	62.304544 
4286.000000	62.286806 
4285.000000	62.270045 
4284.000000	62.257909 
4283.000000	62.252235 
4282.000000	62.253117 
4281.000000	62.259030 
4280.000000	62.267971 
4279.000000	62.278294 
4278.000000	62.289166 
4277.000000	62.300539 
4276.000000	62.312936 
4275.000000	62.326788 
4274.000000	62.342286 
4273.000000	62.358713 
4272.000000	62.374615 
4271.000000	62.387013 
4270.000000	62.392830 
4269.000000	62.388372 
4268.000000	62.370371 
4267.000000	62.336635 
4266.000000	62.286615 
4265.000000	62.221932 
4264.000000	62.146401 
4263.000000	62.066245 
4262.000000	61.989426 
4261.000000	61.924648 
4260.000000	61.879587 
4259.000000	61.859464 
4258.000000	61.865925 
4257.000000	61.896252 
4256.000000	61.943674 
4255.000000	61.998963 
4254.000000	62.052512 
4253.000000	62.096166 
4252.000000	62.124967 
4251.000000	62.137389 
4250.000000	62.135219 
4249.000000	62.122440 
4248.000000	62.103867 
4247.000000	62.083721 
4246.000000	62.064409 
4245.000000	62.046980 
4244.000000	62.030792 
4243.000000	62.014627 
4242.000000	61.997127 
4241.000000	61.978054 
4240.000000	61.958003 
4239.000000	61.938595 
4238.000000	61.921691 
4237.000000	61.908769 
4236.000000	61.900234 
4235.000000	61.894917 
4234.000000	61.890745 
4233.000000	61.885070 
4232.000000	61.875534 
4231.000000	61.860609 
4230.000000	61.840510 
4229.000000	61.817216 
4228.000000	61.794066 
4227.000000	61.775135 
4226.000000	61.764502 
4225.000000	61.765313 
4224.000000	61.779236 
4223.000000	61.806178 
4222.000000	61.844015 
4221.000000	61.889123 
4220.000000	61.937689 
4219.000000	61.985898 
4218.000000	62.030434 
4217.000000	62.068510 
4216.000000	62.097883 
4215.000000	62.116980 
4214.000000	62.124896 
4213.000000	62.121725 
4212.000000	62.109041 
4211.000000	62.089514 
4210.000000	62.067079 
4209.000000	62.045764 
4208.000000	62.029027 
4207.000000	62.018656 
4206.000000	62.014651 
4205.000000	62.015748 
4204.000000	62.020182 
4203.000000	62.026429 
4202.000000	62.033939 
4201.000000	62.043237 
4200.000000	62.055635 
4199.000000	62.072038 
4198.000000	62.091803 
4197.000000	62.111616 
4196.000000	62.125754 
4195.000000	62.127017 
4194.000000	62.108778 
4193.000000	62.067222 
4192.000000	62.002897 
4191.000000	61.921811 
4190.000000	61.833786 
4189.000000	61.750173 
4188.000000	61.681151 
4187.000000	61.632871 
4186.000000	61.606740 
4185.000000	61.600136 
4184.000000	61.606669 
4183.000000	61.619257 
4182.000000	61.630558 
4181.000000	61.634969 
4180.000000	61.628675 
4179.000000	61.609411 
4178.000000	61.576962 
4177.000000	61.532425 
4176.000000	61.478376 
4175.000000	61.418437 
4174.000000	61.357212 
4173.000000	61.299586 
4172.000000	61.250662 
4171.000000	61.215114 
4170.000000	61.196303 
4169.000000	61.196088 
4168.000000	61.214256 
4167.000000	61.248874 
4166.000000	61.296486 
4165.000000	61.353015 
4164.000000	61.414408 
4163.000000	61.476969 
4162.000000	61.537170 
4161.000000	61.591935 
4160.000000	61.638641 
4159.000000	61.674833 
4158.000000	61.698317 
4157.000000	61.707162 
4156.000000	61.701154 
4155.000000	61.680841 
4154.000000	61.648035 
4153.000000	61.605763 
4152.000000	61.558270 
4151.000000	61.510872 
4150.000000	61.469435 
4149.000000	61.439657 
4148.000000	61.426401 
4147.000000	61.432456 
4146.000000	61.457967 
4145.000000	61.500096 
4144.000000	61.553788 
4143.000000	61.612033 
4142.000000	61.667537 
4141.000000	61.714100 
4140.000000	61.747956 
4139.000000	61.768531 
4138.000000	61.778521 
4137.000000	61.782979 
4136.000000	61.787700 
4135.000000	61.798095 
4134.000000	61.817145 
4133.000000	61.844921 
4132.000000	61.878442 
4131.000000	61.913442 
4130.000000	61.944580 
4129.000000	61.967420 
4128.000000	61.978912 
4127.000000	61.978125 
4126.000000	61.966180 
4125.000000	61.945605 
4124.000000	61.920285 
4123.000000	61.894202 
4122.000000	61.871695 
4121.000000	61.856603 
4120.000000	61.851549 
4119.000000	61.857557 
4118.000000	61.873745 
4117.000000	61.897492 
4116.000000	61.924886 
4115.000000	61.951351 
4114.000000	61.972093 
4113.000000	61.983394 
4112.000000	61.983203 
4111.000000	61.971473 
4110.000000	61.949849 
4109.000000	61.920833 
4108.000000	61.887907 
4107.000000	61.854124 
4106.000000	61.821365 
4105.000000	61.790442 
4104.000000	61.761450 
4103.000000	61.734175 
4102.000000	61.708688 
4101.000000	61.686182 
4100.000000	61.668753 
4099.000000	61.659574 
4098.000000	61.661577 
4097.000000	61.676979 
4096.000000	61.706304 
4095.000000	61.747837 
4094.000000	61.797547 
4093.000000	61.849379 
4092.000000	61.896443 
4091.000000	61.932182 
4090.000000	61.951684 
4089.000000	61.952567 
4088.000000	61.935114 
4087.000000	61.902499 
4086.000000	61.859560 
4085.000000	61.811852 
4084.000000	61.764287 
4083.000000	61.720418 
4082.000000	61.681675 
4081.000000	61.647939 
4080.000000	61.617827 
4079.000000	61.589336 
4078.000000	61.561155 
4077.000000	61.533069 
4076.000000	61.506342 
4075.000000	61.483168 
4074.000000	61.466455 
4073.000000	61.458778 
4072.000000	61.461806 
4071.000000	61.475586 
4070.000000	61.498498 
4069.000000	61.527180 
4068.000000	61.557388 
4067.000000	61.584997 
4066.000000	61.606645 
4065.000000	61.620497 
4064.000000	61.626505 
4063.000000	61.626529 
4062.000000	61.623692 
4061.000000	61.621356 
4060.000000	61.622667 
4059.000000	61.629199 
4058.000000	61.641001 
4057.000000	61.655926 
4056.000000	61.670732 
4055.000000	61.681175 
4054.000000	61.683034 
4053.000000	61.672687 
4052.000000	61.648583 
4051.000000	61.611199 
4050.000000	61.562728 
4049.000000	61.507391 
4048.000000	61.450433 
4047.000000	61.397862 
4046.000000	61.355280 
4045.000000	61.327552 
4044.000000	61.317753 
4043.000000	61.327433 
4042.000000	61.356091 
4041.000000	61.401510 
4040.000000	61.459994 
4039.000000	61.527204 
4038.000000	61.598467 
4037.000000	61.669349 
4036.000000	61.735653 
4035.000000	61.794161 
4034.000000	61.842346 
4033.000000	61.878561 
4032.000000	61.901998 
4031.000000	61.912775 
4030.000000	61.912083 
4029.000000	61.902356 
4028.000000	61.886835 
4027.000000	61.869645 
4026.000000	61.854600 
4025.000000	61.845397 
4024.000000	61.843991 
4023.000000	61.850857 
4022.000000	61.864280 
4021.000000	61.880922 
4020.000000	61.896514 
4019.000000	61.907291 
4018.000000	61.910557 
4017.000000	61.905503 
4016.000000	61.893010 
4015.000000	61.875438 
4014.000000	61.855483 
4013.000000	61.835551 
4012.000000	61.817121 
4011.000000	61.800503 
4010.000000	61.784887 
4009.000000	61.768865 
4008.000000	61.751461 
4007.000000	61.732769 
4006.000000	61.713814 
4005.000000	61.696720 
4004.000000	61.684274 
4003.000000	61.679196 
4002.000000	61.683082 
4001.000000	61.695814 
4000.000000	61.715412 
3999.000000	61.738204 
3998.000000	61.759662 
3997.000000	61.774873 
3996.000000	61.779665 
3995.000000	61.771273 
3994.000000	61.749076 
3993.000000	61.714601 
3992.000000	61.671209 
3991.000000	61.623311 
3990.000000	61.575508 
3989.000000	61.531519 
3988.000000	61.493587 
3987.000000	61.462044 
3986.000000	61.435604 
3985.000000	61.411976 
3984.000000	61.388945 
3983.000000	61.364912 
3982.000000	61.339712 
3981.000000	61.314415 
3980.000000	61.291146 
3979.000000	61.272168 
3978.000000	61.259722 
3977.000000	61.254858 
3976.000000	61.257934 
3975.000000	61.268162 
3974.000000	61.284446 
3973.000000	61.305785 
3972.000000	61.331462 
3971.000000	61.361169 
3970.000000	61.394548 
3969.000000	61.430978 
3968.000000	61.468839 
3967.000000	61.505389 
3966.000000	61.536908 
3965.000000	61.559510 
3964.000000	61.569738 
3963.000000	61.565804 
3962.000000	61.547708 
3961.000000	61.517572 
3960.000000	61.479306 
3959.000000	61.437797 
3958.000000	61.397957 
3957.000000	61.363697 
3956.000000	61.337471 
3955.000000	61.320161 
3954.000000	61.311197 
3953.000000	61.308908 
3952.000000	61.311388 
3951.000000	61.316895 
3950.000000	61.324024 
3949.000000	61.331725 
3948.000000	61.339163 
3947.000000	61.345410 
3946.000000	61.349272 
3945.000000	61.349391 
3944.000000	61.344480 
3943.000000	61.333823 
3942.000000	61.317467 
3941.000000	61.296439 
3940.000000	61.272931 
3939.000000	61.249470 
3938.000000	61.228585 
3937.000000	61.212182 
3936.000000	61.201000 
3935.000000	61.194539 
3934.000000	61.191320 
3933.000000	61.189556 
3932.000000	61.187434 
3931.000000	61.183881 
3930.000000	61.178851 
3929.000000	61.173176 
3928.000000	61.168479 
3927.000000	61.166524 
3926.000000	61.168646 
3925.000000	61.175656 
3924.000000	61.187291 
3923.000000	61.202573 
3922.000000	61.219716 
3921.000000	61.237001 
3920.000000	61.252856 
3919.000000	61.266398 
3918.000000	61.277699 
3917.000000	61.287164 
3916.000000	61.295962 
3915.000000	61.305522 
3914.000000	61.317205 
3913.000000	61.331844 
3912.000000	61.349487 
3911.000000	61.369585 
3910.000000	61.390852 
3909.000000	61.411738 
3908.000000	61.430358 
3907.000000	61.444973 
3906.000000	61.454272 
3905.000000	61.457681 
3904.000000	61.455059 
3903.000000	61.446690 
3902.000000	61.433219 
3901.000000	61.415600 
3900.000000	61.395215 
3899.000000	61.373972 
3898.000000	61.353921 
3897.000000	61.337184 
3896.000000	61.325693 
3895.000000	61.320424 
3894.000000	61.321330 
3893.000000	61.326932 
3892.000000	61.334252 
3891.000000	61.339163 
3890.000000	61.337184 
3889.000000	61.324357 
3888.000000	61.298179 
3887.000000	61.258387 
3886.000000	61.207222 
3885.000000	61.149549 
3884.000000	61.091852 
3883.000000	61.041235 
3882.000000	61.004114 
3881.000000	60.985255 
3880.000000	60.986900 
3879.000000	61.008119 
3878.000000	61.044979 
3877.000000	61.090874 
3876.000000	61.137986 
3875.000000	61.178112 
3874.000000	61.204361 
3873.000000	61.212325 
3872.000000	61.201047 
3871.000000	61.173009 
3870.000000	61.133694 
3869.000000	61.090302 
3868.000000	61.050510 
3867.000000	61.020922 
3866.000000	61.006164 
3865.000000	61.008548 
3864.000000	61.027979 
3863.000000	61.062359 
3862.000000	61.108565 
3861.000000	61.163353 
3860.000000	61.223340 
3859.000000	61.285376 
3858.000000	61.346054 
3857.000000	61.401820 
3856.000000	61.448812 
3855.000000	61.482954 
3854.000000	61.500930 
3853.000000	61.500930 
3852.000000	61.483430 
3851.000000	61.451888 
3850.000000	61.411595 
3849.000000	61.369061 
3848.000000	61.330747 
3847.000000	61.301803 
3846.000000	61.285328 
3845.000000	61.281561 
3844.000000	61.288332 
3843.000000	61.301422 
3842.000000	61.315464 
3841.000000	61.324763 
3840.000000	61.324644 
3839.000000	61.311841 
3838.000000	61.284780 
3837.000000	61.243891 
3836.000000	61.191558 
3835.000000	61.131167 
3834.000000	61.066484 
3833.000000	61.001062 
3832.000000	60.937881 
3831.000000	60.879158 
3830.000000	60.826635 
3829.000000	60.781598 
3828.000000	60.744738 
3827.000000	60.717177 
3826.000000	60.700583 
3825.000000	60.696530 
3824.000000	60.705518 
3823.000000	60.726976 
3822.000000	60.758900 
3821.000000	60.797286 
3820.000000	60.836911 
3819.000000	60.872435 
3818.000000	60.899758 
3817.000000	60.916757 
3816.000000	60.924148 
3815.000000	60.925126 
3814.000000	60.924839 
3813.000000	60.928821 
3812.000000	60.941720 
3811.000000	60.966300 
3810.000000	61.002564 
3809.000000	61.048364 
3808.000000	61.099076 
3807.000000	61.149358 
3806.000000	61.193084 
3805.000000	61.225819 
3804.000000	61.243629 
3803.000000	61.243581 
3802.000000	61.223793 
3801.000000	61.184000 
3800.000000	61.125135 
3799.000000	61.049318 
3798.000000	60.960531 
3797.000000	60.864543 
3796.000000	60.768103 
3795.000000	60.678100 
3794.000000	60.600352 
3793.000000	60.538744 
3792.000000	60.494327 
3791.000000	60.465192 
3790.000000	60.446667 
3789.000000	60.432791 
3788.000000	60.417604 
3787.000000	60.396909 
3786.000000	60.368514 
3785.000000	60.333728 
3784.000000	60.295891 
3783.000000	60.260963 
3782.000000	60.234642 
3781.000000	60.222744 
3780.000000	60.229110 
3779.000000	60.255813 
3778.000000	60.302138 
3777.000000	60.365080 
3776.000000	60.439920 
3775.000000	60.520553 
3774.000000	60.600376 
3773.000000	60.672998 
3772.000000	60.733008 
3771.000000	60.776734 
3770.000000	60.802507 
3769.000000	60.810589 
3768.000000	60.802817 
3767.000000	60.782408 
3766.000000	60.753512 
3765.000000	60.720252 
3764.000000	60.686254 
3763.000000	60.654592 
3762.000000	60.627961 
3761.000000	60.609006 
3760.000000	60.600066 
3759.000000	60.603332 
3758.000000	60.620117 
3757.000000	60.650062 
3756.000000	60.690760 
3755.000000	60.737562 
3754.000000	60.784220 
3753.000000	60.823798 
3752.000000	60.850358 
3751.000000	60.860085 
3750.000000	60.852122 
3749.000000	60.828709 
3748.000000	60.794901 
3747.000000	60.757279 
3746.000000	60.722732 
3745.000000	60.697269 
3744.000000	60.684537 
3743.000000	60.685372 
3742.000000	60.697698 
3741.000000	60.717272 
3740.000000	60.737919 
3739.000000	60.752797 
3738.000000	60.755372 
3737.000000	60.740661 
3736.000000	60.705780 
3735.000000	60.651183 
3734.000000	60.580682 
3733.000000	60.501575 
3732.000000	60.423398 
3731.000000	60.356187 
3730.000000	60.308766 
3729.000000	60.286760 
3728.000000	60.291481 
3727.000000	60.319900 
3726.000000	60.365605 
3725.000000	60.420632 
3724.000000	60.476756 
3723.000000	60.527849 
3722.000000	60.570406 
3721.000000	60.603952 
3720.000000	60.629820 
3719.000000	60.650515 
3718.000000	60.668230 
3717.000000	60.683846 
3716.000000	60.696768 
3715.000000	60.705089 
3714.000000	60.706639 
3713.000000	60.699915 
3712.000000	60.684847 
3711.000000	60.662841 
3710.000000	60.636401 
3709.000000	60.608553 
3708.000000	60.581970 
3707.000000	60.558199 
3706.000000	60.537290 
3705.000000	60.518193 
3704.000000	60.499215 
3703.000000	60.478663 
3702.000000	60.455965 
3701.000000	60.431718 
3700.000000	60.408067 
3699.000000	60.388135 
3698.000000	60.375547 
3697.000000	60.373258 
3696.000000	60.382771 
3695.000000	60.403609 
3694.000000	60.432863 
3693.000000	60.465812 
3692.000000	60.496520 
3691.000000	60.519099 
3690.000000	60.528516 
3689.000000	60.521793 
3688.000000	60.498785 
3687.000000	60.462260 
3686.000000	60.417580 
3685.000000	60.371661 
3684.000000	60.331940 
3683.000000	60.304760 
3682.000000	60.294389 
3681.000000	60.301971 
3680.000000	60.325384 
3679.000000	60.359334 
3678.000000	60.396766 
3677.000000	60.429716 
3676.000000	60.451006 
3675.000000	60.455870 
3674.000000	60.442113 
3673.000000	60.411024 
3672.000000	60.366678 
3671.000000	60.315465 
3670.000000	60.264515 
3669.000000	60.220861 
3668.000000	60.190200 
3667.000000	60.176038 
3666.000000	60.179567 
3665.000000	60.199165 
3664.000000	60.230851 
3663.000000	60.268950 
3662.000000	60.307216 
3661.000000	60.339713 
3660.000000	60.361886 
3659.000000	60.371184 
3658.000000	60.367298 
3657.000000	60.352373 
3656.000000	60.329961 
3655.000000	60.304546 
3654.000000	60.279941 
3653.000000	60.258936 
3652.000000	60.242223 
3651.000000	60.228872 
3650.000000	60.216307 
3649.000000	60.201525 
3648.000000	60.181808 
3647.000000	60.155606 
3646.000000	60.123133 
3645.000000	60.086011 
3644.000000	60.047578 
3643.000000	60.011410 
3642.000000	59.981346 
3641.000000	59.960460 
3640.000000	59.950828 
3639.000000	59.952974 
3638.000000	59.966230 
3637.000000	59.988784 
3636.000000	60.017800 
3635.000000	60.049915 
3634.000000	60.081553 
3633.000000	60.109329 
3632.000000	60.130143 
3631.000000	60.141611 
3630.000000	60.142254 
3629.000000	60.131716 
3628.000000	60.110831 
3627.000000	60.081243 
3626.000000	60.045433 
3625.000000	60.006499 
3624.000000	59.968018 
3623.000000	59.933614 
3622.000000	59.906435 
3621.000000	59.889078 
3620.000000	59.883451 
3619.000000	59.890246 
3618.000000	59.908652 
3617.000000	59.935855 
3616.000000	59.967613 
3615.000000	59.998345 
3614.000000	60.022163 
3613.000000	60.033607 
3612.000000	60.028696 
3611.000000	60.005760 
3610.000000	59.965920 
3609.000000	59.913110 
3608.000000	59.853124 
3607.000000	59.792995 
3606.000000	59.739398 
3605.000000	59.697484 
3604.000000	59.669923 
3603.000000	59.657025 
3602.000000	59.657120 
3601.000000	59.666848 
3600.000000	59.682703 
3599.000000	59.701967 
3598.000000	59.723567 
3597.000000	59.747719 
3596.000000	59.775805 
3595.000000	59.809160 
3594.000000	59.848356 
3593.000000	59.892559 
3592.000000	59.938764 
3591.000000	59.982085 
3590.000000	60.016536 
3589.000000	60.036730 
3588.000000	60.038638 
3587.000000	60.020899 
3586.000000	59.984970 
3585.000000	59.935307 
3584.000000	59.877872 
3583.000000	59.819364 
3582.000000	59.765315 
3581.000000	59.719538 
3580.000000	59.683346 
3579.000000	59.655880 
3578.000000	59.634637 
3577.000000	59.616684 
3576.000000	59.599018 
3575.000000	59.579730 
3574.000000	59.557962 
3573.000000	59.534478 
3572.000000	59.510993 
3571.000000	59.490323 
3570.000000	59.475064 
3569.000000	59.467864 
3568.000000	59.470701 
3567.000000	59.484744 
3566.000000	59.509778 
3565.000000	59.544348 
3564.000000	59.585809 
3563.000000	59.630608 
3562.000000	59.674596 
3561.000000	59.713649 
3560.000000	59.744358 
3559.000000	59.764456 
3558.000000	59.773135 
3557.000000	59.771037 
3556.000000	59.760141 
3555.000000	59.743142 
3554.000000	59.723114 
3553.000000	59.702706 
3552.000000	59.683942 
3551.000000	59.668016 
3550.000000	59.655332 
3549.000000	59.645509 
3548.000000	59.637427 
3547.000000	59.629774 
3546.000000	59.621167 
3545.000000	59.610366 
3544.000000	59.596753 
3543.000000	59.580063 
3542.000000	59.560799 
3541.000000	59.540247 
3540.000000	59.520244 
3539.000000	59.503149 
3538.000000	59.490942 
3537.000000	59.485054 
3536.000000	59.485912 
3535.000000	59.492802 
3534.000000	59.503889 
3533.000000	59.517002 
3532.000000	59.529685 
3531.000000	59.539723 
3530.000000	59.545207 
3529.000000	59.545063 
3528.000000	59.538555 
3527.000000	59.525322 
3526.000000	59.505629 
3525.000000	59.480476 
3524.000000	59.451508 
3523.000000	59.420776 
3522.000000	59.390425 
3521.000000	59.362268 
3520.000000	59.337520 
3519.000000	59.316730 
3518.000000	59.299612 
3517.000000	59.285378 
3516.000000	59.273123 
3515.000000	59.261965 
3514.000000	59.251236 
3513.000000	59.240746 
3512.000000	59.230494 
3511.000000	59.221005 
3510.000000	59.212756 
3509.000000	59.206080 
3508.000000	59.201192 
3507.000000	59.197735 
3506.000000	59.195017 
3505.000000	59.191846 
3504.000000	59.186792 
3503.000000	59.178662 
3502.000000	59.166693 
3501.000000	59.150719 
3500.000000	59.131550 
3499.000000	59.110713 
3498.000000	59.090447 
3497.000000	59.073209 
3496.000000	59.061360 
3495.000000	59.056568 
3494.000000	59.059333 
3493.000000	59.069275 
3492.000000	59.085011 
3491.000000	59.104418 
3490.000000	59.125280 
3489.000000	59.145522 
3488.000000	59.163904 
3487.000000	59.179782 
3486.000000	59.193038 
3485.000000	59.204149 
3484.000000	59.213423 
3483.000000	59.220933 
3482.000000	59.226202 
3481.000000	59.228420 
3480.000000	59.226298 
3479.000000	59.218764 
3478.000000	59.205150 
3477.000000	59.185600 
3476.000000	59.161353 
3475.000000	59.134507 
3474.000000	59.107756 
3473.000000	59.084129 
3472.000000	59.066462 
3471.000000	59.056949 
3470.000000	59.056758 
3469.000000	59.065937 
3468.000000	59.083247 
3467.000000	59.106659 
3466.000000	59.133267 
3465.000000	59.159922 
3464.000000	59.183883 
3463.000000	59.203338 
3462.000000	59.217071 
3461.000000	59.224867 
3460.000000	59.227347 
3459.000000	59.225749 
3458.000000	59.221220 
3457.000000	59.214782 
3456.000000	59.207391 
3455.000000	59.199333 
3454.000000	59.190821 
3453.000000	59.181714 
3452.000000	59.172248 
3451.000000	59.162473 
3450.000000	59.152817 
3449.000000	59.143710 
3448.000000	59.135556 
3447.000000	59.128689 
3446.000000	59.123206 
3445.000000	59.119081 
3444.000000	59.116005 
3443.000000	59.113407 
3442.000000	59.110450 
3441.000000	59.105563 
3440.000000	59.096622 
3439.000000	59.081029 
3438.000000	59.056544 
3437.000000	59.021663 
3436.000000	58.976435 
3435.000000	58.922719 
3434.000000	58.864283 
3433.000000	58.806276 
3432.000000	58.754444 
3431.000000	58.713531 
3430.000000	58.686494 
3429.000000	58.673858 
3428.000000	58.673548 
3427.000000	58.681035 
3426.000000	58.690929 
3425.000000	58.697986 
3424.000000	58.698582 
3423.000000	58.691239 
3422.000000	58.677101 
3421.000000	58.659076 
3420.000000	58.641576 
3419.000000	58.628726 
3418.000000	58.624148 
3417.000000	58.629798 
3416.000000	58.646011 
3415.000000	58.671379 
3414.000000	58.703088 
3413.000000	58.737349 
3412.000000	58.770203 
3411.000000	58.798050 
3410.000000	58.818268 
3409.000000	58.829140 
3408.000000	58.830547 
3407.000000	58.823251 
3406.000000	58.808779 
3405.000000	58.788561 
3404.000000	58.763909 
3403.000000	58.735656 
3402.000000	58.704113 
3401.000000	58.669352 
3400.000000	58.631777 
3399.000000	58.592247 
3398.000000	58.552312 
3397.000000	58.514213 
3396.000000	58.480572 
3395.000000	58.453726 
3394.000000	58.435106 
3393.000000	58.424830 
3392.000000	58.421516 
3391.000000	58.422708 
3390.000000	58.425641 
3389.000000	58.427953 
3388.000000	58.428335 
3387.000000	58.426952 
3386.000000	58.425426 
3385.000000	58.426141 
3384.000000	58.431482 
3383.000000	58.443045 
3382.000000	58.460545 
3381.000000	58.481884 
3380.000000	58.503150 
3379.000000	58.519411 
3378.000000	58.525633 
3377.000000	58.518266 
3376.000000	58.495759 
3375.000000	58.459329 
3374.000000	58.412933 
3373.000000	58.362436 
3372.000000	58.314538 
3371.000000	58.275294 
3370.000000	58.249044 
3369.000000	58.237671 
3368.000000	58.240389 
3367.000000	58.254003 
3366.000000	58.273863 
3365.000000	58.295178 
3364.000000	58.313679 
3363.000000	58.326363 
3362.000000	58.331942 
3361.000000	58.330559 
3360.000000	58.323574 
3359.000000	58.312916 
3358.000000	58.300518 
3357.000000	58.287858 
3356.000000	58.275866 
3355.000000	58.264803 
3354.000000	58.254504 
3353.000000	58.244538 
3352.000000	58.234453 
3351.000000	58.223986 
3350.000000	58.213138 
3349.000000	58.202075 
3348.000000	58.191180 
3347.000000	58.181238 
3346.000000	58.172774 
3345.000000	58.166766 
3344.000000	58.164143 
3343.000000	58.165884 
3342.000000	58.172750 
3341.000000	58.185124 
3340.000000	58.202576 
3339.000000	58.223843 
3338.000000	58.246922 
3337.000000	58.269047 
3336.000000	58.287119 
3335.000000	58.298158 
3334.000000	58.299851 
3333.000000	58.291125 
3332.000000	58.272290 
3331.000000	58.244895 
3330.000000	58.211517 
3329.000000	58.175349 
3328.000000	58.139562 
3327.000000	58.106899 
3326.000000	58.079195 
3325.000000	58.057475 
3324.000000	58.041763 
3323.000000	58.031392 
3322.000000	58.025407 
3321.000000	58.022594 
3320.000000	58.021807 
3319.000000	58.021879 
3318.000000	58.021783 
3317.000000	58.020615 
3316.000000	58.017683 
3315.000000	58.012461 
3314.000000	58.004641 
3313.000000	57.994055 
3312.000000	57.980918 
3311.000000	57.965564 
3310.000000	57.948350 
3309.000000	57.929539 
3308.000000	57.909297 
3307.000000	57.887649 
3306.000000	57.864499 
3305.000000	57.839918 
3304.000000	57.814264 
3303.000000	57.788276 
3302.000000	57.763147 
3301.000000	57.740426 
3300.000000	57.721686 
3299.000000	57.708096 
3298.000000	57.699990 
3297.000000	57.696819 
3296.000000	57.697010 
3295.000000	57.698416 
3294.000000	57.698583 
3293.000000	57.695674 
3292.000000	57.688522 
3291.000000	57.677340 
3290.000000	57.663369 
3289.000000	57.648849 
3288.000000	57.636332 
3287.000000	57.628273 
3286.000000	57.626366 
3285.000000	57.631468 
3284.000000	57.643175 
3283.000000	57.660317 
3282.000000	57.680988 
3281.000000	57.703113 
3280.000000	57.724761 
3279.000000	57.744264 
3278.000000	57.760310 
3277.000000	57.771968 
3276.000000	57.778692 
3275.000000	57.780337 
3274.000000	57.776665 
3273.000000	57.768034 
3272.000000	57.754778 
3271.000000	57.737469 
3270.000000	57.716655 
3269.000000	57.693266 
3268.000000	57.668113 
3267.000000	57.642245 
3266.000000	57.616782 
3265.000000	57.592940 
3264.000000	57.571959 
3263.000000	57.554936 
3262.000000	57.542634 
3261.000000	57.535362 
3260.000000	57.533121 
3259.000000	57.535624 
3258.000000	57.542157 
3257.000000	57.551717 
3256.000000	57.563138 
3255.000000	57.575058 
3254.000000	57.586193 
3253.000000	57.595324 
3252.000000	57.601499 
3251.000000	57.604074 
3250.000000	57.602858 
3249.000000	57.597756 
3248.000000	57.588958 
3247.000000	57.576727 
3246.000000	57.561230 
3245.000000	57.542705 
3244.000000	57.521414 
3243.000000	57.497835 
3242.000000	57.472896 
3241.000000	57.447838 
3240.000000	57.424426 
3239.000000	57.404422 
3238.000000	57.389450 
3237.000000	57.380247 
3236.000000	57.376408 
3235.000000	57.376313 
3234.000000	57.377529 
3233.000000	57.377409 
3232.000000	57.373785 
3231.000000	57.365751 
3230.000000	57.353878 
3229.000000	57.340121 
3228.000000	57.327294 
3227.000000	57.318019 
3226.000000	57.314085 
3225.000000	57.316112 
3224.000000	57.323408 
3223.000000	57.334089 
3222.000000	57.345724 
3221.000000	57.356023 
3220.000000	57.363438 
3219.000000	57.367372 
3218.000000	57.368111 
3217.000000	57.366323 
3216.000000	57.362747 
3215.000000	57.357692 
3214.000000	57.351064 
3213.000000	57.342290 
3212.000000	57.330679 
3211.000000	57.316160 
3210.000000	57.299137 
3209.000000	57.280707 
3208.000000	57.262492 
3207.000000	57.246375 
3206.000000	57.234001 
3205.000000	57.226324 
3204.000000	57.223105 
3203.000000	57.222938 
3202.000000	57.223200 
3201.000000	57.220578 
3200.000000	57.211637 
3199.000000	57.193756 
3198.000000	57.165622 
3197.000000	57.128047 
3196.000000	57.083940 
3195.000000	57.037925 
3194.000000	56.995630 
3193.000000	56.962656 
3192.000000	56.943202 
3191.000000	56.939411 
3190.000000	56.950807 
3189.000000	56.974339 
3188.000000	57.005095 
3187.000000	57.037615 
3186.000000	57.066822 
3185.000000	57.089018 
3184.000000	57.102584 
3183.000000	57.107639 
3182.000000	57.105302 
3181.000000	57.097148 
3180.000000	57.084417 
3179.000000	57.067465 
3178.000000	57.046055 
3177.000000	57.019639 
3176.000000	56.988143 
3175.000000	56.952476 
3174.000000	56.914877 
3173.000000	56.878542 
3172.000000	56.847047 
3171.000000	56.823539 
3170.000000	56.810021 
3169.000000	56.806445 
3168.000000	56.810951 
3167.000000	56.820392 
3166.000000	56.831097 
3165.000000	56.839871 
3164.000000	56.844830 
3163.000000	56.845474 
3162.000000	56.842923 
3161.000000	56.839132 
3160.000000	56.836605 
3159.000000	56.837391 
3158.000000	56.842899 
3157.000000	56.853413 
3156.000000	56.867861 
3155.000000	56.884288 
3154.000000	56.899857 
3153.000000	56.912064 
3152.000000	56.918239 
3151.000000	56.916475 
3150.000000	56.905579 
3149.000000	56.885409 
3148.000000	56.856489 
3147.000000	56.820082 
3146.000000	56.777858 
3145.000000	56.731820 
3144.000000	56.684207 
3143.000000	56.637096 
3142.000000	56.592535 
3141.000000	56.552505 
3140.000000	56.518769 
3139.000000	56.492733 
3138.000000	56.475210 
3137.000000	56.466126 
3136.000000	56.464004 
3135.000000	56.466317 
3134.000000	56.469583 
3133.000000	56.470656 
3132.000000	56.467080 
3131.000000	56.458592 
3130.000000	56.446671 
3129.000000	56.434988 
3128.000000	56.428170 
3127.000000	56.430768 
3126.000000	56.445741 
3125.000000	56.473398 
3124.000000	56.511092 
3123.000000	56.553292 
3122.000000	56.592798 
3121.000000	56.621956 
3120.000000	56.634354 
3119.000000	56.626152 
3118.000000	56.596875 
3117.000000	56.549167 
3116.000000	56.488013 
3115.000000	56.419968 
3114.000000	56.351995 
3113.000000	56.290221 
3112.000000	56.239271 
3111.000000	56.202363 
3110.000000	56.180858 
3109.000000	56.174516 
3108.000000	56.181740 
3107.000000	56.200051 
3106.000000	56.226491 
3105.000000	56.258106 
3104.000000	56.292057 
3103.000000	56.325411 
3102.000000	56.355547 
3101.000000	56.379938 
3100.000000	56.396627 
3099.000000	56.403899 
3098.000000	56.401228 
3097.000000	56.389307 
3096.000000	56.370425 
3095.000000	56.348061 
3094.000000	56.326389 
3093.000000	56.309556 
3092.000000	56.300663 
3091.000000	56.301188 
3090.000000	56.310486 
3089.000000	56.326055 
3088.000000	56.344127 
3087.000000	56.360650 
3086.000000	56.372237 
3085.000000	56.377100 
3084.000000	56.375408 
3083.000000	56.368756 
3082.000000	56.359148 
3081.000000	56.348228 
3080.000000	56.336665 
3079.000000	56.323814 
3078.000000	56.308174 
3077.000000	56.287527 
3076.000000	56.260514 
3075.000000	56.226563 
3074.000000	56.186604 
3073.000000	56.142663 
3072.000000	56.097269 
3071.000000	56.053233 
3070.000000	56.012940 
3069.000000	55.978155 
3068.000000	55.949592 
3067.000000	55.927562 
3066.000000	55.912065 
3065.000000	55.903029 
3064.000000	55.900168 
3063.000000	55.903053 
3062.000000	55.910873 
3061.000000	55.922079 
3060.000000	55.934906 
3059.000000	55.947184 
3058.000000	55.957174 
3057.000000	55.963873 
3056.000000	55.967140 
3055.000000	55.967593 
3054.000000	55.966424 
3053.000000	55.964922 
3052.000000	55.964064 
3051.000000	55.964303 
3050.000000	55.965256 
3049.000000	55.966162 
3048.000000	55.965852 
3047.000000	55.962944 
3046.000000	55.956149 
3045.000000	55.944609 
3044.000000	55.927872 
3043.000000	55.905890 
3042.000000	55.879139 
3041.000000	55.848622 
3040.000000	55.815744 
3039.000000	55.782270 
3038.000000	55.750322 
3037.000000	55.722141 
3036.000000	55.699825 
3035.000000	55.685067 
3034.000000	55.678677 
3033.000000	55.680680 
3032.000000	55.690407 
3031.000000	55.706453 
3030.000000	55.726957 
3029.000000	55.749869 
3028.000000	55.773234 
3027.000000	55.795145 
3026.000000	55.813932 
3025.000000	55.828261 
3024.000000	55.837225 
3023.000000	55.840349 
3022.000000	55.837678 
3021.000000	55.829691 
3020.000000	55.817389 
3019.000000	55.802106 
3018.000000	55.785322 
3017.000000	55.768442 
3016.000000	55.752658 
3015.000000	55.738615 
3014.000000	55.726313 
3013.000000	55.715084 
3012.000000	55.703759 
3011.000000	55.690956 
3010.000000	55.675506 
3009.000000	55.656599 
3008.000000	55.634355 
3007.000000	55.609679 
3006.000000	55.584263 
3005.000000	55.560278 
3004.000000	55.539846 
3003.000000	55.524492 
3002.000000	55.514836 
3001.000000	55.510497 
3000.000000	55.510020 
2999.000000	55.511212 
2998.000000	55.511665 
2997.000000	55.509448 
2996.000000	55.503392 
2995.000000	55.493283 
2994.000000	55.479621 
2993.000000	55.463600 
2992.000000	55.446267 
2991.000000	55.428385 
2990.000000	55.410146 
2989.000000	55.391383 
2988.000000	55.371737 
2987.000000	55.350899 
2986.000000	55.328941 
2985.000000	55.306315 
2984.000000	55.283951 
2983.000000	55.262947 
2982.000000	55.244112 
2981.000000	55.227661 
2980.000000	55.213236 
2979.000000	55.199861 
2978.000000	55.186128 
2977.000000	55.170774 
2976.000000	55.152964 
2975.000000	55.132865 
2974.000000	55.111145 
2973.000000	55.089402 
2972.000000	55.069565 
2971.000000	55.053472 
2970.000000	55.042266 
2969.000000	55.036187 
2968.000000	55.034375 
2967.000000	55.035114 
2966.000000	55.036163 
2965.000000	55.034995 
2964.000000	55.029416 
2963.000000	55.018019 
2962.000000	55.000638 
2961.000000	54.978251 
2960.000000	54.952716 
2959.000000	54.926681 
2958.000000	54.902935 
2957.000000	54.883956 
2956.000000	54.871320 
2955.000000	54.865789 
2954.000000	54.867005 
2953.000000	54.873657 
2952.000000	54.884004 
2951.000000	54.896140 
2950.000000	54.908633 
2949.000000	54.920721 
2948.000000	54.932403 
2947.000000	54.944372 
2946.000000	54.957556 
2945.000000	54.972934 
2944.000000	54.990410 
2943.000000	55.009126 
2942.000000	55.026674 
2941.000000	55.040121 
2940.000000	55.046033 
2939.000000	55.041670 
2938.000000	55.025148 
2937.000000	54.996585 
2936.000000	54.957628 
2935.000000	54.911494 
2934.000000	54.862141 
2933.000000	54.813623 
2932.000000	54.769062 
2931.000000	54.730463 
2930.000000	54.698324 
2929.000000	54.672026 
2928.000000	54.650068 
2927.000000	54.630899 
2926.000000	54.613280 
2925.000000	54.596924 
2924.000000	54.581928 
2923.000000	54.569220 
2922.000000	54.559516 
2921.000000	54.553651 
2920.000000	54.551744 
2919.000000	54.553389 
2918.000000	54.557538 
2917.000000	54.562687 
2916.000000	54.567265 
2915.000000	54.569458 
2914.000000	54.567813 
2913.000000	54.561185 
2912.000000	54.549193 
2911.000000	54.531955 
2910.000000	54.510378 
2909.000000	54.485797 
2908.000000	54.460072 
2907.000000	54.435253 
2906.000000	54.413270 
2905.000000	54.395651 
2904.000000	54.383349 
2903.000000	54.376554 
2902.000000	54.375100 
2901.000000	54.378223 
2900.000000	54.384899 
2899.000000	54.394412 
2898.000000	54.406332 
2897.000000	54.420495 
2896.000000	54.436874 
2895.000000	54.455399 
2894.000000	54.475712 
2893.000000	54.496932 
2892.000000	54.517459 
2891.000000	54.535245 
2890.000000	54.547810 
2889.000000	54.553151 
2888.000000	54.549574 
2887.000000	54.536533 
2886.000000	54.514217 
2885.000000	54.484009 
2884.000000	54.447960 
2883.000000	54.408669 
2882.000000	54.368972 
2881.000000	54.331541 
2880.000000	54.298663 
2879.000000	54.271984 
2878.000000	54.252552 
2877.000000	54.240751 
2876.000000	54.236316 
2875.000000	54.238557 
2874.000000	54.246473 
2873.000000	54.258918 
2872.000000	54.274702 
2871.000000	54.292559 
2870.000000	54.311132 
2869.000000	54.328680 
2868.000000	54.343295 
2867.000000	54.352641 
2866.000000	54.354476 
2865.000000	54.346585 
2864.000000	54.327654 
2863.000000	54.297375 
2862.000000	54.257583 
2861.000000	54.211592 
2860.000000	54.164099 
2859.000000	54.120111 
2858.000000	54.084324 
2857.000000	54.059791 
2856.000000	54.047417 
2855.000000	54.045748 
2854.000000	54.051542 
2853.000000	54.060554 
2852.000000	54.068589 
2851.000000	54.072380 
2850.000000	54.070091 
2849.000000	54.061603 
2848.000000	54.048299 
2847.000000	54.032421 
2846.000000	54.016613 
2845.000000	54.003190 
2844.000000	53.993725 
2843.000000	53.988838 
2842.000000	53.987979 
2841.000000	53.989958 
2840.000000	53.992962 
2839.000000	53.995156 
2838.000000	53.994631 
2837.000000	53.989863 
2836.000000	53.979802 
2835.000000	53.964185 
2834.000000	53.943514 
2833.000000	53.918957 
2832.000000	53.892302 
2831.000000	53.865623 
2830.000000	53.841114 
2829.000000	53.820562 
2828.000000	53.805136 
2827.000000	53.795170 
2826.000000	53.790044 
2825.000000	53.788471 
2824.000000	53.788781 
2823.000000	53.789281 
2822.000000	53.788685 
2821.000000	53.786349 
2820.000000	53.782296 
2819.000000	53.776955 
2818.000000	53.771138 
2817.000000	53.765654 
2816.000000	53.761076 
2815.000000	53.757333 
2814.000000	53.754234 
2813.000000	53.750920 
2812.000000	53.746199 
2811.000000	53.738808 
2810.000000	53.727841 
2809.000000	53.712677 
2808.000000	53.693652 
2807.000000	53.671669 
2806.000000	53.648209 
2805.000000	53.624868 
2804.000000	53.602933 
2803.000000	53.582930 
2802.000000	53.564596 
2801.000000	53.546905 
2800.000000	53.528547 
2799.000000	53.508543 
2798.000000	53.486633 
2797.000000	53.463649 
2796.000000	53.441381 
2795.000000	53.422379 
2794.000000	53.409194 
2793.000000	53.403592 
2792.000000	53.406167 
2791.000000	53.415870 
2790.000000	53.430271 
2789.000000	53.446125 
2788.000000	53.460168 
2787.000000	53.469896 
2786.000000	53.474044 
2785.000000	53.472638 
2784.000000	53.466916 
2783.000000	53.458690 
2782.000000	53.449320 
2781.000000	53.439450 
2780.000000	53.428483 
2779.000000	53.414916 
2778.000000	53.396701 
2777.000000	53.372168 
2776.000000	53.340721 
2775.000000	53.303265 
2774.000000	53.262329 
2773.000000	53.221440 
2772.000000	53.184652 
2771.000000	53.155469 
2770.000000	53.136491 
2769.000000	53.128790 
2768.000000	53.131866 
2767.000000	53.143644 
2766.000000	53.161072 
2765.000000	53.180813 
2764.000000	53.199410 
2763.000000	53.214049 
2762.000000	53.222823 
2761.000000	53.225088 
2760.000000	53.221249 
2759.000000	53.212666 
2758.000000	53.201389 
2757.000000	53.189587 
2756.000000	53.179264 
2755.000000	53.171658 
2754.000000	53.167247 
2753.000000	53.165674 
2752.000000	53.165936 
2751.000000	53.166723 
2750.000000	53.166913 
2749.000000	53.165841 
2748.000000	53.163528 
2747.000000	53.160238 
2746.000000	53.156208 
2745.000000	53.151226 
2744.000000	53.144407 
2743.000000	53.134226 
2742.000000	53.118753 
2741.000000	53.096389 
2740.000000	53.066468 
2739.000000	53.029441 
2738.000000	52.987265 
2737.000000	52.943181 
2736.000000	52.901101 
2735.000000	52.864813 
2734.000000	52.837085 
2733.000000	52.819108 
2732.000000	52.810335 
2731.000000	52.808547 
2730.000000	52.810716 
2729.000000	52.813315 
2728.000000	52.813553 
2727.000000	52.809596 
2726.000000	52.801108 
2725.000000	52.788710 
2724.000000	52.773737 
2723.000000	52.757859 
2722.000000	52.742385 
2721.000000	52.727746 
2720.000000	52.713632 
2719.000000	52.699184 
2718.000000	52.683258 
2717.000000	52.665019 
2716.000000	52.644300 
2715.000000	52.621841 
2714.000000	52.599382 
2713.000000	52.579140 
2712.000000	52.563476 
2711.000000	52.554488 
2710.000000	52.553224 
2709.000000	52.559781 
2708.000000	52.573013 
2707.000000	52.590751 
2706.000000	52.610397 
2705.000000	52.629303 
2704.000000	52.644968 
2703.000000	52.655625 
2702.000000	52.660417 
2701.000000	52.659130 
2700.000000	52.652025 
2699.000000	52.639770 
2698.000000	52.623009 
2697.000000	52.602338 
2696.000000	52.578449 
2695.000000	52.551960 
2694.000000	52.523970 
2693.000000	52.495861 
2692.000000	52.469396 
2691.000000	52.446508 
2690.000000	52.428936 
2689.000000	52.417898 
2688.000000	52.413797 
2687.000000	52.415943 
2686.000000	52.422380 
2685.000000	52.430462 
2684.000000	52.437281 
2683.000000	52.440166 
2682.000000	52.437257 
2681.000000	52.427792 
2680.000000	52.412271 
2679.000000	52.392411 
2678.000000	52.370452 
2677.000000	52.348732 
2676.000000	52.329111 
2675.000000	52.312779 
2674.000000	52.299904 
2673.000000	52.290081 
2672.000000	52.282381 
2671.000000	52.275848 
2670.000000	52.269721 
2669.000000	52.263665 
2668.000000	52.257633 
2667.000000	52.251720 
2666.000000	52.245759 
2665.000000	52.239108 
2664.000000	52.230715 
2663.000000	52.219271 
2662.000000	52.203559 
2661.000000	52.182793 
2660.000000	52.157139 
2659.000000	52.127647 
2658.000000	52.096104 
2657.000000	52.064943 
2656.000000	52.036380 
2655.000000	52.012348 
2654.000000	51.994109 
2653.000000	51.982355 
2652.000000	51.976895 
2651.000000	51.977181 
2650.000000	51.982307 
2649.000000	51.991295 
2648.000000	52.002882 
2647.000000	52.015686 
2646.000000	52.028155 
2645.000000	52.038645 
2644.000000	52.045440 
2643.000000	52.047348 
2642.000000	52.043581 
2641.000000	52.034425 
2640.000000	52.020978 
2639.000000	52.004933 
2638.000000	51.988482 
2637.000000	51.973319 
2636.000000	51.960611 
2635.000000	51.950526 
2634.000000	51.942348 
2633.000000	51.934599 
2632.000000	51.925563 
2631.000000	51.913833 
2630.000000	51.898765 
2629.000000	51.880526 
2628.000000	51.859974 
2627.000000	51.838493 
2626.000000	51.817464 
2625.000000	51.797866 
2624.000000	51.780271 
2623.000000	51.764488 
2622.000000	51.749897 
2621.000000	51.735949 
2620.000000	51.722121 
2619.000000	51.708316 
2618.000000	51.694726 
2617.000000	51.681518 
2616.000000	51.668739 
2615.000000	51.656031 
2614.000000	51.642727 
2613.000000	51.627826 
2612.000000	51.610589 
2611.000000	51.590824 
2610.000000	51.569008 
2609.000000	51.546502 
2608.000000	51.524782 
2607.000000	51.505255 
2606.000000	51.488566 
2605.000000	51.474571 
2604.000000	51.462030 
2603.000000	51.449227 
2602.000000	51.434469 
2601.000000	51.416730 
2600.000000	51.395988 
2599.000000	51.373505 
2598.000000	51.351237 
2597.000000	51.331353 
2596.000000	51.315450 
2595.000000	51.303935 
2594.000000	51.295924 
2593.000000	51.289439 
2592.000000	51.282072 
2591.000000	51.271677 
2590.000000	51.257038 
2589.000000	51.238512 
2588.000000	51.217555 
2587.000000	51.196742 
2586.000000	51.178789 
2585.000000	51.165986 
2584.000000	51.159620 
2583.000000	51.159739 
2582.000000	51.165294 
2581.000000	51.174259 
2580.000000	51.184225 
2579.000000	51.192855 
2578.000000	51.198267 
2577.000000	51.199245 
2576.000000	51.195192 
2575.000000	51.186227 
2574.000000	51.173067 
2573.000000	51.156640 
2572.000000	51.137995 
2571.000000	51.118469 
2570.000000	51.099133 
2569.000000	51.080751 
2568.000000	51.063680 
2567.000000	51.047873 
2566.000000	51.033020 
2565.000000	51.018619 
2564.000000	51.004314 
2563.000000	50.990056 
2562.000000	50.976252 
2561.000000	50.963664 
2560.000000	50.953388 
2559.000000	50.946331 
2558.000000	50.943088 
2557.000000	50.943684 
2556.000000	50.947523 
2555.000000	50.953245 
2554.000000	50.959110 
2553.000000	50.963306 
2552.000000	50.964331 
2551.000000	50.961351 
2550.000000	50.954413 
2549.000000	50.944471 
2548.000000	50.932931 
2547.000000	50.921630 
2546.000000	50.912404 
2545.000000	50.906586 
2544.000000	50.904822 
2543.000000	50.906801 
2542.000000	50.911402 
2541.000000	50.916886 
2540.000000	50.921154 
2539.000000	50.922155 
2538.000000	50.918388 
2537.000000	50.909018 
2536.000000	50.894117 
2535.000000	50.874590 
2534.000000	50.851678 
2533.000000	50.827074 
2532.000000	50.802302 
2531.000000	50.778460 
2530.000000	50.756096 
2529.000000	50.735211 
2528.000000	50.715398 
2527.000000	50.696277 
2526.000000	50.677585 
2525.000000	50.659418 
2524.000000	50.642180 
2523.000000	50.626611 
2522.000000	50.613474 
2521.000000	50.603175 
2520.000000	50.595593 
2519.000000	50.589871 
2518.000000	50.584578 
2517.000000	50.577831 
2516.000000	50.567674 
2515.000000	50.552487 
2514.000000	50.531506 
2513.000000	50.504827 
2512.000000	50.473952 
2511.000000	50.441288 
2510.000000	50.410199 
2509.000000	50.384068 
2508.000000	50.366091 
2507.000000	50.358343 
2506.000000	50.361371 
2505.000000	50.374150 
2504.000000	50.393915 
2503.000000	50.416612 
2502.000000	50.437569 
2501.000000	50.452256 
2500.000000	50.457119 
2499.000000	50.449895 
2498.000000	50.430226 
2497.000000	50.399589 
2496.000000	50.361084 
2495.000000	50.318670 
2494.000000	50.276684 
2493.000000	50.239014 
2492.000000	50.208473 
2491.000000	50.186395 
2490.000000	50.172781 
2489.000000	50.166344 
2488.000000	50.165057 
2487.000000	50.166773 
2486.000000	50.169396 
2485.000000	50.171566 
2484.000000	50.172376 
2483.000000	50.171589 
2482.000000	50.169396 
2481.000000	50.166058 
2480.000000	50.161695 
2479.000000	50.156354 
2478.000000	50.149893 
2477.000000	50.142168 
2476.000000	50.133085 
2475.000000	50.122690 
2474.000000	50.111055 
2473.000000	50.098347 
2472.000000	50.084567 
2471.000000	50.069570 
2470.000000	50.053048 
2469.000000	50.034809 
2468.000000	50.014781 
2467.000000	49.993324 
2466.000000	49.970960 
2465.000000	49.948453 
2464.000000	49.926567 
2463.000000	49.905633 
2462.000000	49.885797 
2461.000000	49.866652 
2460.000000	49.847865 
2459.000000	49.828743 
2458.000000	49.809074 
2457.000000	49.789333 
2456.000000	49.770617 
2455.000000	49.754190 
2454.000000	49.741411 
2453.000000	49.733042 
2452.000000	49.729228 
2451.000000	49.729180 
2450.000000	49.731731 
2449.000000	49.735379 
2448.000000	49.739003 
2447.000000	49.742269 
2446.000000	49.745750 
2445.000000	49.750804 
2444.000000	49.759030 
2443.000000	49.771523 
2442.000000	49.788498 
2441.000000	49.808788 
2440.000000	49.829912 
2439.000000	49.848127 
2438.000000	49.859333 
2437.000000	49.859356 
2436.000000	49.845218 
2435.000000	49.815225 
2434.000000	49.769234 
2433.000000	49.708843 
2432.000000	49.637174 
2431.000000	49.558925 
2430.000000	49.479794 
2429.000000	49.406528 
2428.000000	49.345731 
2427.000000	49.303293 
2426.000000	49.283456 
2425.000000	49.287772 
2424.000000	49.314546 
2423.000000	49.358892 
2422.000000	49.413204 
2421.000000	49.468350 
2420.000000	49.514961 
2419.000000	49.545288 
2418.000000	49.554443 
2417.000000	49.541139 
2416.000000	49.507546 
2415.000000	49.458932 
2414.000000	49.402236 
2413.000000	49.344658 
2412.000000	49.292373 
2411.000000	49.249696 
2410.000000	49.218249 
2409.000000	49.197721 
2408.000000	49.185943 
2407.000000	49.179720 
2406.000000	49.175667 
2405.000000	49.170732 
2404.000000	49.162912 
2403.000000	49.151182 
2402.000000	49.135804 
2401.000000	49.117803 
2400.000000	49.098634 
2399.000000	49.079608 
2398.000000	49.061465 
2397.000000	49.044609 
2396.000000	49.028825 
2395.000000	49.013614 
2394.000000	48.998332 
2393.000000	48.982596 
2392.000000	48.966383 
2391.000000	48.950147 
2390.000000	48.934459 
2389.000000	48.919916 
2388.000000	48.907208 
2387.000000	48.896956 
2386.000000	48.889327 
2385.000000	48.884248 
2384.000000	48.881411 
2383.000000	48.880362 
2382.000000	48.880696 
2381.000000	48.882031 
2380.000000	48.883795 
2379.000000	48.885273 
2378.000000	48.885893 
2377.000000	48.885035 
2376.000000	48.882246 
2375.000000	48.877048 
2374.000000	48.869204 
2373.000000	48.858499 
2372.000000	48.844981 
2371.000000	48.828554 
2370.000000	48.809337 
2369.000000	48.787593 
2368.000000	48.763966 
2367.000000	48.739314 
2366.000000	48.715114 
2365.000000	48.692798 
2364.000000	48.673653 
2363.000000	48.658466 
2362.000000	48.647212 
2361.000000	48.639297 
2360.000000	48.633170 
2359.000000	48.627018 
2358.000000	48.618865 
2357.000000	48.607349 
2356.000000	48.591899 
2355.000000	48.572778 
2354.000000	48.551011 
2353.000000	48.528170 
2352.000000	48.505806 
2351.000000	48.485159 
2350.000000	48.466682 
2349.000000	48.450326 
2348.000000	48.435521 
2347.000000	48.421454 
2346.000000	48.407626 
2345.000000	48.394179 
2344.000000	48.381924 
2343.000000	48.372173 
2342.000000	48.366475 
2341.000000	48.366093 
2340.000000	48.371577 
2339.000000	48.382449 
2338.000000	48.396944 
2337.000000	48.412203 
2336.000000	48.425006 
2335.000000	48.432040 
2334.000000	48.430728 
2333.000000	48.419547 
2332.000000	48.398327 
2331.000000	48.368406 
2330.000000	48.332166 
2329.000000	48.292732 
2328.000000	48.253345 
2327.000000	48.216867 
2326.000000	48.185586 
2325.000000	48.160648 
2324.000000	48.142600 
2323.000000	48.130774 
2322.000000	48.124027 
2321.000000	48.120760 
2320.000000	48.119091 
2319.000000	48.117399 
2318.000000	48.114323 
2317.000000	48.109149 
2316.000000	48.101568 
2315.000000	48.092079 
2314.000000	48.081445 
2313.000000	48.070740 
2312.000000	48.061108 
2311.000000	48.053216 
2310.000000	48.047518 
2309.000000	48.043823 
2308.000000	48.041462 
2307.000000	48.039388 
2306.000000	48.036313 
2305.000000	48.030877 
2304.000000	48.022127 
2303.000000	48.009443 
2302.000000	47.993063 
2301.000000	47.973680 
2300.000000	47.952389 
2299.000000	47.930407 
2298.000000	47.908759 
2297.000000	47.888112 
2296.000000	47.868728 
2295.000000	47.850298 
2294.000000	47.832202 
2293.000000	47.813844 
2292.000000	47.794699 
2291.000000	47.774457 
2290.000000	47.753167 
2289.000000	47.731161 
2288.000000	47.709202 
2287.000000	47.688317 
2286.000000	47.669672 
2285.000000	47.654318 
2284.000000	47.643160 
2283.000000	47.636795 
2282.000000	47.635245 
2281.000000	47.637820 
2280.000000	47.643232 
2279.000000	47.649574 
2278.000000	47.654438 
2277.000000	47.655725 
2276.000000	47.651720 
2275.000000	47.641682 
2274.000000	47.625827 
2273.000000	47.605276 
2272.000000	47.581839 
2271.000000	47.557735 
2270.000000	47.534942 
2269.000000	47.514963 
2268.000000	47.498774 
2267.000000	47.486686 
2266.000000	47.478389 
2265.000000	47.473025 
2264.000000	47.469305 
2263.000000	47.465610 
2262.000000	47.460079 
2261.000000	47.451019 
2260.000000	47.437095 
2259.000000	47.417783 
2258.000000	47.393465 
2257.000000	47.365570 
2256.000000	47.336339 
2255.000000	47.308659 
2254.000000	47.285270 
2253.000000	47.268176 
2252.000000	47.258043 
2251.000000	47.253966 
2250.000000	47.253727 
2249.000000	47.254252 
2248.000000	47.252297 
2247.000000	47.245287 
2246.000000	47.231674 
2245.000000	47.211360 
2244.000000	47.185754 
2243.000000	47.156715 
2242.000000	47.126579 
2241.000000	47.097229 
2240.000000	47.069811 
2239.000000	47.044634 
2238.000000	47.021317 
2237.000000	46.998977 
2236.000000	46.976828 
2235.000000	46.954417 
2234.000000	46.932220 
2233.000000	46.911215 
2232.000000	46.893095 
2231.000000	46.879506 
2230.000000	46.872019 
2229.000000	46.871519 
2228.000000	46.878099 
2227.000000	46.890878 
2226.000000	46.908092 
2225.000000	46.927261 
2224.000000	46.945619 
2223.000000	46.960520 
2222.000000	46.969509 
2221.000000	46.970748 
2220.000000	46.963334 
2219.000000	46.947360 
2218.000000	46.923947 
2217.000000	46.895003 
2216.000000	46.863222 
2215.000000	46.831393 
2214.000000	46.802186 
2213.000000	46.777415 
2212.000000	46.758317 
2211.000000	46.744799 
2210.000000	46.735787 
2209.000000	46.729397 
2208.000000	46.723389 
2207.000000	46.715736 
2206.000000	46.704745 
2205.000000	46.689558 
2204.000000	46.670103 
2203.000000	46.647357 
2202.000000	46.622991 
2201.000000	46.598958 
2200.000000	46.577334 
2199.000000	46.559858 
2198.000000	46.547579 
2197.000000	46.540832 
2196.000000	46.538901 
2195.000000	46.540331 
2194.000000	46.542978 
2193.000000	46.544408 
2192.000000	46.542358 
2191.000000	46.535372 
2190.000000	46.523141 
2189.000000	46.506452 
2188.000000	46.486973 
2187.000000	46.467018 
2186.000000	46.448993 
2185.000000	46.434807 
2184.000000	46.425247 
2183.000000	46.420168 
2182.000000	46.418142 
2181.000000	46.417260 
2180.000000	46.415090 
2179.000000	46.409463 
2178.000000	46.398711 
2177.000000	46.382021 
2176.000000	46.359753 
2175.000000	46.333241 
2174.000000	46.304512 
2173.000000	46.275973 
2172.000000	46.249985 
2171.000000	46.228528 
2170.000000	46.212840 
2169.000000	46.203231 
2168.000000	46.198892 
2167.000000	46.198177 
2166.000000	46.198821 
2165.000000	46.198511 
2164.000000	46.195220 
2163.000000	46.187710 
2162.000000	46.175599 
2161.000000	46.159291 
2160.000000	46.139860 
2159.000000	46.118402 
2158.000000	46.096229 
2157.000000	46.074199 
2156.000000	46.052956 
2155.000000	46.032810 
2154.000000	46.014046 
2153.000000	45.996570 
2152.000000	45.980334 
2151.000000	45.965003 
2150.000000	45.950126 
2149.000000	45.935106 
2148.000000	45.919036 
2147.000000	45.901131 
2146.000000	45.880722 
2145.000000	45.857715 
2144.000000	45.832324 
2143.000000	45.805525 
2142.000000	45.778560 
2141.000000	45.752692 
2140.000000	45.728969 
2139.000000	45.708060 
2138.000000	45.690178 
2137.000000	45.675134 
2136.000000	45.662593 
2135.000000	45.652246 
2134.000000	45.643687 
2133.000000	45.636677 
2132.000000	45.630764 
2131.000000	45.625257 
2130.000000	45.619320 
2129.000000	45.612120 
2128.000000	45.603227 
2127.000000	45.592498 
2126.000000	45.580434 
2125.000000	45.568037 
2124.000000	45.556759 
2123.000000	45.548009 
2122.000000	45.542883 
2121.000000	45.541667 
2120.000000	45.543789 
2119.000000	45.548009 
2118.000000	45.552587 
2117.000000	45.555663 
2116.000000	45.555830 
2115.000000	45.552492 
2114.000000	45.545864 
2113.000000	45.536804 
2112.000000	45.526528 
2111.000000	45.516014 
2110.000000	45.505928 
2109.000000	45.495963 
2108.000000	45.485258 
2107.000000	45.472240 
2106.000000	45.455479 
2105.000000	45.433878 
2104.000000	45.407176 
2103.000000	45.375895 
2102.000000	45.341610 
2101.000000	45.306396 
2100.000000	45.272588 
2099.000000	45.242500 
2098.000000	45.217776 
2097.000000	45.199418 
2096.000000	45.187640 
2095.000000	45.182037 
2094.000000	45.181965 
2093.000000	45.186471 
2092.000000	45.194339 
2091.000000	45.204281 
2090.000000	45.214748 
2089.000000	45.224094 
2088.000000	45.230436 
2087.000000	45.232081 
2086.000000	45.227384 
2085.000000	45.215368 
2084.000000	45.195341 
2083.000000	45.167183 
2082.000000	45.131540 
2081.000000	45.089530 
2080.000000	45.043182 
2079.000000	44.995069 
2078.000000	44.948506 
2077.000000	44.907069 
2076.000000	44.874334 
2075.000000	44.853377 
2074.000000	44.845843 
2073.000000	44.851684 
2072.000000	44.868826 
2071.000000	44.893169 
2070.000000	44.919371 
2069.000000	44.941711 
2068.000000	44.955253 
2067.000000	44.956707 
2066.000000	44.945216 
2065.000000	44.922208 
2064.000000	44.890785 
2063.000000	44.854807 
2062.000000	44.817876 
2061.000000	44.782757 
2060.000000	44.751262 
2059.000000	44.724178 
2058.000000	44.701814 
2057.000000	44.684100 
2056.000000	44.671249 
2055.000000	44.663310 
2054.000000	44.659996 
2053.000000	44.660544 
2052.000000	44.663166 
2051.000000	44.665479 
2050.000000	44.664430 
2049.000000	44.657468 
2048.000000	44.642591 
2047.000000	44.619488 
2046.000000	44.589638 
2045.000000	44.555902 
2044.000000	44.521975 
2043.000000	44.491577 
2042.000000	44.467663 
2041.000000	44.452071 
2040.000000	44.445228 
2039.000000	44.446325 
2038.000000	44.453597 
2037.000000	44.464707 
2036.000000	44.477295 
2035.000000	44.488883 
2034.000000	44.497323 
2033.000000	44.500803 
2032.000000	44.498109 
2031.000000	44.488668 
2030.000000	44.472527 
2029.000000	44.450259 
2028.000000	44.422793 
2027.000000	44.391679 
2026.000000	44.358444 
2025.000000	44.324827 
2024.000000	44.292449 
2023.000000	44.262480 
2022.000000	44.235825 
2021.000000	44.212937 
2020.000000	44.194006 
2019.000000	44.178795 
2018.000000	44.166994 
2017.000000	44.158172 
2016.000000	44.151949 
2015.000000	44.147825 
2014.000000	44.145298 
2013.000000	44.143915 
2012.000000	44.143199 
2011.000000	44.142508 
2010.000000	44.141077 
2009.000000	44.137978 
2008.000000	44.132208 
2007.000000	44.122934 
2006.000000	44.109821 
2005.000000	44.093012 
2004.000000	44.073414 
2003.000000	44.052219 
2002.000000	44.031047 
2001.000000	44.011163 
2000.000000	43.993711 
1999.000000	43.979072 
1998.000000	43.967223 
1997.000000	43.957495 
1996.000000	43.949055 
1995.000000	43.941020 
1994.000000	43.932628 
1993.000000	43.923163 
1992.000000	43.912076 
1991.000000	43.899011 
1990.000000	43.883657 
1989.000000	43.865871 
1988.000000	43.845653 
1987.000000	43.823313 
1986.000000	43.799424 
1985.000000	43.774914 
1984.000000	43.750834 
1983.000000	43.728232 
1982.000000	43.707895 
1981.000000	43.690180 
1980.000000	43.675112 
1979.000000	43.662476 
1978.000000	43.652176 
1977.000000	43.644261 
1976.000000	43.638968 
1975.000000	43.636608 
1974.000000	43.637251 
1973.000000	43.640613 
1972.000000	43.645596 
1971.000000	43.650436 
1970.000000	43.652629 
1969.000000	43.649530 
1968.000000	43.638753 
1967.000000	43.618726 
1966.000000	43.589091 
1965.000000	43.550896 
1964.000000	43.506669 
1963.000000	43.459796 
1962.000000	43.413996 
1961.000000	43.372726 
1960.000000	43.338608 
1959.000000	43.313097 
1958.000000	43.296146 
1957.000000	43.286466 
1956.000000	43.281722 
1955.000000	43.279051 
1954.000000	43.275737 
1953.000000	43.269681 
1952.000000	43.259716 
1951.000000	43.245911 
1950.000000	43.229389 
1949.000000	43.211913 
1948.000000	43.195247 
1947.000000	43.180966 
1946.000000	43.169760 
1945.000000	43.161416 
1944.000000	43.154954 
1943.000000	43.148994 
1942.000000	43.142175 
1941.000000	43.133544 
1940.000000	43.122792 
1939.000000	43.110251 
1938.000000	43.096613 
1937.000000	43.082737 
1936.000000	43.069124 
1935.000000	43.055796 
1934.000000	43.042254 
1933.000000	43.027663 
1932.000000	43.011188 
1931.000000	42.992568 
1930.000000	42.972302 
1929.000000	42.951369 
1928.000000	42.931294 
1927.000000	42.913603 
1926.000000	42.899513 
1925.000000	42.889571 
1924.000000	42.883467 
1923.000000	42.880153 
1922.000000	42.878103 
1921.000000	42.875576 
1920.000000	42.871212 
1919.000000	42.864203 
1918.000000	42.854547 
1917.000000	42.842984 
1916.000000	42.830777 
1915.000000	42.819285 
1914.000000	42.809486 
1913.000000	42.801761 
1912.000000	42.795586 
1911.000000	42.789673 
1910.000000	42.782306 
1909.000000	42.771697 
1908.000000	42.756485 
1907.000000	42.736315 
1906.000000	42.711806 
1905.000000	42.684578 
1904.000000	42.656898 
1903.000000	42.631244 
1902.000000	42.609691 
1901.000000	42.593526 
1900.000000	42.583036 
1899.000000	42.577576 
1898.000000	42.575860 
1897.000000	42.576408 
1896.000000	42.577695 
1895.000000	42.578506 
1894.000000	42.578077 
1893.000000	42.575907 
1892.000000	42.571520 
1891.000000	42.564439 
1890.000000	42.554426 
1889.000000	42.541241 
1888.000000	42.525029 
1887.000000	42.506217 
1886.000000	42.485761 
1885.000000	42.464828 
1884.000000	42.444753 
1883.000000	42.426586 
1882.000000	42.410993 
1881.000000	42.398118 
1880.000000	42.387437 
1879.000000	42.378234 
1878.000000	42.369532 
1877.000000	42.360615 
1876.000000	42.351007 
1875.000000	42.340540 
1874.000000	42.329359 
1873.000000	42.317533 
1872.000000	42.305064 
1871.000000	42.291712 
1870.000000	42.276883 
1869.000000	42.260074 
1868.000000	42.240881 
1867.000000	42.219352 
1866.000000	42.196035 
1865.000000	42.171955 
1864.000000	42.148494 
1863.000000	42.127013 
1862.000000	42.108750 
1861.000000	42.094278 
1860.000000	42.083454 
1859.000000	42.075634 
1858.000000	42.069578 
1857.000000	42.063856 
1856.000000	42.057204 
1855.000000	42.048788 
1854.000000	42.038202 
1853.000000	42.025613 
1852.000000	42.011570 
1851.000000	41.996669 
1850.000000	41.981673 
1849.000000	41.967129 
1848.000000	41.953539 
1847.000000	41.941237 
1846.000000	41.930437 
1845.000000	41.921257 
1844.000000	41.913509 
1843.000000	41.906809 
1842.000000	41.900372 
1841.000000	41.893482 
1840.000000	41.885256 
1839.000000	41.875100 
1838.000000	41.862964 
1837.000000	41.849207 
1836.000000	41.834449 
1835.000000	41.819286 
1834.000000	41.804409 
1833.000000	41.789913 
1832.000000	41.775512 
1831.000000	41.760516 
1830.000000	41.744041 
1829.000000	41.725468 
1828.000000	41.704726 
1827.000000	41.682386 
1826.000000	41.659688 
1825.000000	41.638088 
1824.000000	41.619014 
1823.000000	41.603302 
1822.000000	41.591000 
1821.000000	41.581368 
1820.000000	41.573095 
1819.000000	41.564679 
1818.000000	41.554713 
1817.000000	41.542315 
1816.000000	41.527462 
1815.000000	41.510677 
1814.000000	41.493272 
1813.000000	41.476655 
1812.000000	41.462349 
1811.000000	41.451549 
1810.000000	41.444778 
1809.000000	41.441893 
1808.000000	41.441893 
1807.000000	41.443300 
1806.000000	41.444087 
1805.000000	41.442108 
1804.000000	41.435480 
1803.000000	41.422915 
1802.000000	41.404223 
1801.000000	41.380214 
1800.000000	41.352725 
1799.000000	41.324305 
1798.000000	41.297745 
1797.000000	41.275191 
1796.000000	41.258001 
1795.000000	41.246271 
1794.000000	41.239023 
1793.000000	41.234493 
1792.000000	41.230726 
1791.000000	41.226100 
1790.000000	41.219568 
1789.000000	41.210889 
1788.000000	41.200423 
1787.000000	41.189050 
1786.000000	41.177392 
1785.000000	41.166067 
1784.000000	41.155028 
1783.000000	41.143989 
1782.000000	41.132712 
1781.000000	41.120886 
1780.000000	41.108655 
1779.000000	41.096496 
1778.000000	41.085052 
1777.000000	41.074919 
1776.000000	41.066169 
1775.000000	41.058540 
1774.000000	41.051387 
1773.000000	41.043829 
1772.000000	41.035079 
1771.000000	41.024661 
1770.000000	41.012620 
1769.000000	40.999650 
1768.000000	40.986561 
1767.000000	40.974235 
1766.000000	40.963149 
1765.000000	40.953373 
1764.000000	40.944433 
1763.000000	40.935516 
1762.000000	40.925717 
1761.000000	40.914368 
1760.000000	40.901279 
1759.000000	40.886950 
1758.000000	40.872287 
1757.000000	40.858459 
1756.000000	40.846443 
1755.000000	40.836930 
1754.000000	40.829634 
1753.000000	40.823841 
1752.000000	40.817999 
1751.000000	40.810179 
1750.000000	40.798377 
1749.000000	40.781164 
1748.000000	40.757703 
1747.000000	40.728187 
1746.000000	40.693807 
1745.000000	40.656590 
1744.000000	40.619254 
1743.000000	40.584564 
1742.000000	40.555024 
1741.000000	40.532183 
1740.000000	40.516519 
1739.000000	40.507268 
1738.000000	40.502405 
1737.000000	40.499067 
1736.000000	40.494060 
1735.000000	40.484547 
1734.000000	40.468430 
1733.000000	40.445065 
1732.000000	40.414977 
1731.000000	40.380334 
1730.000000	40.344166 
1729.000000	40.310144 
1728.000000	40.281987 
1727.000000	40.262770 
1726.000000	40.254449 
1725.000000	40.257501 
1724.000000	40.270972 
1723.000000	40.292429 
1722.000000	40.318346 
1721.000000	40.344595 
1720.000000	40.366935 
1719.000000	40.381574 
1718.000000	40.385770 
1717.000000	40.377879 
1716.000000	40.357542 
1715.000000	40.325832 
1714.000000	40.285038 
1713.000000	40.238308 
1712.000000	40.189290 
1711.000000	40.141844 
1710.000000	40.099573 
1709.000000	40.065765 
1708.000000	40.042829 
1707.000000	40.032243 
1706.000000	40.033960 
1705.000000	40.046525 
1704.000000	40.066814 
1703.000000	40.090370 
1702.000000	40.111875 
1701.000000	40.125942 
1700.000000	40.127968 
1699.000000	40.114760 
1698.000000	40.085577 
1697.000000	40.042066 
1696.000000	39.988493 
1695.000000	39.930772 
1694.000000	39.875864 
1693.000000	39.830613 
1692.000000	39.800357 
1691.000000	39.788055 
1690.000000	39.793491 
1689.000000	39.813399 
1688.000000	39.841938 
1687.000000	39.871883 
1686.000000	39.895892 
1685.000000	39.908123 
1684.000000	39.905333 
1683.000000	39.887547 
1682.000000	39.857721 
1681.000000	39.820861 
1680.000000	39.783167 
1679.000000	39.750075 
1678.000000	39.725422 
1677.000000	39.710283 
1676.000000	39.703345 
1675.000000	39.701104 
1674.000000	39.699316 
1673.000000	39.693665 
1672.000000	39.681053 
1671.000000	39.660191 
1670.000000	39.631605 
1669.000000	39.597463 
1668.000000	39.560556 
1667.000000	39.524078 
1666.000000	39.490842 
1665.000000	39.463210 
1664.000000	39.442753 
1663.000000	39.430737 
1662.000000	39.428019 
1661.000000	39.435005 
1660.000000	39.451479 
1659.000000	39.476394 
1658.000000	39.507532 
1657.000000	39.541435 
1656.000000	39.573669 
1655.000000	39.599728 
1654.000000	39.615535 
1653.000000	39.618349 
1652.000000	39.607095 
1651.000000	39.582657 
1650.000000	39.547395 
1649.000000	39.505004 
1648.000000	39.459514 
1647.000000	39.414668 
1646.000000	39.373302 
1645.000000	39.337444 
1644.000000	39.307880 
1643.000000	39.284706 
1642.000000	39.267086 
1641.000000	39.253664 
1640.000000	39.242982 
1639.000000	39.233303 
1638.000000	39.223098 
1637.000000	39.210939 
1636.000000	39.195990 
1635.000000	39.177846 
1634.000000	39.156913 
1633.000000	39.134049 
1632.000000	39.110541 
1631.000000	39.087820 
1630.000000	39.067053 
1629.000000	39.048910 
1628.000000	39.033579 
1627.000000	39.020919 
1626.000000	39.010429 
1625.000000	39.001536 
1624.000000	38.994026 
1623.000000	38.987755 
1622.000000	38.982629 
1621.000000	38.978338 
1620.000000	38.974261 
1619.000000	38.969373 
1618.000000	38.962125 
1617.000000	38.951015 
1616.000000	38.934659 
1615.000000	38.912487 
1614.000000	38.885092 
1613.000000	38.853931 
1612.000000	38.821339 
1611.000000	38.789844 
1610.000000	38.761639 
1609.000000	38.737940 
1608.000000	38.718557 
1607.000000	38.702178 
1606.000000	38.686656 
1605.000000	38.669824 
1604.000000	38.650226 
1603.000000	38.627386 
1602.000000	38.602209 
1601.000000	38.576507 
1600.000000	38.552618 
1599.000000	38.532352 
1598.000000	38.516688 
1597.000000	38.505387 
1596.000000	38.497090 
1595.000000	38.489913 
1594.000000	38.481664 
1593.000000	38.470602 
1592.000000	38.455653 
1591.000000	38.436818 
1590.000000	38.414740 
1589.000000	38.390445 
1588.000000	38.365101 
1587.000000	38.339614 
1586.000000	38.314723 
1585.000000	38.291072 
1584.000000	38.269400 
1583.000000	38.250565 
1582.000000	38.235449 
1581.000000	38.224864 
1580.000000	38.218975 
1579.000000	38.217473 
1578.000000	38.218903 
1577.000000	38.221025 
1576.000000	38.221168 
1575.000000	38.216996 
1574.000000	38.206601 
1573.000000	38.189363 
1572.000000	38.166165 
1571.000000	38.139510 
1570.000000	38.112998 
1569.000000	38.090825 
1568.000000	38.076639 
1567.000000	38.072896 
1566.000000	38.080382 
1565.000000	38.097786 
1564.000000	38.121914 
1563.000000	38.148236 
1562.000000	38.171935 
1561.000000	38.188743 
1560.000000	38.195705 
1559.000000	38.191723 
1558.000000	38.177537 
1557.000000	38.155484 
1556.000000	38.128972 
1555.000000	38.101649 
1554.000000	38.076615 
1553.000000	38.056254 
1552.000000	38.041996 
1551.000000	38.034605 
1550.000000	38.034296 
1549.000000	38.041067 
1548.000000	38.054561 
1547.000000	38.073825 
1546.000000	38.097143 
1545.000000	38.121652 
1544.000000	38.143658 
1543.000000	38.158917 
1542.000000	38.163399 
1541.000000	38.154029 
1540.000000	38.129353 
1539.000000	38.089895 
1538.000000	38.038182 
1537.000000	37.978458 
1536.000000	37.916111 
1535.000000	37.856698 
1534.000000	37.805271 
1533.000000	37.765598 
1532.000000	37.739634 
1531.000000	37.727642 
1530.000000	37.728095 
1529.000000	37.737822 
1528.000000	37.752795 
1527.000000	37.768673 
1526.000000	37.781167 
1525.000000	37.786436 
1524.000000	37.781763 
1523.000000	37.765908 
1522.000000	37.739133 
1521.000000	37.703108 
1520.000000	37.660765 
1519.000000	37.615895 
1518.000000	37.572407 
1517.000000	37.533807 
1516.000000	37.502956 
1515.000000	37.481307 
1514.000000	37.468934 
1513.000000	37.464523 
1512.000000	37.465667 
1511.000000	37.469363 
1510.000000	37.472462 
1509.000000	37.472462 
1508.000000	37.467765 
1507.000000	37.457990 
1506.000000	37.443947 
1505.000000	37.426829 
1504.000000	37.407660 
1503.000000	37.386870 
1502.000000	37.364196 
1501.000000	37.338495 
1500.000000	37.308192 
1499.000000	37.271857 
1498.000000	37.229108 
1497.000000	37.180876 
1496.000000	37.129592 
1495.000000	37.078809 
1494.000000	37.032485 
1493.000000	36.994004 
1492.000000	36.965489 
1491.000000	36.947154 
1490.000000	36.937570 
1489.000000	36.934328 
1488.000000	36.934733 
1487.000000	36.936450 
1486.000000	36.937999 
1485.000000	36.938595 
1484.000000	36.938190 
1483.000000	36.936616 
1482.000000	36.934161 
1481.000000	36.930871 
1480.000000	36.926794 
1479.000000	36.922168 
1478.000000	36.917138 
1477.000000	36.912012 
1476.000000	36.906838 
1475.000000	36.901569 
1474.000000	36.896014 
1473.000000	36.889982 
1472.000000	36.883568 
1471.000000	36.877036 
1470.000000	36.870718 
1469.000000	36.864924 
1468.000000	36.859965 
1467.000000	36.855840 
1466.000000	36.851811 
1465.000000	36.846399 
1464.000000	36.838006 
1463.000000	36.824679 
1462.000000	36.804485 
1461.000000	36.776232 
1460.000000	36.739754 
1459.000000	36.696362 
1458.000000	36.648535 
1457.000000	36.599850 
1456.000000	36.554241 
1455.000000	36.515331 
1454.000000	36.485815 
1453.000000	36.466765 
1452.000000	36.457538 
1451.000000	36.455702 
1450.000000	36.457800 
1449.000000	36.459827 
1448.000000	36.458039 
1447.000000	36.449742 
1446.000000	36.433863 
1445.000000	36.410903 
1444.000000	36.382889 
1443.000000	36.353087 
1442.000000	36.325383 
1441.000000	36.303520 
1440.000000	36.290407 
1439.000000	36.287832 
1438.000000	36.295986 
1437.000000	36.313557 
1436.000000	36.337828 
1435.000000	36.365270 
1434.000000	36.391854 
1433.000000	36.413693 
1432.000000	36.427855 
1431.000000	36.432242 
1430.000000	36.426258 
1429.000000	36.410593 
1428.000000	36.387181 
1427.000000	36.358928 
1426.000000	36.328768 
1425.000000	36.300015 
1424.000000	36.274933 
1423.000000	36.254668 
1422.000000	36.239075 
1421.000000	36.227083 
1420.000000	36.216735 
1419.000000	36.205863 
1418.000000	36.192584 
1417.000000	36.175870 
1416.000000	36.155605 
1415.000000	36.132764 
1414.000000	36.108899 
1413.000000	36.085772 
1412.000000	36.064815 
1411.000000	36.046957 
1410.000000	36.032271 
1409.000000	36.020207 
1408.000000	36.009669 
1407.000000	35.999488 
1406.000000	35.988569 
1405.000000	35.976076 
1404.000000	35.961675 
1403.000000	35.945487 
1402.000000	35.927581 
1401.000000	35.908484 
1400.000000	35.888838 
1399.000000	35.869503 
1398.000000	35.851430 
1397.000000	35.835576 
1396.000000	35.822796 
1395.000000	35.813450 
1394.000000	35.807490 
1393.000000	35.804104 
1392.000000	35.801720 
1391.000000	35.798335 
1390.000000	35.791850 
1389.000000	35.780644 
1388.000000	35.763883 
1387.000000	35.741686 
1386.000000	35.715246 
1385.000000	35.686421 
1384.000000	35.657501 
1383.000000	35.630607 
1382.000000	35.607361 
1381.000000	35.588622 
1380.000000	35.574507 
1379.000000	35.564541 
1378.000000	35.557937 
1377.000000	35.553693 
1376.000000	35.550904 
1375.000000	35.548758 
1374.000000	35.546636 
1373.000000	35.544109 
1372.000000	35.540890 
1371.000000	35.536789 
1370.000000	35.531735 
1369.000000	35.525918 
1368.000000	35.519552 
1367.000000	35.512852 
1366.000000	35.505986 
1365.000000	35.498833 
1364.000000	35.490822 
1363.000000	35.481119 
1362.000000	35.468530 
1361.000000	35.451889 
1360.000000	35.430240 
1359.000000	35.403299 
1358.000000	35.371494 
1357.000000	35.336017 
1356.000000	35.298752 
1355.000000	35.261988 
1354.000000	35.228180 
1353.000000	35.199427 
1352.000000	35.177254 
1351.000000	35.162448 
1350.000000	35.154843 
1349.000000	35.153388 
1348.000000	35.156464 
1347.000000	35.161852 
1346.000000	35.167360 
1345.000000	35.170865 
1344.000000	35.170483 
1343.000000	35.164904 
1342.000000	35.153412 
1341.000000	35.136008 
1340.000000	35.113358 
1339.000000	35.086655 
1338.000000	35.057663 
1337.000000	35.028553 
1336.000000	35.001492 
1335.000000	34.978604 
1334.000000	34.961557 
1333.000000	34.951472 
1332.000000	34.948563 
1331.000000	34.951877 
1330.000000	34.959554 
1329.000000	34.968972 
1328.000000	34.977388 
1327.000000	34.982204 
1326.000000	34.981632 
1325.000000	34.975075 
1324.000000	34.963107 
1323.000000	34.947156 
1322.000000	34.929084 
1321.000000	34.911108 
1320.000000	34.894728 
1319.000000	34.880805 
1318.000000	34.869050 
1317.000000	34.858632 
1316.000000	34.847760 
1315.000000	34.834980 
1314.000000	34.818768 
1313.000000	34.798192 
1312.000000	34.772920 
1311.000000	34.743356 
1310.000000	34.710383 
1309.000000	34.675288 
1308.000000	34.639453 
1307.000000	34.604334 
1306.000000	34.571313 
1305.000000	34.541583 
1304.000000	34.515953 
1303.000000	34.494853 
1302.000000	34.478425 
1301.000000	34.466576 
1300.000000	34.458923 
1299.000000	34.455108 
1298.000000	34.454584 
1297.000000	34.456777 
1296.000000	34.460806 
1295.000000	34.465575 
1294.000000	34.469676 
1293.000000	34.471583 
1292.000000	34.469771 
1291.000000	34.463095 
1290.000000	34.450912 
1289.000000	34.433269 
1288.000000	34.410834 
1287.000000	34.384751 
1286.000000	34.356546 
1285.000000	34.327602 
1284.000000	34.299039 
1283.000000	34.271574 
1282.000000	34.245514 
1281.000000	34.220838 
1280.000000	34.197616 
1279.000000	34.176015 
1278.000000	34.156608 
1277.000000	34.140133 
1276.000000	34.127664 
1275.000000	34.119892 
1274.000000	34.117484 
1273.000000	34.120488 
1272.000000	34.128546 
1271.000000	34.140706 
1270.000000	34.155559 
1269.000000	34.171128 
1268.000000	34.185361 
1267.000000	34.196114 
1266.000000	34.201717 
1265.000000	34.201121 
1264.000000	34.193992 
1263.000000	34.181046 
1262.000000	34.163475 
1261.000000	34.142732 
1260.000000	34.120202 
1259.000000	34.097075 
1258.000000	34.073996 
1257.000000	34.051132 
1256.000000	34.028244 
1255.000000	34.005141 
1254.000000	33.981299 
1253.000000	33.956241 
1252.000000	33.929634 
1251.000000	33.901166 
1250.000000	33.870530 
1249.000000	33.837485 
1248.000000	33.801984 
1247.000000	33.764410 
1246.000000	33.725738 
1245.000000	33.687663 
1244.000000	33.652138 
1243.000000	33.621406 
1242.000000	33.597350 
1241.000000	33.581376 
1240.000000	33.573555 
1239.000000	33.573150 
1238.000000	33.578538 
1237.000000	33.587670 
1236.000000	33.598351 
1235.000000	33.608651 
1234.000000	33.617043 
1233.000000	33.622622 
1232.000000	33.624839 
1231.000000	33.623647 
1230.000000	33.619046 
1229.000000	33.611369 
1228.000000	33.601117 
1227.000000	33.588957 
1226.000000	33.575701 
1225.000000	33.562326 
1224.000000	33.549666 
1223.000000	33.538293 
1222.000000	33.528137 
1221.000000	33.518838 
1220.000000	33.509373 
1219.000000	33.498549 
1218.000000	33.484911 
1217.000000	33.467721 
1216.000000	33.446526 
1215.000000	33.421373 
1214.000000	33.393049 
1213.000000	33.362674 
1212.000000	33.331942 
1211.000000	33.302545 
1210.000000	33.276438 
1209.000000	33.255052 
1208.000000	33.239698 
1207.000000	33.231139 
1206.000000	33.229327 
1205.000000	33.233141 
1204.000000	33.240747 
1203.000000	33.249783 
1202.000000	33.257484 
1201.000000	33.261203 
1200.000000	33.259057 
1199.000000	33.250141 
1198.000000	33.234882 
1197.000000	33.214879 
1196.000000	33.192396 
1195.000000	33.169865 
1194.000000	33.149528 
1193.000000	33.132839 
1192.000000	33.120322 
1191.000000	33.111548 
1190.000000	33.105635 
1189.000000	33.101058 
1188.000000	33.096432 
1187.000000	33.090257 
1186.000000	33.081531 
1185.000000	33.069229 
1184.000000	33.052706 
1183.000000	33.031272 
1182.000000	33.004641 
1181.000000	32.972359 
1180.000000	32.934546 
1179.000000	32.891559 
1178.000000	32.844519 
1177.000000	32.795190 
1176.000000	32.746005 
1175.000000	32.699751 
1174.000000	32.659339 
1173.000000	32.627296 
1172.000000	32.605504 
1171.000000	32.594704 
1170.000000	32.594513 
1169.000000	32.603383 
1168.000000	32.618975 
1167.000000	32.638049 
1166.000000	32.657337 
1165.000000	32.673716 
1164.000000	32.684612 
1163.000000	32.688188 
1162.000000	32.683587 
1161.000000	32.670903 
1160.000000	32.651114 
1159.000000	32.625913 
1158.000000	32.597398 
1157.000000	32.567977 
1156.000000	32.539582 
1155.000000	32.514095 
1154.000000	32.492423 
1153.000000	32.474827 
1152.000000	32.460594 
1151.000000	32.448577 
1150.000000	32.437181 
1149.000000	32.424926 
1148.000000	32.410740 
1147.000000	32.394409 
1146.000000	32.376408 
1145.000000	32.358098 
1144.000000	32.341241 
1143.000000	32.327604 
1142.000000	32.318568 
1141.000000	32.314467 
1140.000000	32.314610 
1139.000000	32.317161 
1138.000000	32.319426 
1137.000000	32.318520 
1136.000000	32.311892 
1135.000000	32.297945 
1134.000000	32.276439 
1133.000000	32.248616 
1132.000000	32.216978 
1131.000000	32.184481 
1130.000000	32.154273 
1129.000000	32.128667 
1128.000000	32.108879 
1127.000000	32.094717 
1126.000000	32.084965 
1125.000000	32.077741 
1124.000000	32.071256 
1123.000000	32.064199 
1122.000000	32.056045 
1121.000000	32.046818 
1120.000000	32.037186 
1119.000000	32.027459 
1118.000000	32.017254 
1117.000000	32.005357 
1116.000000	31.989860 
1115.000000	31.968951 
1114.000000	31.941509 
1113.000000	31.907796 
1112.000000	31.869626 
1111.000000	31.830334 
1110.000000	31.793904 
1109.000000	31.764149 
1108.000000	31.743574 
1107.000000	31.732773 
1106.000000	31.730055 
1105.000000	31.731939 
1104.000000	31.733965 
1103.000000	31.731748 
1102.000000	31.722187 
1101.000000	31.704163 
1100.000000	31.678700 
1099.000000	31.648564 
1098.000000	31.617712 
1097.000000	31.590151 
1096.000000	31.569266 
1095.000000	31.557059 
1094.000000	31.553936 
1093.000000	31.558704 
1092.000000	31.568622 
1091.000000	31.580114 
1090.000000	31.589317 
1089.000000	31.592702 
1088.000000	31.587696 
1087.000000	31.573009 
1086.000000	31.548881 
1085.000000	31.516790 
1084.000000	31.479144 
1083.000000	31.438422 
1082.000000	31.397271 
1081.000000	31.357693 
1080.000000	31.321001 
1079.000000	31.287932 
1078.000000	31.258797 
1077.000000	31.233668 
1076.000000	31.212568 
1075.000000	31.195545 
1074.000000	31.182527 
1073.000000	31.173229 
1072.000000	31.166934 
1071.000000	31.162548 
1070.000000	31.158542 
1069.000000	31.153583 
1068.000000	31.146931 
1067.000000	31.138610 
1066.000000	31.129336 
1065.000000	31.120371 
1064.000000	31.113004 
1063.000000	31.108045 
1062.000000	31.105470 
1061.000000	31.104516 
1060.000000	31.103849 
1059.000000	31.101894 
1058.000000	31.097507 
1057.000000	31.090259 
1056.000000	31.080460 
1055.000000	31.069326 
1054.000000	31.058311 
1053.000000	31.048560 
1052.000000	31.040835 
1051.000000	31.035065 
1050.000000	31.030607 
1049.000000	31.026506 
1048.000000	31.021761 
1047.000000	31.015849 
1046.000000	31.008434 
1045.000000	30.999541 
1044.000000	30.989289 
1043.000000	30.977582 
1042.000000	30.963945 
1041.000000	30.947589 
1040.000000	30.927777 
1039.000000	30.903983 
1038.000000	30.876350 
1037.000000	30.845761 
1036.000000	30.813717 
1035.000000	30.782532 
1034.000000	30.754852 
1033.000000	30.733323 
1032.000000	30.719923 
1031.000000	30.715513 
1030.000000	30.719780 
1029.000000	30.730986 
1028.000000	30.746054 
1027.000000	30.760836 
1026.000000	30.770874 
1025.000000	30.771994 
1024.000000	30.760836 
1023.000000	30.735874 
1022.000000	30.697345 
1021.000000	30.647730 
1020.000000	30.591177 
1019.000000	30.533099 
1018.000000	30.479145 
1017.000000	30.434465 
1016.000000	30.402803 
1015.000000	30.385828 
1014.000000	30.383324 
1013.000000	30.393099 
1012.000000	30.411458 
1011.000000	30.433607 
1010.000000	30.454349 
1009.000000	30.468773 
1008.000000	30.472946 
1007.000000	30.464267 
1006.000000	30.441904 
1005.000000	30.406641 
1004.000000	30.360770 
1003.000000	30.307817 
1002.000000	30.251979 
1001.000000	30.197715 
1000.000000	30.148983 
999.000000	 30.108928 
998.000000	 30.079245 
997.000000	 30.060315 
996.000000	 30.051040 
995.000000	 30.049157 
994.000000	 30.051755 
993.000000	 30.055379 
992.000000	 30.057144 
991.000000	 30.054903 
990.000000	 30.048012 
989.000000	 30.037021 
988.000000	 30.023860 
987.000000	 30.011177 
986.000000	 30.001950 
985.000000	 29.998350 
984.000000	 30.000996 
983.000000	 30.008435 
982.000000	 30.017447 
981.000000	 30.023646 
980.000000	 30.022239 
979.000000	 30.009412 
978.000000	 29.983258 
977.000000	 29.944467 
976.000000	 29.896402 
975.000000	 29.844403 
974.000000	 29.794692 
973.000000	 29.752898 
972.000000	 29.722809 
971.000000	 29.705548 
970.000000	 29.699897 
969.000000	 29.702281 
968.000000	 29.708170 
967.000000	 29.712915 
966.000000	 29.712963 
965.000000	 29.706072 
964.000000	 29.691410 
963.000000	 29.669523 
962.000000	 29.641556 
961.000000	 29.609560 
960.000000	 29.575967 
959.000000	 29.543781 
958.000000	 29.516124 
957.000000	 29.496407 
956.000000	 29.487705 
955.000000	 29.491972 
954.000000	 29.509305 
953.000000	 29.537630 
952.000000	 29.572701 
951.000000	 29.608273 
950.000000	 29.637718 
949.000000	 29.655432 
948.000000	 29.657983 
947.000000	 29.645037 
946.000000	 29.619026 
945.000000	 29.584670 
944.000000	 29.547142 
943.000000	 29.511213 
942.000000	 29.479742 
941.000000	 29.453468 
940.000000	 29.431056 
939.000000	 29.410338 
938.000000	 29.388856 
937.000000	 29.364991 
936.000000	 29.338359 
935.000000	 29.309916 
934.000000	 29.281520 
933.000000	 29.255127 
932.000000	 29.232001 
931.000000	 29.212307 
930.000000	 29.194951 
929.000000	 29.177999 
928.000000	 29.159188 
927.000000	 29.136586 
926.000000	 29.109001 
925.000000	 29.076313 
924.000000	 29.039144 
923.000000	 28.998899 
922.000000	 28.957200 
921.000000	 28.915858 
920.000000	 28.875923 
919.000000	 28.838300 
918.000000	 28.803396 
917.000000	 28.771638 
916.000000	 28.742980 
915.000000	 28.717637 
914.000000	 28.695917 
913.000000	 28.678560 
912.000000	 28.666090 
911.000000	 28.659009 
910.000000	 28.657245 
909.000000	 28.660082 
908.000000	 28.666138 
907.000000	 28.673505 
906.000000	 28.679847 
905.000000	 28.682899 
904.000000	 28.680706 
903.000000	 28.672146 
902.000000	 28.657150 
901.000000	 28.636980 
900.000000	 28.613662 
899.000000	 28.589797 
898.000000	 28.567743 
897.000000	 28.549313 
896.000000	 28.534913 
895.000000	 28.523826 
894.000000	 28.513860 
893.000000	 28.502202 
892.000000	 28.486061 
891.000000	 28.463077 
890.000000	 28.432321 
889.000000	 28.394603 
888.000000	 28.352618 
887.000000	 28.310441 
886.000000	 28.272652 
885.000000	 28.243303 
884.000000	 28.224778 
883.000000	 28.216838 
882.000000	 28.216886 
881.000000	 28.220152 
880.000000	 28.221273 
879.000000	 28.215575 
878.000000	 28.200411 
877.000000	 28.175544 
876.000000	 28.143382 
875.000000	 28.108000 
874.000000	 28.073835 
873.000000	 28.044319 
872.000000	 28.021073 
871.000000	 28.003692 
870.000000	 27.990150 
869.000000	 27.977705 
868.000000	 27.964282 
867.000000	 27.948927 
866.000000	 27.932548 
865.000000	 27.917289 
864.000000	 27.905654 
863.000000	 27.899408 
862.000000	 27.898788 
861.000000	 27.902102 
860.000000	 27.906203 
859.000000	 27.907204 
858.000000	 27.901959 
857.000000	 27.888226 
856.000000	 27.865505 
855.000000	 27.834987 
854.000000	 27.799296 
853.000000	 27.761411 
852.000000	 27.723741 
851.000000	 27.687907 
850.000000	 27.654600 
849.000000	 27.623653 
848.000000	 27.594637 
847.000000	 27.567052 
846.000000	 27.540731 
845.000000	 27.516126 
844.000000	 27.494001 
843.000000	 27.474832 
842.000000	 27.458763 
841.000000	 27.445340 
840.000000	 27.433371 
839.000000	 27.421236 
838.000000	 27.407217 
837.000000	 27.389740 
836.000000	 27.368211 
835.000000	 27.342605 
834.000000	 27.314352 
833.000000	 27.285861 
832.000000	 27.260661 
831.000000	 27.242326 
830.000000	 27.234387 
829.000000	 27.239608 
828.000000	 27.259063 
827.000000	 27.291870 
826.000000	 27.334856 
825.000000	 27.382802 
824.000000	 27.429080 
823.000000	 27.466607 
822.000000	 27.488994 
821.000000	 27.491664 
820.000000	 27.472782 
819.000000	 27.433443 
818.000000	 27.377152 
817.000000	 27.309012 
816.000000	 27.235054 
815.000000	 27.161049 
814.000000	 27.091860 
813.000000	 27.030777 
812.000000	 26.979970 
811.000000	 26.939868 
810.000000	 26.909613 
809.000000	 26.887226 
808.000000	 26.870012 
807.000000	 26.855158 
806.000000	 26.840066 
805.000000	 26.822948 
804.000000	 26.802349 
803.000000	 26.777815 
802.000000	 26.749467 
801.000000	 26.717996 
800.000000	 26.684284 
799.000000	 26.649546 
798.000000	 26.614999 
797.000000	 26.581835 
796.000000	 26.550912 
795.000000	 26.523041 
794.000000	 26.498818 
793.000000	 26.478123 
792.000000	 26.460552 
791.000000	 26.445746 
790.000000	 26.433825 
789.000000	 26.424789 
788.000000	 26.419091 
787.000000	 26.417326 
786.000000	 26.420140 
785.000000	 26.427698 
784.000000	 26.439285 
783.000000	 26.453042 
782.000000	 26.466035 
781.000000	 26.474785 
780.000000	 26.475858 
779.000000	 26.466345 
778.000000	 26.444840 
777.000000	 26.412224 
776.000000	 26.371192 
775.000000	 26.325559 
774.000000	 26.279640 
773.000000	 26.237750 
772.000000	 26.202273 
771.000000	 26.173424 
770.000000	 26.148819 
769.000000	 26.124525 
768.000000	 26.095414 
767.000000	 26.056551 
766.000000	 26.004409 
765.000000	 25.937533 
764.000000	 25.856947 
763.000000	 25.765848 
762.000000	 25.668931 
761.000000	 25.571393 
760.000000	 25.477981 
759.000000	 25.392484 
758.000000	 25.316786 
757.000000	 25.252079 
756.000000	 25.198245 
755.000000	 25.156044 
754.000000	 25.125694 
753.000000	 25.109362 
752.000000	 25.109577 
751.000000	 25.129938 
750.000000	 25.172781 
749.000000	 25.239157 
748.000000	 25.327515 
747.000000	 25.433111 
746.000000	 25.547671 
745.000000	 25.660800 
744.000000	 25.761389 
743.000000	 25.838923 
742.000000	 25.885510 
741.000000	 25.897097 
740.000000	 25.874423 
739.000000	 25.822782 
738.000000	 25.750899 
737.000000	 25.669574 
736.000000	 25.589346 
735.000000	 25.519633 
734.000000	 25.466370 
733.000000	 25.431704 
732.000000	 25.413489 
731.000000	 25.407147 
730.000000	 25.406432 
729.000000	 25.405073 
728.000000	 25.398230 
727.000000	 25.383257 
726.000000	 25.359892 
725.000000	 25.329852 
724.000000	 25.295472 
723.000000	 25.258421 
722.000000	 25.218749 
721.000000	 25.175356 
720.000000	 25.124859 
719.000000	 25.062870 
718.000000	 24.984860 
717.000000	 24.888324 
716.000000	 24.772953 
715.000000	 24.641466 
714.000000	 24.500250 
713.000000	 24.358844 
712.000000	 24.227929 
711.000000	 24.118161 
710.000000	 24.038338 
709.000000	 23.993992 
708.000000	 23.986315 
707.000000	 24.011921 
706.000000	 24.063014 
705.000000	 24.128556 
704.000000	 24.196743 
703.000000	 24.255871 
702.000000	 24.295783 
701.000000	 24.308490 
700.000000	 24.290251 
699.000000	 24.239778 
698.000000	 24.158120 
697.000000	 24.047660 
696.000000	 23.912596 
695.000000	 23.757648 
694.000000	 23.589229 
693.000000	 23.414444 
692.000000	 23.241662 
691.000000	 23.079061 
690.000000	 22.934365 
689.000000	 22.813892 
688.000000	 22.722005 
687.000000	 22.660398 
686.000000	 22.628331 
685.000000	 22.622919 
684.000000	 22.640180 
683.000000	 22.674775 
682.000000	 22.721982 
681.000000	 22.776770 
680.000000	 22.836375 
679.000000	 22.898674 
678.000000	 22.964000 
677.000000	 23.033809 
676.000000	 23.110485 
675.000000	 23.196935 
674.000000	 23.293805 
673.000000	 23.399901 
672.000000	 23.509073 
671.000000	 23.611807 
670.000000	 23.694539 
669.000000	 23.743057 
668.000000	 23.744940 
667.000000	 23.693752 
666.000000	 23.591232 
665.000000	 23.448419 
664.000000	 23.283982 
663.000000	 23.121023 
662.000000	 22.982788 
661.000000	 22.888278 
660.000000	 22.847771 
659.000000	 22.861123 
658.000000	 22.918701 
657.000000	 23.003840 
656.000000	 23.095989 
655.000000	 23.175692 
654.000000	 23.227405 
653.000000	 23.243141 
652.000000	 23.222565 
651.000000	 23.172473 
650.000000	 23.103475 
649.000000	 23.027181 
648.000000	 22.953677 
647.000000	 22.888398 
646.000000	 22.833180 
645.000000	 22.784614 
644.000000	 22.737455 
643.000000	 22.684812 
642.000000	 22.621083 
641.000000	 22.542953 
640.000000	 22.450900 
639.000000	 22.348499 
638.000000	 22.240829 
637.000000	 22.135376 
636.000000	 22.040200 
635.000000	 21.963047 
634.000000	 21.909666 
633.000000	 21.883416 
632.000000	 21.884489 
631.000000	 21.909832 
630.000000	 21.953439 
629.000000	 22.005677 
628.000000	 22.055745 
627.000000	 22.092747 
626.000000	 22.109317 
625.000000	 22.102355 
624.000000	 22.075366 
623.000000	 22.037410 
622.000000	 22.001194 
621.000000	 21.980690 
620.000000	 21.986246 
619.000000	 22.023034 
618.000000	 22.087025 
617.000000	 22.167181 
616.000000	 22.245144 
615.000000	 22.301125 
614.000000	 22.315979 
613.000000	 22.276210 
612.000000	 22.176527 
611.000000	 22.021150 
610.000000	 21.823430 
609.000000	 21.603059 
608.000000	 21.383094 
607.000000	 21.185636 
606.000000	 21.028542 
605.000000	 20.922899 
604.000000	 20.872211 
603.000000	 20.873188 
602.000000	 20.917081 
601.000000	 20.992445 
600.000000	 21.086835 
599.000000	 21.189260 
598.000000	 21.290111 
597.000000	 21.382212 
596.000000	 21.459412 
595.000000	 21.516823 
594.000000	 21.550488 
593.000000	 21.557044 
592.000000	 21.534776 
591.000000	 21.483278 
590.000000	 21.404814 
589.000000	 21.303725 
588.000000	 21.187520 
587.000000	 21.065163 
586.000000	 20.946979 
585.000000	 20.841932 
584.000000	 20.756745 
583.000000	 20.694279 
582.000000	 20.653414 
581.000000	 20.629143 
580.000000	 20.614266 
579.000000	 20.601248 
578.000000	 20.584702 
577.000000	 20.563030 
576.000000	 20.539021 
575.000000	 20.518350 
574.000000	 20.507860 
573.000000	 20.513391 
572.000000	 20.537424 
571.000000	 20.578193 
570.000000	 20.629429 
569.000000	 20.681619 
568.000000	 20.724058 
567.000000	 20.748353 
566.000000	 20.749545 
565.000000	 20.727348 
564.000000	 20.685243 
563.000000	 20.630216 
562.000000	 20.569181 
561.000000	 20.507717 
560.000000	 20.448088 
559.000000	 20.389652 
558.000000	 20.329284 
557.000000	 20.263671 
556.000000	 20.190787 
555.000000	 20.111441 
554.000000	 20.029830 
553.000000	 19.952797 
552.000000	 19.887614 
551.000000	 19.839787 
550.000000	 19.811391 
549.000000	 19.799780 
548.000000	 19.797801 
547.000000	 19.795608 
546.000000	 19.782876 
545.000000	 19.751548 
544.000000	 19.698262 
543.000000	 19.625186 
542.000000	 19.538855 
541.000000	 19.448757 
540.000000	 19.365286 
539.000000	 19.296550 
538.000000	 19.246244 
537.000000	 19.212961 
536.000000	 19.191980 
535.000000	 19.175696 
534.000000	 19.156408 
533.000000	 19.127655 
532.000000	 19.085597 
531.000000	 19.029998 
530.000000	 18.963813 
529.000000	 18.891882 
528.000000	 18.819141 
527.000000	 18.750596 
526.000000	 18.690299 
525.000000	 18.641400 
524.000000	 18.605756 
523.000000	 18.584585 
522.000000	 18.577885 
521.000000	 18.585062 
520.000000	 18.603491 
519.000000	 18.628787 
518.000000	 18.653488 
517.000000	 18.668866 
516.000000	 18.664574 
515.000000	 18.630719 
514.000000	 18.559479 
513.000000	 18.446922 
512.000000	 18.294930 
511.000000	 18.111038 
510.000000	 17.909431 
509.000000	 17.707610 
508.000000	 17.526078 
507.000000	 17.384481 
506.000000	 17.299151 
505.000000	 17.279863 
504.000000	 17.328453 
503.000000	 17.437791 
502.000000	 17.593193 
501.000000	 17.774581 
500.000000	 17.958378 
499.000000	 18.120646 
498.000000	 18.241286 
497.000000	 18.306016 
496.000000	 18.307733 
495.000000	 18.246388 
494.000000	 18.128395 
493.000000	 17.964553 
492.000000	 17.768383 
491.000000	 17.553901 
490.000000	 17.335391 
489.000000	 17.125678 
488.000000	 16.936302 
487.000000	 16.777205 
486.000000	 16.656136 
485.000000	 16.579341 
484.000000	 16.549682 
483.000000	 16.567611 
482.000000	 16.629815 
481.000000	 16.729044 
480.000000	 16.854310 
479.000000	 16.989922 
478.000000	 17.115998 
477.000000	 17.211151 
476.000000	 17.256355 
475.000000	 17.235994 
474.000000	 17.140793 
473.000000	 16.971206 
472.000000	 16.737985 
471.000000	 16.460323 
470.000000	 16.162562 
469.000000	 15.869116 
468.000000	 15.600204 
467.000000	 15.370559 
466.000000	 15.187096 
465.000000	 15.048122 
464.000000	 14.946031 
463.000000	 14.870405 
462.000000	 14.812231 
461.000000	 14.764714 
460.000000	 14.726567 
459.000000	 14.698600 
458.000000	 14.685225 
457.000000	 14.689064 
456.000000	 14.712285 
455.000000	 14.751148 
454.000000	 14.801836 
453.000000	 14.858078 
452.000000	 14.919328 
451.000000	 14.990878 
450.000000	 15.084457 
449.000000	 15.215158 
448.000000	 15.394449 
447.000000	 15.624547 
446.000000	 15.892338 
445.000000	 16.168665 
444.000000	 16.411685 
443.000000	 16.574692 
442.000000	 16.615724 
441.000000	 16.508150 
440.000000	 16.247701 
439.000000	 15.855288 
438.000000	 15.377187 
437.000000	 14.875149 
436.000000	 14.408326 
435.000000	 14.025568 
434.000000	 13.765811 
433.000000	 13.646030 
432.000000	 13.655686 
431.000000	 13.764858 
430.000000	 13.939046 
429.000000	 14.138865 
428.000000	 14.325881 
427.000000	 14.469432 
426.000000	 14.539647 
425.000000	 14.527153 
424.000000	 14.443159 
423.000000	 14.315104 
422.000000	 14.179706 
421.000000	 14.068317 
420.000000	 13.997745 
419.000000	 13.963389 
418.000000	 13.942742 
417.000000	 13.896179 
416.000000	 13.781785 
415.000000	 13.582730 
414.000000	 13.319540 
413.000000	 13.021922 
412.000000	 12.751603 
411.000000	 12.568187 
410.000000	 12.558889 
409.000000	 12.838983 
408.000000	 13.529014 
407.000000	 14.751172 
406.000000	 16.552162 
405.000000	 18.873643 
404.000000	 21.525359 
403.000000	 24.194264 
402.000000	 26.510500 
401.000000	 28.148674 
400.000000	 28.870511 
399.000000	 28.604316 
398.000000	 27.416396 
397.000000	 25.487422 
396.000000	 23.082590 
395.000000	 20.482730 
394.000000	 18.013119 
393.000000	 15.998721 
392.000000	 14.782547 
391.000000	 14.678597 
390.000000	 15.888929 
389.000000	 18.446183 
388.000000	 22.158908 
387.000000	 26.626825 
386.000000	 31.285667 
385.000000	 35.521697 
384.000000	 38.795518 
383.000000	 40.751314 
382.000000	 41.285133 
381.000000	 40.539741 
380.000000	 38.870000 
379.000000	 36.712098 
378.000000	 34.494328 
377.000000	 32.498693 
376.000000	 30.885529 
375.000000	 29.599261 
374.000000	 28.421139 
373.000000	 27.083516 
372.000000	 25.376439 
371.000000	 23.282504 
370.000000	 21.008920 

