PE IR       SPECTRUM    SPECTRUM    ASCII       PEDS        1.60        
  -1
C-9CE0~1.ASC
17/03/27
20:12:02.00
17/03/27
20:12:02.00
tln
$C-4040-8_t0069$<tbV0>[7.8,2.6,8.0,0.0,27,1,0]
370.000000
64









2002,4.07    
MIRTGS : RIGHTBACK : INTERNAL 2
MIR : ON : INTERNAL 2
OPTKBR

0.200000
8
8.000000
FILLER
RATIO
SPECTRUM
UNLOCKED 256

DOUBLE
64
COMBINED
1
0
0


1.000000
RATIO


1
0
TRUE
51149
0
LEFT NOT FITTED RIGHT NOT FITTED 0
NONE
NONE
15600
12.000000
4.427000
51148
TRUE
1 0 8 72 0 0 0 0 

15798.010000






#HDR
-1
-1
#GR
CM-1
%T
0.00002384185791015625
0.0
5000.000000
-1.000000
4631
8
82.117843
48.128032
#DATA
5000.000000	65.188717 
4999.000000	65.214920 
4998.000000	65.232086 
4997.000000	65.242409 
4996.000000	65.247726 
4995.000000	65.249204 
4994.000000	65.247344 
4993.000000	65.241932 
4992.000000	65.233182 
4991.000000	65.222311 
4990.000000	65.212082 
4989.000000	65.206956 
4988.000000	65.211367 
4987.000000	65.228390 
4986.000000	65.258359 
4985.000000	65.298581 
4984.000000	65.342736 
4983.000000	65.382075 
4982.000000	65.407395 
4981.000000	65.411090 
4980.000000	65.388607 
4979.000000	65.339255 
4978.000000	65.266442 
4977.000000	65.176701 
4976.000000	65.078258 
4975.000000	64.978861 
4974.000000	64.884495 
4973.000000	64.797949 
4972.000000	64.719915 
4971.000000	64.648699 
4970.000000	64.581513 
4969.000000	64.516353 
4968.000000	64.452314 
4967.000000	64.391493 
4966.000000	64.336895 
4965.000000	64.294362 
4964.000000	64.269852 
4963.000000	64.269709 
4962.000000	64.297676 
4961.000000	64.355134 
4960.000000	64.439535 
4959.000000	64.545249 
4958.000000	64.664030 
4957.000000	64.786696 
4956.000000	64.904522 
4955.000000	65.010666 
4954.000000	65.100669 
4953.000000	65.172076 
4952.000000	65.223598 
4951.000000	65.254950 
4950.000000	65.265560 
4949.000000	65.254974 
4948.000000	65.222477 
4947.000000	65.169191 
4946.000000	65.097784 
4945.000000	65.013360 
4944.000000	64.922690 
4943.000000	64.834666 
4942.000000	64.757561 
4941.000000	64.697432 
4940.000000	64.657211 
4939.000000	64.636230 
4938.000000	64.631056 
4937.000000	64.636373 
4936.000000	64.647054 
4935.000000	64.659261 
4934.000000	64.671421 
4933.000000	64.683389 
4932.000000	64.696431 
4931.000000	64.711785 
4930.000000	64.730334 
4929.000000	64.752006 
4928.000000	64.775609 
4927.000000	64.799141 
4926.000000	64.820981 
4925.000000	64.840054 
4924.000000	64.855861 
4923.000000	64.868450 
4922.000000	64.878654 
4921.000000	64.887619 
4920.000000	64.895963 
4919.000000	64.904093 
4918.000000	64.912629 
4917.000000	64.922118 
4916.000000	64.933705 
4915.000000	64.948344 
4914.000000	64.966058 
4913.000000	64.986634 
4912.000000	65.009903 
4911.000000	65.035414 
4910.000000	65.061521 
4909.000000	65.087294 
4908.000000	65.113210 
4907.000000	65.139913 
4906.000000	65.167522 
4905.000000	65.195703 
4904.000000	65.223240 
4903.000000	65.248131 
4902.000000	65.268182 
4901.000000	65.281033 
4900.000000	65.284752 
4899.000000	65.278959 
4898.000000	65.264391 
4897.000000	65.242433 
4896.000000	65.214085 
4895.000000	65.179657 
4894.000000	65.139031 
4893.000000	65.090084 
4892.000000	65.031862 
4891.000000	64.964938 
4890.000000	64.895129 
4889.000000	64.831089 
4888.000000	64.787411 
4887.000000	64.780211 
4886.000000	64.826536 
4885.000000	64.938473 
4884.000000	65.120983 
4883.000000	65.369272 
4882.000000	65.667676 
4881.000000	65.991401 
4880.000000	66.309380 
4879.000000	66.589999 
4878.000000	66.804981 
4877.000000	66.934633 
4876.000000	66.969990 
4875.000000	66.913771 
4874.000000	66.779184 
4873.000000	66.586422 
4872.000000	66.358828 
4871.000000	66.117811 
4870.000000	65.881609 
4869.000000	65.662026 
4868.000000	65.465044 
4867.000000	65.291500 
4866.000000	65.139746 
4865.000000	65.008449 
4864.000000	64.897537 
4863.000000	64.810228 
4862.000000	64.750194 
4861.000000	64.722371 
4860.000000	64.728665 
4859.000000	64.767932 
4858.000000	64.832806 
4857.000000	64.911699 
4856.000000	64.989709 
4855.000000	65.051507 
4854.000000	65.083956 
4853.000000	65.079092 
4852.000000	65.035533 
4851.000000	64.958477 
4850.000000	64.858198 
4849.000000	64.748930 
4848.000000	64.646196 
4847.000000	64.563488 
4846.000000	64.510130 
4845.000000	64.491057 
4844.000000	64.506554 
4843.000000	64.552974 
4842.000000	64.623832 
4841.000000	64.710330 
4840.000000	64.803242 
4839.000000	64.894104 
4838.000000	64.976477 
4837.000000	65.044856 
4836.000000	65.095829 
4835.000000	65.128397 
4834.000000	65.143013 
4833.000000	65.141081 
4832.000000	65.124845 
4831.000000	65.097618 
4830.000000	65.063357 
4829.000000	65.027070 
4828.000000	64.993858 
4827.000000	64.969229 
4826.000000	64.957070 
4825.000000	64.959597 
4824.000000	64.975810 
4823.000000	65.001845 
4822.000000	65.031671 
4821.000000	65.058684 
4820.000000	65.077137 
4819.000000	65.083551 
4818.000000	65.077686 
4817.000000	65.062642 
4816.000000	65.044188 
4815.000000	65.029191 
4814.000000	65.023207 
4813.000000	65.028786 
4812.000000	65.045237 
4811.000000	65.068268 
4810.000000	65.091919 
4809.000000	65.109610 
4808.000000	65.116143 
4807.000000	65.108299 
4806.000000	65.085935 
4805.000000	65.051484 
4804.000000	65.008807 
4803.000000	64.962983 
4802.000000	64.918923 
4801.000000	64.880728 
4800.000000	64.851355 
4799.000000	64.831304 
4798.000000	64.819073 
4797.000000	64.811062 
4796.000000	64.802837 
4795.000000	64.789986 
4794.000000	64.769864 
4793.000000	64.742541 
4792.000000	64.711260 
4791.000000	64.681959 
4790.000000	64.662075 
4789.000000	64.658641 
4788.000000	64.676284 
4787.000000	64.715576 
4786.000000	64.772534 
4785.000000	64.838790 
4784.000000	64.903593 
4783.000000	64.955949 
4782.000000	64.987611 
4781.000000	64.994931 
4780.000000	64.979624 
4779.000000	64.948153 
4778.000000	64.909815 
4777.000000	64.874720 
4776.000000	64.850902 
4775.000000	64.842748 
4774.000000	64.849877 
4773.000000	64.868140 
4772.000000	64.890527 
4771.000000	64.909410 
4770.000000	64.918637 
4769.000000	64.915466 
4768.000000	64.900922 
4767.000000	64.879298 
4766.000000	64.857149 
4765.000000	64.840936 
4764.000000	64.835691 
4763.000000	64.843225 
4762.000000	64.861822 
4761.000000	64.886593 
4760.000000	64.910960 
4759.000000	64.928483 
4758.000000	64.934611 
4757.000000	64.928364 
4756.000000	64.912581 
4755.000000	64.893460 
4754.000000	64.878416 
4753.000000	64.874505 
4752.000000	64.886498 
4751.000000	64.915227 
4750.000000	64.957475 
4749.000000	65.006756 
4748.000000	65.055441 
4747.000000	65.096664 
4746.000000	65.126276 
4745.000000	65.143680 
4744.000000	65.151715 
4743.000000	65.155315 
4742.000000	65.159773 
4741.000000	65.168261 
4740.000000	65.180897 
4739.000000	65.194606 
4738.000000	65.204238 
4737.000000	65.204811 
4736.000000	65.193128 
4735.000000	65.169501 
4734.000000	65.137815 
4733.000000	65.104484 
4732.000000	65.076446 
4731.000000	65.058803 
4730.000000	65.053534 
4729.000000	65.058660 
4728.000000	65.069293 
4727.000000	65.078997 
4726.000000	65.081977 
4725.000000	65.075254 
4724.000000	65.058875 
4723.000000	65.035963 
4722.000000	65.011215 
4721.000000	64.988708 
4720.000000	64.971065 
4719.000000	64.958143 
4718.000000	64.948368 
4717.000000	64.939403 
4716.000000	64.930033 
4715.000000	64.921236 
4714.000000	64.915657 
4713.000000	64.917039 
4712.000000	64.928436 
4711.000000	64.950799 
4710.000000	64.981770 
4709.000000	65.015959 
4708.000000	65.046119 
4707.000000	65.064930 
4706.000000	65.067386 
4705.000000	65.051770 
4704.000000	65.020442 
4703.000000	64.978647 
4702.000000	64.933013 
4701.000000	64.889788 
4700.000000	64.852929 
4699.000000	64.824056 
4698.000000	64.802026 
4697.000000	64.784669 
4696.000000	64.769983 
4695.000000	64.757609 
4694.000000	64.749026 
4693.000000	64.747738 
4692.000000	64.757132 
4691.000000	64.780616 
4690.000000	64.819836 
4689.000000	64.874434 
4688.000000	64.941501 
4687.000000	65.016579 
4686.000000	65.094232 
4685.000000	65.169048 
4684.000000	65.236234 
4683.000000	65.291810 
4682.000000	65.332603 
4681.000000	65.356516 
4680.000000	65.362572 
4679.000000	65.350961 
4678.000000	65.323376 
4677.000000	65.283679 
4676.000000	65.237450 
4675.000000	65.192246 
4674.000000	65.155529 
4673.000000	65.134096 
4672.000000	65.131950 
4671.000000	65.149807 
4670.000000	65.184092 
4669.000000	65.227913 
4668.000000	65.272116 
4667.000000	65.306949 
4666.000000	65.324354 
4665.000000	65.319728 
4664.000000	65.292382 
4663.000000	65.245485 
4662.000000	65.185284 
4661.000000	65.119600 
4660.000000	65.056872 
4659.000000	65.004611 
4658.000000	64.968585 
4657.000000	64.951968 
4656.000000	64.955806 
4655.000000	64.978909 
4654.000000	65.017986 
4653.000000	65.067887 
4652.000000	65.122628 
4651.000000	65.175652 
4650.000000	65.220093 
4649.000000	65.249681 
4648.000000	65.259718 
4647.000000	65.247726 
4646.000000	65.213775 
4645.000000	65.161085 
4644.000000	65.095138 
4643.000000	65.023851 
4642.000000	64.956426 
4641.000000	64.902257 
4640.000000	64.869356 
4639.000000	64.863181 
4638.000000	64.885783 
4637.000000	64.934992 
4636.000000	65.004634 
4635.000000	65.085005 
4634.000000	65.164542 
4633.000000	65.231966 
4632.000000	65.278387 
4631.000000	65.298819 
4630.000000	65.292716 
4629.000000	65.263843 
4628.000000	65.218663 
4627.000000	65.165114 
4626.000000	65.110206 
4625.000000	65.058684 
4624.000000	65.012216 
4623.000000	64.970326 
4622.000000	64.931344 
4621.000000	64.893651 
4620.000000	64.857530 
4619.000000	64.825487 
4618.000000	64.802527 
4617.000000	64.794301 
4616.000000	64.805984 
4615.000000	64.839768 
4614.000000	64.894342 
4613.000000	64.964413 
4612.000000	65.041399 
4611.000000	65.115213 
4610.000000	65.175986 
4609.000000	65.216302 
4608.000000	65.231990 
4607.000000	65.223050 
4606.000000	65.192627 
4605.000000	65.146017 
4604.000000	65.088915 
4603.000000	65.026569 
4602.000000	64.963150 
4601.000000	64.902162 
4600.000000	64.846611 
4599.000000	64.799857 
4598.000000	64.766311 
4597.000000	64.751458 
4596.000000	64.760661 
4595.000000	64.798021 
4594.000000	64.864635 
4593.000000	64.957189 
4592.000000	65.068054 
4591.000000	65.185213 
4590.000000	65.294098 
4589.000000	65.379977 
4588.000000	65.430855 
4587.000000	65.440058 
4586.000000	65.407443 
4585.000000	65.339660 
4584.000000	65.248656 
4583.000000	65.149068 
4582.000000	65.055370 
4581.000000	64.978957 
4580.000000	64.926385 
4579.000000	64.898347 
4578.000000	64.890742 
4577.000000	64.896178 
4576.000000	64.906477 
4575.000000	64.914560 
4574.000000	64.916181 
4573.000000	64.910197 
4572.000000	64.898467 
4571.000000	64.883875 
4570.000000	64.869952 
4569.000000	64.859366 
4568.000000	64.853739 
4567.000000	64.853811 
4566.000000	64.859366 
4565.000000	64.870095 
4564.000000	64.884901 
4563.000000	64.902687 
4562.000000	64.921307 
4561.000000	64.937210 
4560.000000	64.946484 
4559.000000	64.945030 
4558.000000	64.930486 
4557.000000	64.902520 
4556.000000	64.864516 
4555.000000	64.823174 
4554.000000	64.787411 
4553.000000	64.766407 
4552.000000	64.766836 
4551.000000	64.790940 
4550.000000	64.835834 
4549.000000	64.894175 
4548.000000	64.956068 
4547.000000	65.011692 
4546.000000	65.054178 
4545.000000	65.080976 
4544.000000	65.094494 
4543.000000	65.100002 
4542.000000	65.103697 
4541.000000	65.109610 
4540.000000	65.118432 
4539.000000	65.126681 
4538.000000	65.128064 
4537.000000	65.115833 
4536.000000	65.085816 
4535.000000	65.038061 
4534.000000	64.978361 
4533.000000	64.916443 
4532.000000	64.863872 
4531.000000	64.830827 
4530.000000	64.823293 
4529.000000	64.841723 
4528.000000	64.881014 
4527.000000	64.932298 
4526.000000	64.985394 
4525.000000	65.031599 
4524.000000	65.065598 
4523.000000	65.086126 
4522.000000	65.095520 
4521.000000	65.098023 
4520.000000	65.097761 
4519.000000	65.097308 
4518.000000	65.096402 
4517.000000	65.092635 
4516.000000	65.081357 
4515.000000	65.058565 
4514.000000	65.021252 
4513.000000	64.969158 
4512.000000	64.904952 
4511.000000	64.833450 
4510.000000	64.761638 
4509.000000	64.697146 
4508.000000	64.647436 
4507.000000	64.618158 
4506.000000	64.612722 
4505.000000	64.631700 
4504.000000	64.672589 
4503.000000	64.730143 
4502.000000	64.797091 
4501.000000	64.865398 
4500.000000	64.927220 
4499.000000	64.976072 
4498.000000	65.007829 
4497.000000	65.021204 
4496.000000	65.017938 
4495.000000	65.002107 
4494.000000	64.980149 
4493.000000	64.959311 
4492.000000	64.946627 
4491.000000	64.947152 
4490.000000	64.963936 
4489.000000	64.996576 
4488.000000	65.041828 
4487.000000	65.093493 
4486.000000	65.143394 
4485.000000	65.182900 
4484.000000	65.204238 
4483.000000	65.202355 
4482.000000	65.176081 
4481.000000	65.128469 
4480.000000	65.066289 
4479.000000	64.998507 
4478.000000	64.934492 
4477.000000	64.881849 
4476.000000	64.845347 
4475.000000	64.825487 
4474.000000	64.819073 
4473.000000	64.820289 
4472.000000	64.822840 
4471.000000	64.820837 
4470.000000	64.810276 
4469.000000	64.789628 
4468.000000	64.759993 
4467.000000	64.723968 
4466.000000	64.684748 
4465.000000	64.645171 
4464.000000	64.607024 
4463.000000	64.571404 
4462.000000	64.538431 
4461.000000	64.508485 
4460.000000	64.481353 
4459.000000	64.456915 
4458.000000	64.434266 
4457.000000	64.411878 
4456.000000	64.387464 
4455.000000	64.358162 
4454.000000	64.321517 
4453.000000	64.275479 
4452.000000	64.220666 
4451.000000	64.159750 
4450.000000	64.099311 
4449.000000	64.047622 
4448.000000	64.015340 
4447.000000	64.012527 
4446.000000	64.047503 
4445.000000	64.124321 
4444.000000	64.241743 
4443.000000	64.392709 
4442.000000	64.564514 
4441.000000	64.740753 
4440.000000	64.904046 
4439.000000	65.039229 
4438.000000	65.134954 
4437.000000	65.186262 
4436.000000	65.195870 
4435.000000	65.172648 
4434.000000	65.130472 
4433.000000	65.083527 
4432.000000	65.043950 
4431.000000	65.018391 
4430.000000	65.008211 
4429.000000	65.009140 
4428.000000	65.014696 
4427.000000	65.017700 
4426.000000	65.015053 
4425.000000	65.005970 
4424.000000	64.991784 
4423.000000	64.975261 
4422.000000	64.958238 
4421.000000	64.942455 
4420.000000	64.929056 
4419.000000	64.918112 
4418.000000	64.909958 
4417.000000	64.899349 
4416.000000	64.875102 
4415.000000	64.831304 
4414.000000	64.768815 
4413.000000	64.683365 
4412.000000	64.569330 
4411.000000	64.425849 
4410.000000	64.256620 
4409.000000	64.078092 
4408.000000	63.911747 
4407.000000	63.765478 
4406.000000	63.642263 
4405.000000	63.540720 
4404.000000	63.461351 
4403.000000	63.413238 
4402.000000	63.408589 
4401.000000	63.461446 
4400.000000	63.579177 
4399.000000	63.745236 
4398.000000	63.936638 
4397.000000	64.134311 
4396.000000	64.316534 
4395.000000	64.472913 
4394.000000	64.579510 
4393.000000	64.589810 
4392.000000	64.485001 
4391.000000	64.267086 
4390.000000	64.088034 
4389.000000	64.213204 
4388.000000	64.998483 
4387.000000	66.757488 
4386.000000	69.542789 
4385.000000	73.089218 
4384.000000	76.754069 
4383.000000	79.712915 
4382.000000	81.241226 
4381.000000	80.903720 
4380.000000	78.807520 
4379.000000	75.471925 
4378.000000	71.657347 
4377.000000	68.141913 
4376.000000	65.408372 
4375.000000	63.641333 
4374.000000	62.734055 
4373.000000	62.384796 
4372.000000	62.343144 
4371.000000	62.392282 
4370.000000	62.448215 
4369.000000	62.511038 
4368.000000	62.578725 
4367.000000	62.682414 
4366.000000	62.816476 
4365.000000	62.977242 
4364.000000	63.151431 
4363.000000	63.321518 
4362.000000	63.471078 
4361.000000	63.582301 
4360.000000	63.641309 
4359.000000	63.652658 
4358.000000	63.636064 
4357.000000	63.620591 
4356.000000	63.634991 
4355.000000	63.692235 
4354.000000	63.790130 
4353.000000	63.908267 
4352.000000	64.020538 
4351.000000	64.116740 
4350.000000	64.197254 
4349.000000	64.272665 
4348.000000	64.358615 
4347.000000	64.461731 
4346.000000	64.583492 
4345.000000	64.724636 
4344.000000	64.876556 
4343.000000	65.018224 
4342.000000	65.129351 
4341.000000	65.200161 
4340.000000	65.228033 
4339.000000	65.219664 
4338.000000	65.186214 
4337.000000	65.139174 
4336.000000	65.090775 
4335.000000	65.051460 
4334.000000	65.030336 
4333.000000	65.033793 
4332.000000	65.064740 
4331.000000	65.122365 
4330.000000	65.200138 
4329.000000	65.288257 
4328.000000	65.376520 
4327.000000	65.456581 
4326.000000	65.523934 
4325.000000	65.577793 
4324.000000	65.620231 
4323.000000	65.654468 
4322.000000	65.682816 
4321.000000	65.705418 
4320.000000	65.721297 
4319.000000	65.727090 
4318.000000	65.719461 
4317.000000	65.694618 
4316.000000	65.651249 
4315.000000	65.589618 
4314.000000	65.512585 
4313.000000	65.425014 
4312.000000	65.333509 
4311.000000	65.244436 
4310.000000	65.162920 
4309.000000	65.092110 
4308.000000	65.033102 
4307.000000	64.984798 
4306.000000	64.944958 
4305.000000	64.911866 
4304.000000	64.885449 
4303.000000	64.867162 
4302.000000	64.860010 
4301.000000	64.867138 
4300.000000	64.891123 
4299.000000	64.931297 
4298.000000	64.984250 
4297.000000	65.044379 
4296.000000	65.104627 
4295.000000	65.157604 
4294.000000	65.196990 
4293.000000	65.218734 
4292.000000	65.221786 
4291.000000	65.207982 
4290.000000	65.181612 
4289.000000	65.147900 
4288.000000	65.112519 
4287.000000	65.080904 
4286.000000	65.056753 
4285.000000	65.041661 
4284.000000	65.035057 
4283.000000	65.035176 
4282.000000	65.038537 
4281.000000	65.040850 
4280.000000	65.038275 
4279.000000	65.028071 
4278.000000	65.008735 
4277.000000	64.979767 
4276.000000	64.942097 
4275.000000	64.896917 
4274.000000	64.844512 
4273.000000	64.784383 
4272.000000	64.714837 
4271.000000	64.635348 
4270.000000	64.547181 
4269.000000	64.455628 
4268.000000	64.368867 
4267.000000	64.298248 
4266.000000	64.255380 
4265.000000	64.250612 
4264.000000	64.288520 
4263.000000	64.368414 
4262.000000	64.483118 
4261.000000	64.620780 
4260.000000	64.766502 
4259.000000	64.905667 
4258.000000	65.026283 
4257.000000	65.120863 
4256.000000	65.186905 
4255.000000	65.226554 
4254.000000	65.245127 
4253.000000	65.249729 
4252.000000	65.247106 
4251.000000	65.242981 
4250.000000	65.240430 
4249.000000	65.241146 
4248.000000	65.244245 
4247.000000	65.247511 
4246.000000	65.247058 
4245.000000	65.238952 
4244.000000	65.219545 
4243.000000	65.186262 
4242.000000	65.138554 
4241.000000	65.078544 
4240.000000	65.010929 
4239.000000	64.941978 
4238.000000	64.878749 
4237.000000	64.828109 
4236.000000	64.794564 
4235.000000	64.779257 
4234.000000	64.779758 
4233.000000	64.790511 
4232.000000	64.804148 
4231.000000	64.813137 
4230.000000	64.811491 
4229.000000	64.795494 
4228.000000	64.765501 
4227.000000	64.725637 
4226.000000	64.681935 
4225.000000	64.640808 
4224.000000	64.608073 
4223.000000	64.587473 
4222.000000	64.580106 
4221.000000	64.584493 
4220.000000	64.597177 
4219.000000	64.614057 
4218.000000	64.631676 
4217.000000	64.648437 
4216.000000	64.663410 
4215.000000	64.678096 
4214.000000	64.694571 
4213.000000	64.716577 
4212.000000	64.747381 
4211.000000	64.789819 
4210.000000	64.845418 
4209.000000	64.913320 
4208.000000	64.990544 
4207.000000	65.071058 
4206.000000	65.147209 
4205.000000	65.209460 
4204.000000	65.248417 
4203.000000	65.256571 
4202.000000	65.230464 
4201.000000	65.171027 
4200.000000	65.083837 
4199.000000	64.978718 
4198.000000	64.868354 
4197.000000	64.765906 
4196.000000	64.683318 
4195.000000	64.629316 
4194.000000	64.609169 
4193.000000	64.624667 
4192.000000	64.674973 
4191.000000	64.757013 
4190.000000	64.865922 
4189.000000	64.995622 
4188.000000	65.137863 
4187.000000	65.281939 
4186.000000	65.414667 
4185.000000	65.521454 
4184.000000	65.588498 
4183.000000	65.604496 
4182.000000	65.565228 
4181.000000	65.474891 
4180.000000	65.347385 
4179.000000	65.204334 
4178.000000	65.071773 
4177.000000	64.975452 
4176.000000	64.934968 
4175.000000	64.959788 
4174.000000	65.046620 
4173.000000	65.180563 
4172.000000	65.337896 
4171.000000	65.491676 
4170.000000	65.616750 
4169.000000	65.695047 
4168.000000	65.718245 
4167.000000	65.688657 
4166.000000	65.616607 
4165.000000	65.517711 
4164.000000	65.408730 
4163.000000	65.303993 
4162.000000	65.213727 
4161.000000	65.142273 
4160.000000	65.090560 
4159.000000	65.055489 
4158.000000	65.033674 
4157.000000	65.020918 
4156.000000	65.013337 
4155.000000	65.008044 
4154.000000	65.002536 
4153.000000	64.995312 
4152.000000	64.984393 
4151.000000	64.969563 
4150.000000	64.951801 
4149.000000	64.934206 
4148.000000	64.921259 
4147.000000	64.918041 
4146.000000	64.928793 
4145.000000	64.955806 
4144.000000	64.998412 
4143.000000	65.052485 
4142.000000	65.110945 
4141.000000	65.165066 
4140.000000	65.206241 
4139.000000	65.228271 
4138.000000	65.228557 
4137.000000	65.208315 
4136.000000	65.172171 
4135.000000	65.127038 
4134.000000	65.080428 
4133.000000	65.039277 
4132.000000	65.008640 
4131.000000	64.991164 
4130.000000	64.986777 
4129.000000	64.994311 
4128.000000	65.010762 
4127.000000	65.032291 
4126.000000	65.054655 
4125.000000	65.073704 
4124.000000	65.086364 
4123.000000	65.090584 
4122.000000	65.086102 
4121.000000	65.073919 
4120.000000	65.056133 
4119.000000	65.035176 
4118.000000	65.013265 
4117.000000	64.992094 
4116.000000	64.972472 
4115.000000	64.954614 
4114.000000	64.938521 
4113.000000	64.924716 
4112.000000	64.914584 
4111.000000	64.910125 
4110.000000	64.913463 
4109.000000	64.925861 
4108.000000	64.947056 
4107.000000	64.974904 
4106.000000	65.004873 
4105.000000	65.031790 
4104.000000	65.050959 
4103.000000	65.059733 
4102.000000	65.058374 
4101.000000	65.049552 
4100.000000	65.037512 
4099.000000	65.026664 
4098.000000	65.020108 
4097.000000	65.018820 
4096.000000	65.021491 
4095.000000	65.025448 
4094.000000	65.027809 
4093.000000	65.026855 
4092.000000	65.022826 
4091.000000	65.018105 
4090.000000	65.016531 
4089.000000	65.021824 
4088.000000	65.036225 
4087.000000	65.059423 
4086.000000	65.088391 
4085.000000	65.117645 
4084.000000	65.140557 
4083.000000	65.151453 
4082.000000	65.146398 
4081.000000	65.124320 
4080.000000	65.086889 
4079.000000	65.038013 
4078.000000	64.982891 
4077.000000	64.927458 
4076.000000	64.877080 
4075.000000	64.835882 
4074.000000	64.806270 
4073.000000	64.788937 
4072.000000	64.783048 
4071.000000	64.786505 
4070.000000	64.796900 
4069.000000	64.811801 
4068.000000	64.829421 
4067.000000	64.848637 
4066.000000	64.869284 
4065.000000	64.891624 
4064.000000	64.916300 
4063.000000	64.943861 
4062.000000	64.974594 
4061.000000	65.008139 
4060.000000	65.043568 
4059.000000	65.079045 
4058.000000	65.112471 
4057.000000	65.141081 
4056.000000	65.162563 
4055.000000	65.174508 
4054.000000	65.175008 
4053.000000	65.162968 
4052.000000	65.138196 
4051.000000	65.102052 
4050.000000	65.057682 
4049.000000	65.009927 
4048.000000	64.964866 
4047.000000	64.928746 
4046.000000	64.906668 
4045.000000	64.901924 
4044.000000	64.915108 
4043.000000	64.944100 
4042.000000	64.984178 
4041.000000	65.029311 
4040.000000	65.073251 
4039.000000	65.110373 
4038.000000	65.136504 
4037.000000	65.149664 
4036.000000	65.149927 
4035.000000	65.139722 
4034.000000	65.122985 
4033.000000	65.104508 
4032.000000	65.088653 
4031.000000	65.079092 
4030.000000	65.077447 
4029.000000	65.083646 
4028.000000	65.095400 
4027.000000	65.109014 
4026.000000	65.120172 
4025.000000	65.124654 
4024.000000	65.119838 
4023.000000	65.104842 
4022.000000	65.081310 
4021.000000	65.052747 
4020.000000	65.023922 
4019.000000	64.999413 
4018.000000	64.983177 
4017.000000	64.977431 
4016.000000	64.983129 
4015.000000	64.999818 
4014.000000	65.026092 
4013.000000	65.059947 
4012.000000	65.098524 
4011.000000	65.138459 
4010.000000	65.175628 
4009.000000	65.205717 
4008.000000	65.224862 
4007.000000	65.230369 
4006.000000	65.221548 
4005.000000	65.199923 
4004.000000	65.169215 
4003.000000	65.134453 
4002.000000	65.101075 
4001.000000	65.073490 
4000.000000	65.054440 
3999.000000	65.044617 
3998.000000	65.042805 
3997.000000	65.047001 
3996.000000	65.055203 
3995.000000	65.066266 
3994.000000	65.080213 
3993.000000	65.097689 
3992.000000	65.119123 
3991.000000	65.143966 
3990.000000	65.169858 
3989.000000	65.193438 
3988.000000	65.210771 
3987.000000	65.219044 
3986.000000	65.217399 
3985.000000	65.207886 
3984.000000	65.195250 
3983.000000	65.185546 
3982.000000	65.184545 
3981.000000	65.196156 
3980.000000	65.220785 
3979.000000	65.254831 
3978.000000	65.291428 
3977.000000	65.322017 
3976.000000	65.338540 
3975.000000	65.335559 
3974.000000	65.311717 
3973.000000	65.269851 
3972.000000	65.216588 
3971.000000	65.160584 
3970.000000	65.110731 
3969.000000	65.073966 
3968.000000	65.054154 
3967.000000	65.051698 
3966.000000	65.063714 
3965.000000	65.085411 
3964.000000	65.110898 
3963.000000	65.134787 
3962.000000	65.153241 
3961.000000	65.164518 
3960.000000	65.168690 
3959.000000	65.166926 
3958.000000	65.160989 
3957.000000	65.152621 
3956.000000	65.142798 
3955.000000	65.131831 
3954.000000	65.119576 
3953.000000	65.106010 
3952.000000	65.091419 
3951.000000	65.076994 
3950.000000	65.064334 
3949.000000	65.055513 
3948.000000	65.052580 
3947.000000	65.057325 
3946.000000	65.070581 
3945.000000	65.092134 
3944.000000	65.120792 
3943.000000	65.154266 
3942.000000	65.189552 
3941.000000	65.223217 
3940.000000	65.252041 
3939.000000	65.273308 
3938.000000	65.285301 
3937.000000	65.287351 
3936.000000	65.280055 
3935.000000	65.264821 
3934.000000	65.243697 
3933.000000	65.218853 
3932.000000	65.192341 
3931.000000	65.165805 
3930.000000	65.140604 
3929.000000	65.117740 
3928.000000	65.098071 
3927.000000	65.082573 
3926.000000	65.072345 
3925.000000	65.068459 
3924.000000	65.071892 
3923.000000	65.083241 
3922.000000	65.102601 
3921.000000	65.129351 
3920.000000	65.161943 
3919.000000	65.198397 
3918.000000	65.236067 
3917.000000	65.272116 
3916.000000	65.303349 
3915.000000	65.326929 
3914.000000	65.339970 
3913.000000	65.340137 
3912.000000	65.325951 
3911.000000	65.297317 
3910.000000	65.255522 
3909.000000	65.203666 
3908.000000	65.146422 
3907.000000	65.089631 
3906.000000	65.039396 
3905.000000	65.000987 
3904.000000	64.977765 
3903.000000	64.970612 
3902.000000	64.977574 
3901.000000	64.994692 
3900.000000	65.016746 
3899.000000	65.038657 
3898.000000	65.056514 
3897.000000	65.068602 
3896.000000	65.075135 
3895.000000	65.078186 
3894.000000	65.080237 
3893.000000	65.083575 
3892.000000	65.089273 
3891.000000	65.096902 
3890.000000	65.104603 
3889.000000	65.109729 
3888.000000	65.110135 
3887.000000	65.104484 
3886.000000	65.092849 
3885.000000	65.076613 
3884.000000	65.058207 
3883.000000	65.040254 
3882.000000	65.025043 
3881.000000	65.014147 
3880.000000	65.008163 
3879.000000	65.007114 
3878.000000	65.010929 
3877.000000	65.019130 
3876.000000	65.031075 
3875.000000	65.046095 
3874.000000	65.063500 
3873.000000	65.082287 
3872.000000	65.100955 
3871.000000	65.118002 
3870.000000	65.131950 
3869.000000	65.141654 
3868.000000	65.146112 
3867.000000	65.144920 
3866.000000	65.137505 
3865.000000	65.123558 
3864.000000	65.102505 
3863.000000	65.073847 
3862.000000	65.037560 
3861.000000	64.994382 
3860.000000	64.946413 
3859.000000	64.897036 
3858.000000	64.850711 
3857.000000	64.812517 
3856.000000	64.787030 
3855.000000	64.777207 
3854.000000	64.784073 
3853.000000	64.806342 
3852.000000	64.841008 
3851.000000	64.883852 
3850.000000	64.930367 
3849.000000	64.976525 
3848.000000	65.019440 
3847.000000	65.057587 
3846.000000	65.090608 
3845.000000	65.118741 
3844.000000	65.142440 
3843.000000	65.161585 
3842.000000	65.175867 
3841.000000	65.184593 
3840.000000	65.187406 
3839.000000	65.184450 
3838.000000	65.176916 
3837.000000	65.166330 
3836.000000	65.154981 
3835.000000	65.144515 
3834.000000	65.135884 
3833.000000	65.128564 
3832.000000	65.120840 
3831.000000	65.110254 
3830.000000	65.094280 
3829.000000	65.071678 
3828.000000	65.042853 
3827.000000	65.011024 
3826.000000	64.981269 
3825.000000	64.959907 
3824.000000	64.952826 
3823.000000	64.963698 
3822.000000	64.992523 
3821.000000	65.035390 
3820.000000	65.085196 
3819.000000	65.133285 
3818.000000	65.171551 
3817.000000	65.194439 
3816.000000	65.199851 
3815.000000	65.189671 
3814.000000	65.168762 
3813.000000	65.143370 
3812.000000	65.119314 
3811.000000	65.100836 
3810.000000	65.089392 
3809.000000	65.084147 
3808.000000	65.082240 
3807.000000	65.080642 
3806.000000	65.076780 
3805.000000	65.069556 
3804.000000	65.059494 
3803.000000	65.048050 
3802.000000	65.037608 
3801.000000	65.030050 
3800.000000	65.027093 
3799.000000	65.029644 
3798.000000	65.038037 
3797.000000	65.052294 
3796.000000	65.071868 
3795.000000	65.095853 
3794.000000	65.122795 
3793.000000	65.150904 
3792.000000	65.178108 
3791.000000	65.202426 
3790.000000	65.222263 
3789.000000	65.236425 
3788.000000	65.244412 
3787.000000	65.245985 
3786.000000	65.241289 
3785.000000	65.230393 
3784.000000	65.213418 
3783.000000	65.190672 
3782.000000	65.162611 
3781.000000	65.130591 
3780.000000	65.096664 
3779.000000	65.064001 
3778.000000	65.036392 
3777.000000	65.017676 
3776.000000	65.010666 
3775.000000	65.016794 
3774.000000	65.035343 
3773.000000	65.063810 
3772.000000	65.098118 
3771.000000	65.133571 
3770.000000	65.165734 
3769.000000	65.190935 
3768.000000	65.206980 
3767.000000	65.213036 
3766.000000	65.209698 
3765.000000	65.198898 
3764.000000	65.183520 
3763.000000	65.166783 
3762.000000	65.151715 
3761.000000	65.141248 
3760.000000	65.137243 
3759.000000	65.140533 
3758.000000	65.150547 
3757.000000	65.165615 
3756.000000	65.183138 
3755.000000	65.200114 
3754.000000	65.213894 
3753.000000	65.222644 
3752.000000	65.226125 
3751.000000	65.225553 
3750.000000	65.223503 
3749.000000	65.222907 
3748.000000	65.226626 
3747.000000	65.236520 
3746.000000	65.252971 
3745.000000	65.274500 
3744.000000	65.298175 
3743.000000	65.320253 
3742.000000	65.336775 
3741.000000	65.344619 
3740.000000	65.341758 
3739.000000	65.327835 
3738.000000	65.304160 
3737.000000	65.273380 
3736.000000	65.238881 
3735.000000	65.204167 
3734.000000	65.172386 
3733.000000	65.145969 
3732.000000	65.126180 
3731.000000	65.113449 
3730.000000	65.107131 
3729.000000	65.106320 
3728.000000	65.109562 
3727.000000	65.115737 
3726.000000	65.123796 
3725.000000	65.133428 
3724.000000	65.144324 
3723.000000	65.156435 
3722.000000	65.169525 
3721.000000	65.183115 
3720.000000	65.196180 
3719.000000	65.207600 
3718.000000	65.216040 
3717.000000	65.220403 
3716.000000	65.220379 
3715.000000	65.216183 
3714.000000	65.208601 
3713.000000	65.198945 
3712.000000	65.188694 
3711.000000	65.178894 
3710.000000	65.170049 
3709.000000	65.161728 
3708.000000	65.153050 
3707.000000	65.142679 
3706.000000	65.129566 
3705.000000	65.113329 
3704.000000	65.094494 
3703.000000	65.074205 
3702.000000	65.054392 
3701.000000	65.036964 
3700.000000	65.023922 
3699.000000	65.016460 
3698.000000	65.015125 
3697.000000	65.019607 
3696.000000	65.029048 
3695.000000	65.041804 
3694.000000	65.056419 
3693.000000	65.071511 
3692.000000	65.086483 
3691.000000	65.101313 
3690.000000	65.116977 
3689.000000	65.134668 
3688.000000	65.155673 
3687.000000	65.180563 
3686.000000	65.209031 
3685.000000	65.239405 
3684.000000	65.268898 
3683.000000	65.293812 
3682.000000	65.310454 
3681.000000	65.315747 
3680.000000	65.308022 
3679.000000	65.287184 
3678.000000	65.255045 
3677.000000	65.214943 
3676.000000	65.170884 
3675.000000	65.127158 
3674.000000	65.087628 
3673.000000	65.055465 
3672.000000	65.032935 
3671.000000	65.021657 
3670.000000	65.022397 
3669.000000	65.035152 
3668.000000	65.059089 
3667.000000	65.092372 
3666.000000	65.131974 
3665.000000	65.174293 
3664.000000	65.215158 
3663.000000	65.250587 
3662.000000	65.277194 
3661.000000	65.292978 
3660.000000	65.297627 
3659.000000	65.292358 
3658.000000	65.279722 
3657.000000	65.262699 
3656.000000	65.244364 
3655.000000	65.227222 
3654.000000	65.212845 
3653.000000	65.202212 
3652.000000	65.195727 
3651.000000	65.193724 
3650.000000	65.196347 
3649.000000	65.203619 
3648.000000	65.215206 
3647.000000	65.230345 
3646.000000	65.247964 
3645.000000	65.266132 
3644.000000	65.282917 
3643.000000	65.296530 
3642.000000	65.305685 
3641.000000	65.309834 
3640.000000	65.309286 
3639.000000	65.304875 
3638.000000	65.297937 
3637.000000	65.289902 
3636.000000	65.281939 
3635.000000	65.274810 
3634.000000	65.268874 
3633.000000	65.264296 
3632.000000	65.261054 
3631.000000	65.258932 
3630.000000	65.257620 
3629.000000	65.256810 
3628.000000	65.255951 
3627.000000	65.254664 
3626.000000	65.252709 
3625.000000	65.250325 
3624.000000	65.248298 
3623.000000	65.247964 
3622.000000	65.250968 
3621.000000	65.258646 
3620.000000	65.271687 
3619.000000	65.289258 
3618.000000	65.309119 
3617.000000	65.327501 
3616.000000	65.340018 
3615.000000	65.342497 
3614.000000	65.332078 
3613.000000	65.307879 
3612.000000	65.271759 
3611.000000	65.227794 
3610.000000	65.181612 
3609.000000	65.139269 
3608.000000	65.105986 
3607.000000	65.085148 
3606.000000	65.077853 
3605.000000	65.083074 
3604.000000	65.098166 
3603.000000	65.119481 
3602.000000	65.143442 
3601.000000	65.166807 
3600.000000	65.187168 
3599.000000	65.202903 
3598.000000	65.213012 
3597.000000	65.216636 
3596.000000	65.213584 
3595.000000	65.204024 
3594.000000	65.189266 
3593.000000	65.171432 
3592.000000	65.153765 
3591.000000	65.140271 
3590.000000	65.134739 
3589.000000	65.140199 
3588.000000	65.158009 
3587.000000	65.187311 
3586.000000	65.225172 
3585.000000	65.266942 
3584.000000	65.307402 
3583.000000	65.341734 
3582.000000	65.366601 
3581.000000	65.380740 
3580.000000	65.384793 
3579.000000	65.380620 
3578.000000	65.370941 
3577.000000	65.358352 
3576.000000	65.344524 
3575.000000	65.329790 
3574.000000	65.313792 
3573.000000	65.295529 
3572.000000	65.274024 
3571.000000	65.248560 
3570.000000	65.219163 
3569.000000	65.186500 
3568.000000	65.151858 
3567.000000	65.117025 
3566.000000	65.083360 
3565.000000	65.052103 
3564.000000	65.023875 
3563.000000	64.999127 
3562.000000	64.977979 
3561.000000	64.960575 
3560.000000	64.947152 
3559.000000	64.938211 
3558.000000	64.934134 
3557.000000	64.935421 
3556.000000	64.942145 
3555.000000	64.954233 
3554.000000	64.970850 
3553.000000	64.991402 
3552.000000	65.015411 
3551.000000	65.042686 
3550.000000	65.073084 
3549.000000	65.106558 
3548.000000	65.142798 
3547.000000	65.181088 
3546.000000	65.219807 
3545.000000	65.256524 
3544.000000	65.288400 
3543.000000	65.312671 
3542.000000	65.327024 
3541.000000	65.330338 
3540.000000	65.322828 
3539.000000	65.306544 
3538.000000	65.284633 
3537.000000	65.261149 
3536.000000	65.240120 
3535.000000	65.225505 
3534.000000	65.219354 
3533.000000	65.222120 
3532.000000	65.231966 
3531.000000	65.245819 
3530.000000	65.259385 
3529.000000	65.268421 
3528.000000	65.269541 
3527.000000	65.261125 
3526.000000	65.243673 
3525.000000	65.219879 
3524.000000	65.194034 
3523.000000	65.170884 
3522.000000	65.154743 
3521.000000	65.148305 
3520.000000	65.151906 
3519.000000	65.163373 
3518.000000	65.178632 
3517.000000	65.192937 
3516.000000	65.201258 
3515.000000	65.200495 
3514.000000	65.189719 
3513.000000	65.171003 
3512.000000	65.148448 
3511.000000	65.127730 
3510.000000	65.114188 
3509.000000	65.111994 
3508.000000	65.123105 
3507.000000	65.146493 
3506.000000	65.178442 
3505.000000	65.213513 
3504.000000	65.245890 
3503.000000	65.270709 
3502.000000	65.284872 
3501.000000	65.287733 
3500.000000	65.281128 
3499.000000	65.268611 
3498.000000	65.254354 
3497.000000	65.242314 
3496.000000	65.234899 
3495.000000	65.232801 
3494.000000	65.234613 
3493.000000	65.237689 
3492.000000	65.238809 
3491.000000	65.235114 
3490.000000	65.224909 
3489.000000	65.208029 
3488.000000	65.186095 
3487.000000	65.162134 
3486.000000	65.140128 
3485.000000	65.123844 
3484.000000	65.116500 
3483.000000	65.120100 
3482.000000	65.135097 
3481.000000	65.160584 
3480.000000	65.194058 
3479.000000	65.232133 
3478.000000	65.271019 
3477.000000	65.306949 
3476.000000	65.336847 
3475.000000	65.358567 
3474.000000	65.371203 
3473.000000	65.375018 
3472.000000	65.371537 
3471.000000	65.362882 
3470.000000	65.351533 
3469.000000	65.339660 
3468.000000	65.328812 
3467.000000	65.319490 
3466.000000	65.311384 
3465.000000	65.303659 
3464.000000	65.295028 
3463.000000	65.284371 
3462.000000	65.271115 
3461.000000	65.255284 
3460.000000	65.238094 
3459.000000	65.221405 
3458.000000	65.207052 
3457.000000	65.196681 
3456.000000	65.191292 
3455.000000	65.191316 
3454.000000	65.195989 
3453.000000	65.204238 
3452.000000	65.214705 
3451.000000	65.226316 
3450.000000	65.238475 
3449.000000	65.251159 
3448.000000	65.264487 
3447.000000	65.278673 
3446.000000	65.293717 
3445.000000	65.309286 
3444.000000	65.324568 
3443.000000	65.338563 
3442.000000	65.350222 
3441.000000	65.358710 
3440.000000	65.363311 
3439.000000	65.363693 
3438.000000	65.359282 
3437.000000	65.349316 
3436.000000	65.332484 
3435.000000	65.307259 
3434.000000	65.272307 
3433.000000	65.227293 
3432.000000	65.173196 
3431.000000	65.112566 
3430.000000	65.049457 
3429.000000	64.988660 
3428.000000	64.935421 
3427.000000	64.893913 
3426.000000	64.867687 
3425.000000	64.858484 
3424.000000	64.866852 
3423.000000	64.891886 
3422.000000	64.931774 
3421.000000	64.983820 
3420.000000	65.044522 
3419.000000	65.109586 
3418.000000	65.174126 
3417.000000	65.232896 
3416.000000	65.280938 
3415.000000	65.314173 
3414.000000	65.330100 
3413.000000	65.328097 
3412.000000	65.309929 
3411.000000	65.279030 
3410.000000	65.239882 
3409.000000	65.196704 
3408.000000	65.153312 
3407.000000	65.112113 
3406.000000	65.074229 
3405.000000	65.040040 
3404.000000	65.009832 
3403.000000	64.984393 
3402.000000	64.965200 
3401.000000	64.954042 
3400.000000	64.952659 
3399.000000	64.961886 
3398.000000	64.980459 
3397.000000	65.005469 
3396.000000	65.032148 
3395.000000	65.055227 
3394.000000	65.069913 
3393.000000	65.073394 
3392.000000	65.065526 
3391.000000	65.049099 
3390.000000	65.028929 
3389.000000	65.010595 
3388.000000	64.998841 
3387.000000	64.996528 
3386.000000	65.004110 
3385.000000	65.019488 
3384.000000	65.038824 
3383.000000	65.058231 
3382.000000	65.074658 
3381.000000	65.086770 
3380.000000	65.095114 
3379.000000	65.101146 
3378.000000	65.106821 
3377.000000	65.113472 
3376.000000	65.121364 
3375.000000	65.129065 
3374.000000	65.134310 
3373.000000	65.135049 
3372.000000	65.129899 
3371.000000	65.118813 
3370.000000	65.103197 
3369.000000	65.085887 
3368.000000	65.070199 
3367.000000	65.059018 
3366.000000	65.054178 
3365.000000	65.055799 
3364.000000	65.062522 
3363.000000	65.071892 
3362.000000	65.080881 
3361.000000	65.086555 
3360.000000	65.086531 
3359.000000	65.079641 
3358.000000	65.065526 
3357.000000	65.045070 
3356.000000	65.020036 
3355.000000	64.993095 
3354.000000	64.967322 
3353.000000	64.946103 
3352.000000	64.932394 
3351.000000	64.928865 
3350.000000	64.936900 
3349.000000	64.957070 
3348.000000	64.988756 
3347.000000	65.030479 
3346.000000	65.079927 
3345.000000	65.134215 
3344.000000	65.190124 
3343.000000	65.244555 
3342.000000	65.294480 
3341.000000	65.337324 
3340.000000	65.371203 
3339.000000	65.394902 
3338.000000	65.408086 
3337.000000	65.411138 
3336.000000	65.405154 
3335.000000	65.391707 
3334.000000	65.372800 
3333.000000	65.350246 
3332.000000	65.325713 
3331.000000	65.300655 
3330.000000	65.276288 
3329.000000	65.253877 
3328.000000	65.234518 
3327.000000	65.219545 
3326.000000	65.210127 
3325.000000	65.206837 
3324.000000	65.209650 
3323.000000	65.217542 
3322.000000	65.228748 
3321.000000	65.240836 
3320.000000	65.251255 
3319.000000	65.257978 
3318.000000	65.259814 
3317.000000	65.256595 
3316.000000	65.249061 
3315.000000	65.238451 
3314.000000	65.226173 
3313.000000	65.213346 
3312.000000	65.200448 
3311.000000	65.187168 
3310.000000	65.172815 
3309.000000	65.156841 
3308.000000	65.139293 
3307.000000	65.120911 
3306.000000	65.103292 
3305.000000	65.088796 
3304.000000	65.079760 
3303.000000	65.077972 
3302.000000	65.083932 
3301.000000	65.096855 
3300.000000	65.114688 
3299.000000	65.134668 
3298.000000	65.153551 
3297.000000	65.168952 
3296.000000	65.179562 
3295.000000	65.185523 
3294.000000	65.188145 
3293.000000	65.189409 
3292.000000	65.191364 
3291.000000	65.195584 
3290.000000	65.202283 
3289.000000	65.210652 
3288.000000	65.218901 
3287.000000	65.224790 
3286.000000	65.226411 
3285.000000	65.222573 
3284.000000	65.213298 
3283.000000	65.199613 
3282.000000	65.183353 
3281.000000	65.166568 
3280.000000	65.151143 
3279.000000	65.138220 
3278.000000	65.128207 
3277.000000	65.120887 
3276.000000	65.115809 
3275.000000	65.112495 
3274.000000	65.110945 
3273.000000	65.111446 
3272.000000	65.114927 
3271.000000	65.122294 
3270.000000	65.134263 
3269.000000	65.150928 
3268.000000	65.171718 
3267.000000	65.195274 
3266.000000	65.219879 
3265.000000	65.243530 
3264.000000	65.264439 
3263.000000	65.281558 
3262.000000	65.294504 
3261.000000	65.303468 
3260.000000	65.309023 
3259.000000	65.311884 
3258.000000	65.312719 
3257.000000	65.311884 
3256.000000	65.309476 
3255.000000	65.305614 
3254.000000	65.300440 
3253.000000	65.294361 
3252.000000	65.288019 
3251.000000	65.282154 
3250.000000	65.277433 
3249.000000	65.274190 
3248.000000	65.271902 
3247.000000	65.269589 
3246.000000	65.265965 
3245.000000	65.259885 
3244.000000	65.251016 
3243.000000	65.239953 
3242.000000	65.228486 
3241.000000	65.218663 
3240.000000	65.212583 
3239.000000	65.211224 
3238.000000	65.214085 
3237.000000	65.218997 
3236.000000	65.222811 
3235.000000	65.221977 
3234.000000	65.213584 
3233.000000	65.196180 
3232.000000	65.170359 
3231.000000	65.138483 
3230.000000	65.104150 
3229.000000	65.071296 
3228.000000	65.043115 
3227.000000	65.021610 
3226.000000	65.007185 
3225.000000	64.998936 
3224.000000	64.995408 
3223.000000	64.995288 
3222.000000	64.997839 
3221.000000	65.002965 
3220.000000	65.011119 
3219.000000	65.022802 
3218.000000	65.038156 
3217.000000	65.056681 
3216.000000	65.077161 
3215.000000	65.097689 
3214.000000	65.116000 
3213.000000	65.129947 
3212.000000	65.137600 
3211.000000	65.137910 
3210.000000	65.130805 
3209.000000	65.117120 
3208.000000	65.098667 
3207.000000	65.077781 
3206.000000	65.056848 
3205.000000	65.037918 
3204.000000	65.022444 
3203.000000	65.011262 
3202.000000	65.004396 
3201.000000	65.001463 
3200.000000	65.001988 
3199.000000	65.005588 
3198.000000	65.011930 
3197.000000	65.021014 
3196.000000	65.032863 
3195.000000	65.047478 
3194.000000	65.064311 
3193.000000	65.082406 
3192.000000	65.100431 
3191.000000	65.116953 
3190.000000	65.130972 
3189.000000	65.142011 
3188.000000	65.150427 
3187.000000	65.156722 
3186.000000	65.161442 
3185.000000	65.164494 
3184.000000	65.165162 
3183.000000	65.162014 
3182.000000	65.153479 
3181.000000	65.138411 
3180.000000	65.117001 
3179.000000	65.090918 
3178.000000	65.063118 
3177.000000	65.037798 
3176.000000	65.019583 
3175.000000	65.012168 
3174.000000	65.017509 
3173.000000	65.035581 
3172.000000	65.064120 
3171.000000	65.099000 
3170.000000	65.135192 
3169.000000	65.167427 
3168.000000	65.191411 
3167.000000	65.204620 
3166.000000	65.206599 
3165.000000	65.198540 
3164.000000	65.182971 
3163.000000	65.163350 
3162.000000	65.143156 
3161.000000	65.125107 
3160.000000	65.110993 
3159.000000	65.101742 
3158.000000	65.097093 
3157.000000	65.096235 
3156.000000	65.098142 
3155.000000	65.102219 
3154.000000	65.108799 
3153.000000	65.118765 
3152.000000	65.134096 
3151.000000	65.156745 
3150.000000	65.188741 
3149.000000	65.230965 
3148.000000	65.282988 
3147.000000	65.342450 
3146.000000	65.405273 
3145.000000	65.465974 
3144.000000	65.518188 
3143.000000	65.555691 
3142.000000	65.573644 
3141.000000	65.569353 
3140.000000	65.543317 
3139.000000	65.498709 
3138.000000	65.441250 
3137.000000	65.377616 
3136.000000	65.314483 
3135.000000	65.256953 
3134.000000	65.207958 
3133.000000	65.168070 
3132.000000	65.135812 
3131.000000	65.108966 
3130.000000	65.085577 
3129.000000	65.065121 
3128.000000	65.048265 
3127.000000	65.037345 
3126.000000	65.034723 
3125.000000	65.042591 
3124.000000	65.061187 
3123.000000	65.089106 
3122.000000	65.122795 
3121.000000	65.158200 
3120.000000	65.191459 
3119.000000	65.219926 
3118.000000	65.242671 
3117.000000	65.260362 
3116.000000	65.274405 
3115.000000	65.285992 
3114.000000	65.294981 
3113.000000	65.299916 
3112.000000	65.298295 
3111.000000	65.287208 
3110.000000	65.265059 
3109.000000	65.232372 
3108.000000	65.192580 
3107.000000	65.151739 
3106.000000	65.117383 
3105.000000	65.096592 
3104.000000	65.094518 
3103.000000	65.113091 
3102.000000	65.150356 
3101.000000	65.200734 
3100.000000	65.256476 
3099.000000	65.309524 
3098.000000	65.352940 
3097.000000	65.382289 
3096.000000	65.396094 
3095.000000	65.395569 
3094.000000	65.383934 
3093.000000	65.365290 
3092.000000	65.343475 
3091.000000	65.321254 
3090.000000	65.300297 
3089.000000	65.281319 
3088.000000	65.264368 
3087.000000	65.249204 
3086.000000	65.235900 
3085.000000	65.224599 
3084.000000	65.215516 
3083.000000	65.208673 
3082.000000	65.203714 
3081.000000	65.200066 
3080.000000	65.196657 
3079.000000	65.192699 
3078.000000	65.187764 
3077.000000	65.182375 
3076.000000	65.177583 
3075.000000	65.175175 
3074.000000	65.176939 
3073.000000	65.184116 
3072.000000	65.197014 
3071.000000	65.214419 
3070.000000	65.233731 
3069.000000	65.251231 
3068.000000	65.263009 
3067.000000	65.265798 
3066.000000	65.257930 
3065.000000	65.239810 
3064.000000	65.213918 
3063.000000	65.184330 
3062.000000	65.155792 
3061.000000	65.132927 
3060.000000	65.119004 
3059.000000	65.115332 
3058.000000	65.120649 
3057.000000	65.132069 
3056.000000	65.145373 
3055.000000	65.156173 
3054.000000	65.160655 
3053.000000	65.156507 
3052.000000	65.143251 
3051.000000	65.121817 
3050.000000	65.094614 
3049.000000	65.064477 
3048.000000	65.034413 
3047.000000	65.007066 
3046.000000	64.984464 
3045.000000	64.967846 
3044.000000	64.957904 
3043.000000	64.954829 
3042.000000	64.958572 
3041.000000	64.968895 
3040.000000	64.985466 
3039.000000	65.007829 
3038.000000	65.035343 
3037.000000	65.066957 
3036.000000	65.101051 
3035.000000	65.135669 
3034.000000	65.168547 
3033.000000	65.197396 
3032.000000	65.220189 
3031.000000	65.235424 
3030.000000	65.242695 
3029.000000	65.242433 
3028.000000	65.236043 
3027.000000	65.225386 
3026.000000	65.212702 
3025.000000	65.199875 
3024.000000	65.188407 
3023.000000	65.179181 
3022.000000	65.172433 
3021.000000	65.167927 
3020.000000	65.165448 
3019.000000	65.164780 
3018.000000	65.166068 
3017.000000	65.169572 
3016.000000	65.175461 
3015.000000	65.183830 
3014.000000	65.194392 
3013.000000	65.206837 
3012.000000	65.220785 
3011.000000	65.235805 
3010.000000	65.251445 
3009.000000	65.267539 
3008.000000	65.283679 
3007.000000	65.299177 
3006.000000	65.312886 
3005.000000	65.323424 
3004.000000	65.329480 
3003.000000	65.329885 
3002.000000	65.324044 
3001.000000	65.312480 
3000.000000	65.296554 
2999.000000	65.278410 
2998.000000	65.260386 
2997.000000	65.244626 
2996.000000	65.232515 
2995.000000	65.224385 
2994.000000	65.219736 
2993.000000	65.217661 
2992.000000	65.217113 
2991.000000	65.217494 
2990.000000	65.218567 
2989.000000	65.220570 
2988.000000	65.223646 
2987.000000	65.227627 
2986.000000	65.231776 
2985.000000	65.234684 
2984.000000	65.234470 
2983.000000	65.229201 
2982.000000	65.217494 
2981.000000	65.198850 
2980.000000	65.174150 
2979.000000	65.145254 
2978.000000	65.114903 
2977.000000	65.086150 
2976.000000	65.061688 
2975.000000	65.043187 
2974.000000	65.031147 
2973.000000	65.024685 
2972.000000	65.021896 
2971.000000	65.020275 
2970.000000	65.017271 
2969.000000	65.010905 
2968.000000	65.000057 
2967.000000	64.984679 
2966.000000	64.965653 
2965.000000	64.944672 
2964.000000	64.923810 
2963.000000	64.905142 
2962.000000	64.890241 
2961.000000	64.880013 
2960.000000	64.874577 
2959.000000	64.873480 
2958.000000	64.875888 
2957.000000	64.880824 
2956.000000	64.887332 
2955.000000	64.894747 
2954.000000	64.902901 
2953.000000	64.911866 
2952.000000	64.921951 
2951.000000	64.933538 
2950.000000	64.946889 
2949.000000	64.961981 
2948.000000	64.978289 
2947.000000	64.994883 
2946.000000	65.010356 
2945.000000	65.023350 
2944.000000	65.032792 
2943.000000	65.037798 
2942.000000	65.038132 
2941.000000	65.034627 
2940.000000	65.028595 
2939.000000	65.021753 
2938.000000	65.015673 
2937.000000	65.011882 
2936.000000	65.010786 
2935.000000	65.011858 
2934.000000	65.013599 
2933.000000	65.014004 
2932.000000	65.010833 
2931.000000	65.002131 
2930.000000	64.986729 
2929.000000	64.964580 
2928.000000	64.936184 
2927.000000	64.902782 
2926.000000	64.866018 
2925.000000	64.827775 
2924.000000	64.790081 
2923.000000	64.755296 
2922.000000	64.725708 
2921.000000	64.703774 
2920.000000	64.691519 
2919.000000	64.690446 
2918.000000	64.700722 
2917.000000	64.721488 
2916.000000	64.750456 
2915.000000	64.784860 
2914.000000	64.821028 
2913.000000	64.855909 
2912.000000	64.887189 
2911.000000	64.913702 
2910.000000	64.935493 
2909.000000	64.953470 
2908.000000	64.969086 
2907.000000	64.983749 
2906.000000	64.998459 
2905.000000	65.013551 
2904.000000	65.028786 
2903.000000	65.043711 
2902.000000	65.058016 
2901.000000	65.071558 
2900.000000	65.084576 
2899.000000	65.097689 
2898.000000	65.111494 
2897.000000	65.126061 
2896.000000	65.140914 
2895.000000	65.155124 
2894.000000	65.167498 
2893.000000	65.176677 
2892.000000	65.181517 
2891.000000	65.182018 
2890.000000	65.178585 
2889.000000	65.172266 
2888.000000	65.164208 
2887.000000	65.155339 
2886.000000	65.146183 
2885.000000	65.136623 
2884.000000	65.126252 
2883.000000	65.114617 
2882.000000	65.101504 
2881.000000	65.087556 
2880.000000	65.073895 
2879.000000	65.061998 
2878.000000	65.053558 
2877.000000	65.050029 
2876.000000	65.051984 
2875.000000	65.059018 
2874.000000	65.070080 
2873.000000	65.083789 
2872.000000	65.098714 
2871.000000	65.113854 
2870.000000	65.129113 
2869.000000	65.145373 
2868.000000	65.163898 
2867.000000	65.185904 
2866.000000	65.211915 
2865.000000	65.241265 
2864.000000	65.272188 
2863.000000	65.301752 
2862.000000	65.327024 
2861.000000	65.345382 
2860.000000	65.355467 
2859.000000	65.357255 
2858.000000	65.352249 
2857.000000	65.342926 
2856.000000	65.332341 
2855.000000	65.322852 
2854.000000	65.315866 
2853.000000	65.311336 
2852.000000	65.308117 
2851.000000	65.304040 
2850.000000	65.296506 
2849.000000	65.283322 
2848.000000	65.263223 
2847.000000	65.236091 
2846.000000	65.202999 
2845.000000	65.166091 
2844.000000	65.128278 
2843.000000	65.092968 
2842.000000	65.063500 
2841.000000	65.042543 
2840.000000	65.031552 
2839.000000	65.030598 
2838.000000	65.038204 
2837.000000	65.051174 
2836.000000	65.065932 
2835.000000	65.078783 
2834.000000	65.087175 
2833.000000	65.089821 
2832.000000	65.087485 
2831.000000	65.082311 
2830.000000	65.077447 
2829.000000	65.076017 
2828.000000	65.080356 
2827.000000	65.091395 
2826.000000	65.108680 
2825.000000	65.130376 
2824.000000	65.153956 
2823.000000	65.176749 
2822.000000	65.196776 
2821.000000	65.212965 
2820.000000	65.225052 
2819.000000	65.233230 
2818.000000	65.237760 
2817.000000	65.238833 
2816.000000	65.236449 
2815.000000	65.230226 
2814.000000	65.220284 
2813.000000	65.207004 
2812.000000	65.191388 
2811.000000	65.174674 
2810.000000	65.158629 
2809.000000	65.144872 
2808.000000	65.134835 
2807.000000	65.129184 
2806.000000	65.127968 
2805.000000	65.130448 
2804.000000	65.135312 
2803.000000	65.140867 
2802.000000	65.145611 
2801.000000	65.148425 
2800.000000	65.148925 
2799.000000	65.147566 
2798.000000	65.145516 
2797.000000	65.144395 
2796.000000	65.145921 
2795.000000	65.151524 
2794.000000	65.161895 
2793.000000	65.177011 
2792.000000	65.195965 
2791.000000	65.217232 
2790.000000	65.238761 
2789.000000	65.258789 
2788.000000	65.275955 
2787.000000	65.289545 
2786.000000	65.299391 
2785.000000	65.305852 
2784.000000	65.309476 
2783.000000	65.310788 
2782.000000	65.310430 
2781.000000	65.309000 
2780.000000	65.307259 
2779.000000	65.306091 
2778.000000	65.306448 
2777.000000	65.309023 
2776.000000	65.314102 
2775.000000	65.321516 
2774.000000	65.330648 
2773.000000	65.340375 
2772.000000	65.349388 
2771.000000	65.356469 
2770.000000	65.360736 
2769.000000	65.361952 
2768.000000	65.360403 
2767.000000	65.356707 
2766.000000	65.351700 
2765.000000	65.346074 
2764.000000	65.340447 
2763.000000	65.335130 
2762.000000	65.330338 
2761.000000	65.326333 
2760.000000	65.323281 
2759.000000	65.321278 
2758.000000	65.320348 
2757.000000	65.320396 
2756.000000	65.320634 
2755.000000	65.320444 
2754.000000	65.319132 
2753.000000	65.316605 
2752.000000	65.313076 
2751.000000	65.309524 
2750.000000	65.307068 
2749.000000	65.306711 
2748.000000	65.309190 
2747.000000	65.314269 
2746.000000	65.320634 
2745.000000	65.326428 
2744.000000	65.329670 
2743.000000	65.328931 
2742.000000	65.323901 
2741.000000	65.315723 
2740.000000	65.306615 
2739.000000	65.299558 
2738.000000	65.297126 
2737.000000	65.300989 
2736.000000	65.311098 
2735.000000	65.325975 
2734.000000	65.342783 
2733.000000	65.358376 
2732.000000	65.369915 
2731.000000	65.375757 
2730.000000	65.375494 
2729.000000	65.370154 
2728.000000	65.361666 
2727.000000	65.352296 
2726.000000	65.344119 
2725.000000	65.338468 
2724.000000	65.336012 
2723.000000	65.336847 
2722.000000	65.340638 
2721.000000	65.347027 
2720.000000	65.355539 
2719.000000	65.365695 
2718.000000	65.376710 
2717.000000	65.387392 
2716.000000	65.396142 
2715.000000	65.401244 
2714.000000	65.401029 
2713.000000	65.394473 
2712.000000	65.381312 
2711.000000	65.362262 
2710.000000	65.339088 
2709.000000	65.314149 
2708.000000	65.290093 
2707.000000	65.269041 
2706.000000	65.252614 
2705.000000	65.241432 
2704.000000	65.235257 
2703.000000	65.232920 
2702.000000	65.232825 
2701.000000	65.233397 
2700.000000	65.233397 
2699.000000	65.232157 
2698.000000	65.229463 
2697.000000	65.225720 
2696.000000	65.221762 
2695.000000	65.218496 
2694.000000	65.216660 
2693.000000	65.216326 
2692.000000	65.217113 
2691.000000	65.217995 
2690.000000	65.217638 
2689.000000	65.214824 
2688.000000	65.208721 
2687.000000	65.199375 
2686.000000	65.187954 
2685.000000	65.176415 
2684.000000	65.167331 
2683.000000	65.163254 
2682.000000	65.166068 
2681.000000	65.176510 
2680.000000	65.193819 
2679.000000	65.215969 
2678.000000	65.239906 
2677.000000	65.262413 
2676.000000	65.280675 
2675.000000	65.292930 
2674.000000	65.298676 
2673.000000	65.298604 
2672.000000	65.294027 
2671.000000	65.286803 
2670.000000	65.278291 
2669.000000	65.269231 
2668.000000	65.259742 
2667.000000	65.249490 
2666.000000	65.238189 
2665.000000	65.225791 
2664.000000	65.213012 
2663.000000	65.201282 
2662.000000	65.192341 
2661.000000	65.187811 
2660.000000	65.188741 
2659.000000	65.195274 
2658.000000	65.206599 
2657.000000	65.221071 
2656.000000	65.236639 
2655.000000	65.251350 
2654.000000	65.263462 
2653.000000	65.271639 
2652.000000	65.275311 
2651.000000	65.274357 
2650.000000	65.269231 
2649.000000	65.260720 
2648.000000	65.250015 
2647.000000	65.238642 
2646.000000	65.228486 
2645.000000	65.221619 
2644.000000	65.219974 
2643.000000	65.224957 
2642.000000	65.237045 
2641.000000	65.255475 
2640.000000	65.278363 
2639.000000	65.302777 
2638.000000	65.325379 
2637.000000	65.342998 
2636.000000	65.353274 
2635.000000	65.354990 
2634.000000	65.348267 
2633.000000	65.334486 
2632.000000	65.316128 
2631.000000	65.296435 
2630.000000	65.278887 
2629.000000	65.266776 
2628.000000	65.262246 
2627.000000	65.266346 
2626.000000	65.278482 
2625.000000	65.296435 
2624.000000	65.316772 
2623.000000	65.335655 
2622.000000	65.349483 
2621.000000	65.355801 
2620.000000	65.353679 
2619.000000	65.344166 
2618.000000	65.329766 
2617.000000	65.314006 
2616.000000	65.300226 
2615.000000	65.290760 
2614.000000	65.286207 
2613.000000	65.285658 
2612.000000	65.286874 
2611.000000	65.287065 
2610.000000	65.283966 
2609.000000	65.276575 
2608.000000	65.264987 
2607.000000	65.250539 
2606.000000	65.234994 
2605.000000	65.219879 
2604.000000	65.206027 
2603.000000	65.193510 
2602.000000	65.181565 
2601.000000	65.169143 
2600.000000	65.155601 
2599.000000	65.141105 
2598.000000	65.126705 
2597.000000	65.114402 
2596.000000	65.106487 
2595.000000	65.105080 
2594.000000	65.111207 
2593.000000	65.124869 
2592.000000	65.144658 
2591.000000	65.168356 
2590.000000	65.193223 
2589.000000	65.216779 
2588.000000	65.237236 
2587.000000	65.253996 
2586.000000	65.267395 
2585.000000	65.278697 
2584.000000	65.289473 
2583.000000	65.301275 
2582.000000	65.315127 
2581.000000	65.331006 
2580.000000	65.347909 
2579.000000	65.363955 
2578.000000	65.376877 
2577.000000	65.384364 
2576.000000	65.384817 
2575.000000	65.377640 
2574.000000	65.363287 
2573.000000	65.343356 
2572.000000	65.320086 
2571.000000	65.296077 
2570.000000	65.273714 
2569.000000	65.254807 
2568.000000	65.240406 
2567.000000	65.230703 
2566.000000	65.225243 
2565.000000	65.223073 
2564.000000	65.223264 
2563.000000	65.224862 
2562.000000	65.227341 
2561.000000	65.230631 
2560.000000	65.234994 
2559.000000	65.240669 
2558.000000	65.247941 
2557.000000	65.256714 
2556.000000	65.266776 
2555.000000	65.277552 
2554.000000	65.288209 
2553.000000	65.297794 
2552.000000	65.305495 
2551.000000	65.310764 
2550.000000	65.313172 
2549.000000	65.312576 
2548.000000	65.308952 
2547.000000	65.302324 
2546.000000	65.293049 
2545.000000	65.281772 
2544.000000	65.269231 
2543.000000	65.256667 
2542.000000	65.245509 
2541.000000	65.237212 
2540.000000	65.233016 
2539.000000	65.233659 
2538.000000	65.239000 
2537.000000	65.247964 
2536.000000	65.258407 
2535.000000	65.267801 
2534.000000	65.273857 
2533.000000	65.274953 
2532.000000	65.270471 
2531.000000	65.261411 
2530.000000	65.250110 
2529.000000	65.239834 
2528.000000	65.234041 
2527.000000	65.235495 
2526.000000	65.245556 
2525.000000	65.263724 
2524.000000	65.287923 
2523.000000	65.314602 
2522.000000	65.339612 
2521.000000	65.359044 
2520.000000	65.370130 
2519.000000	65.371823 
2518.000000	65.364694 
2517.000000	65.351033 
2516.000000	65.333867 
2515.000000	65.316700 
2514.000000	65.301847 
2513.000000	65.290784 
2512.000000	65.282869 
2511.000000	65.275931 
2510.000000	65.266489 
2509.000000	65.250825 
2508.000000	65.226149 
2507.000000	65.191245 
2506.000000	65.147686 
2505.000000	65.099263 
2504.000000	65.052199 
2503.000000	65.013504 
2502.000000	64.989924 
2501.000000	64.986157 
2500.000000	65.004110 
2499.000000	65.042161 
2498.000000	65.095448 
2497.000000	65.156841 
2496.000000	65.218305 
2495.000000	65.272569 
2494.000000	65.314221 
2493.000000	65.340638 
2492.000000	65.351819 
2491.000000	65.350174 
2490.000000	65.339446 
2489.000000	65.323662 
2488.000000	65.306568 
2487.000000	65.290784 
2486.000000	65.278148 
2485.000000	65.269374 
2484.000000	65.264725 
2483.000000	65.264058 
2482.000000	65.267395 
2481.000000	65.274667 
2480.000000	65.285801 
2479.000000	65.300369 
2478.000000	65.317392 
2477.000000	65.335369 
2476.000000	65.352177 
2475.000000	65.365505 
2474.000000	65.373277 
2473.000000	65.374016 
2472.000000	65.367174 
2471.000000	65.353369 
2470.000000	65.334486 
2469.000000	65.313196 
2468.000000	65.292406 
2467.000000	65.274882 
2466.000000	65.262722 
2465.000000	65.257143 
2464.000000	65.258359 
2463.000000	65.265464 
2462.000000	65.276789 
2461.000000	65.290498 
2460.000000	65.304708 
2459.000000	65.317749 
2458.000000	65.328550 
2457.000000	65.336441 
2456.000000	65.341281 
2455.000000	65.343165 
2454.000000	65.342259 
2453.000000	65.338993 
2452.000000	65.333890 
2451.000000	65.327310 
2450.000000	65.319871 
2449.000000	65.312504 
2448.000000	65.306329 
2447.000000	65.302610 
2446.000000	65.302681 
2445.000000	65.307593 
2444.000000	65.318250 
2443.000000	65.334987 
2442.000000	65.357589 
2441.000000	65.385174 
2440.000000	65.416479 
2439.000000	65.449690 
2438.000000	65.482807 
2437.000000	65.513420 
2436.000000	65.539312 
2435.000000	65.558362 
2434.000000	65.569019 
2433.000000	65.569901 
2432.000000	65.560626 
2431.000000	65.540981 
2430.000000	65.511965 
2429.000000	65.474438 
2428.000000	65.430068 
2427.000000	65.380167 
2426.000000	65.326309 
2425.000000	65.270066 
2424.000000	65.212988 
2423.000000	65.157270 
2422.000000	65.105724 
2421.000000	65.061974 
2420.000000	65.029907 
2419.000000	65.013337 
2418.000000	65.015077 
2417.000000	65.036368 
2416.000000	65.076160 
2415.000000	65.131187 
2414.000000	65.196418 
2413.000000	65.265488 
2412.000000	65.331840 
2411.000000	65.389466 
2410.000000	65.433883 
2409.000000	65.462613 
2408.000000	65.474891 
2407.000000	65.472054 
2406.000000	65.456414 
2405.000000	65.431356 
2404.000000	65.400004 
2403.000000	65.365648 
2402.000000	65.330672 
2401.000000	65.297389 
2400.000000	65.267276 
2399.000000	65.241551 
2398.000000	65.221118 
2397.000000	65.206670 
2396.000000	65.198779 
2395.000000	65.197348 
2394.000000	65.202045 
2393.000000	65.211844 
2392.000000	65.225172 
2391.000000	65.239715 
2390.000000	65.253138 
2389.000000	65.263438 
2388.000000	65.269279 
2387.000000	65.270423 
2386.000000	65.267801 
2385.000000	65.263414 
2384.000000	65.260052 
2383.000000	65.260386 
2382.000000	65.266346 
2381.000000	65.278339 
2380.000000	65.295481 
2379.000000	65.315532 
2378.000000	65.335321 
2377.000000	65.351510 
2376.000000	65.361595 
2375.000000	65.364193 
2374.000000	65.359592 
2373.000000	65.349221 
2372.000000	65.335154 
2371.000000	65.319633 
2370.000000	65.304470 
2369.000000	65.291023 
2368.000000	65.279746 
2367.000000	65.270805 
2366.000000	65.264415 
2365.000000	65.260720 
2364.000000	65.259909 
2363.000000	65.262269 
2362.000000	65.267705 
2361.000000	65.275454 
2360.000000	65.284061 
2359.000000	65.291380 
2358.000000	65.294933 
2357.000000	65.292787 
2356.000000	65.283799 
2355.000000	65.268135 
2354.000000	65.247011 
2353.000000	65.222620 
2352.000000	65.197563 
2351.000000	65.174126 
2350.000000	65.154123 
2349.000000	65.138649 
2348.000000	65.127921 
2347.000000	65.121674 
2346.000000	65.119266 
2345.000000	65.119862 
2344.000000	65.122699 
2343.000000	65.127015 
2342.000000	65.132570 
2341.000000	65.139245 
2340.000000	65.147662 
2339.000000	65.158438 
2338.000000	65.172553 
2337.000000	65.190625 
2336.000000	65.212750 
2335.000000	65.238261 
2334.000000	65.265297 
2333.000000	65.290975 
2332.000000	65.312004 
2331.000000	65.325164 
2330.000000	65.328431 
2329.000000	65.321326 
2328.000000	65.305519 
2327.000000	65.284252 
2326.000000	65.261578 
2325.000000	65.241336 
2324.000000	65.226483 
2323.000000	65.218138 
2322.000000	65.215992 
2321.000000	65.218353 
2320.000000	65.223073 
2319.000000	65.228104 
2318.000000	65.231990 
2317.000000	65.234303 
2316.000000	65.235209 
2315.000000	65.235710 
2314.000000	65.236639 
2313.000000	65.238785 
2312.000000	65.242362 
2311.000000	65.247321 
2310.000000	65.253329 
2309.000000	65.260004 
2308.000000	65.267086 
2307.000000	65.274286 
2306.000000	65.281438 
2305.000000	65.288138 
2304.000000	65.293765 
2303.000000	65.297675 
2302.000000	65.299248 
2301.000000	65.298151 
2300.000000	65.294241 
2299.000000	65.287590 
2298.000000	65.278625 
2297.000000	65.267753 
2296.000000	65.255641 
2295.000000	65.243005 
2294.000000	65.230846 
2293.000000	65.220332 
2292.000000	65.212774 
2291.000000	65.209245 
2290.000000	65.210390 
2289.000000	65.216231 
2288.000000	65.226173 
2287.000000	65.238881 
2286.000000	65.252590 
2285.000000	65.265369 
2284.000000	65.275621 
2283.000000	65.282344 
2282.000000	65.285372 
2281.000000	65.285277 
2280.000000	65.282988 
2279.000000	65.279555 
2278.000000	65.275740 
2277.000000	65.271711 
2276.000000	65.267181 
2275.000000	65.261578 
2274.000000	65.254378 
2273.000000	65.245509 
2272.000000	65.235447 
2271.000000	65.225291 
2270.000000	65.216541 
2269.000000	65.210819 
2268.000000	65.209412 
2267.000000	65.212965 
2266.000000	65.221285 
2265.000000	65.233349 
2264.000000	65.247511 
2263.000000	65.261936 
2262.000000	65.274858 
2261.000000	65.284919 
2260.000000	65.291357 
2259.000000	65.294170 
2258.000000	65.293908 
2257.000000	65.291547 
2256.000000	65.288329 
2255.000000	65.285491 
2254.000000	65.283989 
2253.000000	65.284490 
2252.000000	65.287446 
2251.000000	65.292835 
2250.000000	65.300345 
2249.000000	65.309476 
2248.000000	65.319657 
2247.000000	65.330243 
2246.000000	65.340709 
2245.000000	65.350675 
2244.000000	65.359687 
2243.000000	65.367317 
2242.000000	65.373086 
2241.000000	65.376424 
2240.000000	65.376687 
2239.000000	65.373349 
2238.000000	65.366172 
2237.000000	65.355491 
2236.000000	65.342164 
2235.000000	65.327668 
2234.000000	65.314030 
2233.000000	65.303301 
2232.000000	65.297102 
2231.000000	65.296316 
2230.000000	65.300679 
2229.000000	65.308880 
2228.000000	65.318703 
2227.000000	65.327620 
2226.000000	65.333342 
2225.000000	65.334343 
2224.000000	65.330362 
2223.000000	65.322232 
2222.000000	65.311646 
2221.000000	65.300679 
2220.000000	65.291070 
2219.000000	65.283918 
2218.000000	65.279531 
2217.000000	65.277171 
2216.000000	65.275931 
2215.000000	65.274596 
2214.000000	65.272283 
2213.000000	65.268707 
2212.000000	65.264058 
2211.000000	65.259218 
2210.000000	65.254926 
2209.000000	65.252065 
2208.000000	65.251016 
2207.000000	65.251803 
2206.000000	65.253949 
2205.000000	65.256929 
2204.000000	65.260314 
2203.000000	65.263915 
2202.000000	65.267848 
2201.000000	65.272426 
2200.000000	65.278291 
2199.000000	65.285801 
2198.000000	65.295100 
2197.000000	65.305829 
2196.000000	65.317153 
2195.000000	65.327978 
2194.000000	65.337276 
2193.000000	65.343976 
2192.000000	65.347504 
2191.000000	65.347790 
2190.000000	65.345335 
2189.000000	65.340948 
2188.000000	65.335655 
2187.000000	65.330600 
2186.000000	65.326714 
2185.000000	65.324497 
2184.000000	65.324258 
2183.000000	65.326261 
2182.000000	65.330433 
2181.000000	65.336632 
2180.000000	65.344357 
2179.000000	65.353059 
2178.000000	65.361881 
2177.000000	65.369772 
2176.000000	65.375661 
2175.000000	65.378570 
2174.000000	65.377926 
2173.000000	65.373587 
2172.000000	65.366005 
2171.000000	65.355992 
2170.000000	65.344715 
2169.000000	65.333271 
2168.000000	65.322709 
2167.000000	65.313553 
2166.000000	65.305972 
2165.000000	65.299677 
2164.000000	65.293908 
2163.000000	65.287590 
2162.000000	65.279793 
2161.000000	65.269303 
2160.000000	65.255117 
2159.000000	65.236449 
2158.000000	65.212893 
2157.000000	65.184903 
2156.000000	65.153408 
2155.000000	65.120339 
2154.000000	65.088081 
2153.000000	65.059566 
2152.000000	65.037608 
2151.000000	65.024471 
2150.000000	65.021371 
2149.000000	65.028452 
2148.000000	65.044736 
2147.000000	65.068078 
2146.000000	65.095758 
2145.000000	65.125083 
2144.000000	65.153884 
2143.000000	65.180730 
2142.000000	65.205025 
2141.000000	65.226745 
2140.000000	65.246462 
2139.000000	65.264678 
2138.000000	65.281963 
2137.000000	65.298795 
2136.000000	65.315222 
2135.000000	65.331554 
2134.000000	65.347695 
2133.000000	65.363550 
2132.000000	65.378475 
2131.000000	65.391898 
2130.000000	65.402865 
2129.000000	65.410566 
2128.000000	65.414190 
2127.000000	65.413570 
2126.000000	65.408658 
2125.000000	65.399885 
2124.000000	65.387725 
2123.000000	65.372896 
2122.000000	65.355896 
2121.000000	65.336990 
2120.000000	65.316367 
2119.000000	65.294504 
2118.000000	65.272450 
2117.000000	65.251946 
2116.000000	65.235185 
2115.000000	65.224647 
2114.000000	65.222239 
2113.000000	65.228796 
2112.000000	65.243458 
2111.000000	65.263986 
2110.000000	65.286970 
2109.000000	65.308904 
2108.000000	65.326666 
2107.000000	65.338206 
2106.000000	65.343284 
2105.000000	65.342831 
2104.000000	65.338540 
2103.000000	65.332579 
2102.000000	65.326881 
2101.000000	65.322613 
2100.000000	65.320062 
2099.000000	65.318799 
2098.000000	65.318298 
2097.000000	65.317940 
2096.000000	65.317630 
2095.000000	65.317654 
2094.000000	65.318918 
2093.000000	65.322256 
2092.000000	65.328574 
2091.000000	65.338397 
2090.000000	65.351939 
2089.000000	65.369129 
2088.000000	65.389680 
2087.000000	65.413165 
2086.000000	65.438914 
2085.000000	65.466094 
2084.000000	65.493488 
2083.000000	65.519475 
2082.000000	65.541887 
2081.000000	65.558457 
2080.000000	65.566802 
2079.000000	65.565228 
2078.000000	65.552473 
2077.000000	65.528535 
2076.000000	65.494394 
2075.000000	65.452265 
2074.000000	65.405035 
2073.000000	65.356135 
2072.000000	65.308737 
2071.000000	65.265750 
2070.000000	65.229344 
2069.000000	65.200901 
2068.000000	65.180969 
2067.000000	65.169501 
2066.000000	65.165805 
2065.000000	65.168666 
2064.000000	65.176582 
2063.000000	65.187978 
2062.000000	65.201139 
2061.000000	65.214705 
2060.000000	65.227556 
2059.000000	65.239381 
2058.000000	65.250134 
2057.000000	65.260004 
2056.000000	65.269327 
2055.000000	65.278053 
2054.000000	65.285611 
2053.000000	65.290951 
2052.000000	65.292859 
2051.000000	65.290260 
2050.000000	65.282678 
2049.000000	65.270543 
2048.000000	65.255236 
2047.000000	65.238738 
2046.000000	65.223622 
2045.000000	65.212011 
2044.000000	65.204954 
2043.000000	65.202569 
2042.000000	65.203833 
2041.000000	65.207171 
2040.000000	65.210866 
2039.000000	65.213990 
2038.000000	65.216565 
2037.000000	65.219616 
2036.000000	65.224838 
2035.000000	65.233826 
2034.000000	65.247392 
2033.000000	65.265083 
2032.000000	65.285038 
2031.000000	65.304231 
2030.000000	65.319037 
2029.000000	65.326309 
2028.000000	65.324449 
2027.000000	65.313553 
2026.000000	65.295743 
2025.000000	65.274858 
2024.000000	65.255689 
2023.000000	65.242791 
2022.000000	65.239715 
2021.000000	65.248250 
2020.000000	65.268063 
2019.000000	65.296840 
2018.000000	65.330767 
2017.000000	65.365314 
2016.000000	65.396142 
2015.000000	65.419912 
2014.000000	65.434837 
2013.000000	65.440750 
2012.000000	65.439081 
2011.000000	65.432190 
2010.000000	65.422677 
2009.000000	65.412759 
2008.000000	65.403771 
2007.000000	65.395903 
2006.000000	65.388607 
2005.000000	65.380716 
2004.000000	65.371227 
2003.000000	65.359544 
2002.000000	65.346026 
2001.000000	65.331840 
2000.000000	65.318703 
1999.000000	65.308403 
1998.000000	65.302157 
1997.000000	65.300321 
1996.000000	65.302062 
1995.000000	65.305876 
1994.000000	65.309786 
1993.000000	65.312027 
1992.000000	65.311360 
1991.000000	65.307521 
1990.000000	65.300822 
1989.000000	65.292215 
1988.000000	65.282726 
1987.000000	65.273404 
1986.000000	65.264987 
1985.000000	65.257883 
1984.000000	65.251898 
1983.000000	65.246558 
1982.000000	65.241408 
1981.000000	65.235948 
1980.000000	65.229868 
1979.000000	65.223264 
1978.000000	65.216684 
1977.000000	65.211009 
1976.000000	65.207576 
1975.000000	65.207862 
1974.000000	65.213394 
1973.000000	65.225005 
1972.000000	65.242695 
1971.000000	65.265083 
1970.000000	65.289640 
1969.000000	65.313029 
1968.000000	65.331745 
1967.000000	65.343070 
1966.000000	65.345668 
1965.000000	65.340137 
1964.000000	65.328407 
1963.000000	65.313315 
1962.000000	65.297722 
1961.000000	65.283870 
1960.000000	65.273022 
1959.000000	65.265274 
1958.000000	65.260076 
1957.000000	65.256595 
1956.000000	65.254259 
1955.000000	65.252780 
1954.000000	65.252304 
1953.000000	65.253186 
1952.000000	65.255594 
1951.000000	65.259313 
1950.000000	65.263438 
1949.000000	65.266823 
1948.000000	65.268373 
1947.000000	65.267586 
1946.000000	65.264749 
1945.000000	65.261030 
1944.000000	65.258002 
1943.000000	65.257334 
1942.000000	65.259981 
1941.000000	65.266156 
1940.000000	65.275096 
1939.000000	65.285515 
1938.000000	65.295791 
1937.000000	65.304613 
1936.000000	65.311288 
1935.000000	65.316081 
1934.000000	65.319848 
1933.000000	65.324187 
1932.000000	65.330624 
1931.000000	65.340423 
1930.000000	65.353989 
1929.000000	65.370607 
1928.000000	65.388464 
1927.000000	65.405035 
1926.000000	65.417790 
1925.000000	65.424537 
1924.000000	65.424203 
1923.000000	65.417146 
1922.000000	65.405082 
1921.000000	65.390563 
1920.000000	65.376472 
1919.000000	65.365386 
1918.000000	65.358901 
1917.000000	65.357375 
1916.000000	65.359807 
1915.000000	65.364289 
1914.000000	65.368461 
1913.000000	65.370297 
1912.000000	65.368437 
1911.000000	65.362501 
1910.000000	65.352940 
1909.000000	65.340757 
1908.000000	65.327095 
1907.000000	65.312767 
1906.000000	65.298390 
1905.000000	65.284204 
1904.000000	65.270447 
1903.000000	65.257477 
1902.000000	65.246105 
1901.000000	65.237545 
1900.000000	65.233135 
1899.000000	65.234184 
1898.000000	65.241432 
1897.000000	65.254950 
1896.000000	65.273618 
1895.000000	65.295457 
1894.000000	65.317726 
1893.000000	65.337491 
1892.000000	65.352201 
1891.000000	65.359902 
1890.000000	65.359663 
1889.000000	65.351676 
1888.000000	65.337133 
1887.000000	65.318012 
1886.000000	65.296745 
1885.000000	65.275859 
1884.000000	65.257668 
1883.000000	65.244054 
1882.000000	65.236234 
1881.000000	65.234565 
1880.000000	65.238690 
1879.000000	65.247130 
1878.000000	65.257906 
1877.000000	65.268516 
1876.000000	65.276408 
1875.000000	65.279293 
1874.000000	65.275621 
1873.000000	65.264987 
1872.000000	65.248322 
1871.000000	65.227770 
1870.000000	65.206384 
1869.000000	65.187692 
1868.000000	65.174937 
1867.000000	65.170478 
1866.000000	65.175271 
1865.000000	65.188622 
1864.000000	65.208339 
1863.000000	65.231299 
1862.000000	65.253949 
1861.000000	65.272831 
1860.000000	65.285181 
1859.000000	65.289330 
1858.000000	65.285015 
1857.000000	65.272951 
1856.000000	65.255093 
1855.000000	65.233945 
1854.000000	65.212392 
1853.000000	65.193319 
1852.000000	65.179228 
1851.000000	65.171718 
1850.000000	65.171456 
1849.000000	65.178060 
1848.000000	65.190386 
1847.000000	65.206551 
1846.000000	65.224480 
1845.000000	65.242052 
1844.000000	65.257644 
1843.000000	65.270328 
1842.000000	65.279746 
1841.000000	65.286064 
1840.000000	65.289926 
1839.000000	65.291953 
1838.000000	65.292739 
1837.000000	65.292811 
1836.000000	65.292549 
1835.000000	65.292215 
1834.000000	65.292263 
1833.000000	65.293288 
1832.000000	65.295982 
1831.000000	65.300965 
1830.000000	65.308642 
1829.000000	65.319299 
1828.000000	65.333008 
1827.000000	65.349459 
1826.000000	65.367960 
1825.000000	65.387439 
1824.000000	65.406370 
1823.000000	65.422987 
1822.000000	65.435504 
1821.000000	65.442180 
1820.000000	65.441584 
1819.000000	65.432858 
1818.000000	65.415978 
1817.000000	65.391755 
1816.000000	65.361857 
1815.000000	65.328550 
1814.000000	65.294671 
1813.000000	65.262913 
1812.000000	65.235805 
1811.000000	65.215229 
1810.000000	65.202188 
1809.000000	65.197086 
1808.000000	65.199327 
1807.000000	65.207719 
1806.000000	65.220308 
1805.000000	65.234732 
1804.000000	65.248489 
1803.000000	65.259170 
1802.000000	65.264892 
1801.000000	65.264487 
1800.000000	65.257787 
1799.000000	65.245795 
1798.000000	65.230298 
1797.000000	65.213704 
1796.000000	65.198349 
1795.000000	65.186238 
1794.000000	65.178704 
1793.000000	65.176391 
1792.000000	65.179181 
1791.000000	65.186405 
1790.000000	65.197181 
1789.000000	65.210652 
1788.000000	65.225911 
1787.000000	65.242218 
1786.000000	65.258741 
1785.000000	65.274333 
1784.000000	65.287733 
1783.000000	65.297627 
1782.000000	65.302801 
1781.000000	65.302705 
1780.000000	65.297603 
1779.000000	65.289068 
1778.000000	65.279579 
1777.000000	65.272140 
1776.000000	65.269875 
1775.000000	65.274953 
1774.000000	65.288209 
1773.000000	65.308427 
1772.000000	65.332674 
1771.000000	65.356779 
1770.000000	65.376186 
1769.000000	65.386915 
1768.000000	65.386438 
1767.000000	65.374279 
1766.000000	65.352153 
1765.000000	65.323376 
1764.000000	65.292239 
1763.000000	65.263056 
1762.000000	65.239119 
1761.000000	65.222382 
1760.000000	65.212869 
1759.000000	65.209341 
1758.000000	65.209627 
1757.000000	65.211248 
1756.000000	65.211939 
1755.000000	65.210247 
1754.000000	65.205860 
1753.000000	65.198993 
1752.000000	65.190863 
1751.000000	65.182852 
1750.000000	65.176272 
1749.000000	65.172266 
1748.000000	65.171051 
1747.000000	65.172076 
1746.000000	65.174007 
1745.000000	65.175199 
1744.000000	65.173935 
1743.000000	65.168833 
1742.000000	65.159201 
1741.000000	65.145206 
1740.000000	65.127992 
1739.000000	65.109252 
1738.000000	65.090775 
1737.000000	65.073990 
1736.000000	65.059638 
1735.000000	65.047669 
1734.000000	65.037202 
1733.000000	65.026950 
1732.000000	65.015721 
1731.000000	65.002846 
1730.000000	64.988517 
1729.000000	64.974141 
1728.000000	64.961600 
1727.000000	64.953446 
1726.000000	64.951944 
1725.000000	64.959406 
1724.000000	64.977335 
1723.000000	65.006542 
1722.000000	65.046811 
1721.000000	65.096569 
1720.000000	65.152931 
1719.000000	65.211653 
1718.000000	65.267705 
1717.000000	65.315580 
1716.000000	65.350270 
1715.000000	65.368032 
1714.000000	65.367269 
1713.000000	65.348672 
1712.000000	65.315389 
1711.000000	65.272474 
1710.000000	65.225839 
1709.000000	65.181374 
1708.000000	65.143871 
1707.000000	65.116477 
1706.000000	65.100288 
1705.000000	65.094685 
1704.000000	65.097761 
1703.000000	65.107107 
1702.000000	65.120267 
1701.000000	65.135025 
1700.000000	65.150094 
1699.000000	65.164160 
1698.000000	65.176844 
1697.000000	65.187835 
1696.000000	65.197348 
1695.000000	65.205621 
1694.000000	65.213060 
1693.000000	65.220189 
1692.000000	65.227389 
1691.000000	65.234804 
1690.000000	65.242195 
1689.000000	65.249228 
1688.000000	65.255212 
1687.000000	65.259146 
1686.000000	65.260410 
1685.000000	65.259003 
1684.000000	65.255403 
1683.000000	65.250730 
1682.000000	65.246319 
1681.000000	65.243482 
1680.000000	65.243291 
1679.000000	65.246248 
1678.000000	65.252113 
1677.000000	65.259981 
1676.000000	65.268707 
1675.000000	65.277123 
1674.000000	65.284299 
1673.000000	65.289616 
1672.000000	65.292859 
1671.000000	65.294146 
1670.000000	65.293884 
1669.000000	65.292429 
1668.000000	65.289950 
1667.000000	65.286254 
1666.000000	65.280938 
1665.000000	65.273332 
1664.000000	65.262961 
1663.000000	65.249347 
1662.000000	65.232682 
1661.000000	65.213584 
1660.000000	65.193271 
1659.000000	65.173482 
1658.000000	65.156364 
1657.000000	65.143871 
1656.000000	65.137696 
1655.000000	65.138673 
1654.000000	65.146946 
1653.000000	65.161490 
1652.000000	65.180397 
1651.000000	65.201163 
1650.000000	65.221023 
1649.000000	65.237522 
1648.000000	65.248584 
1647.000000	65.253067 
1646.000000	65.250539 
1645.000000	65.241479 
1644.000000	65.227055 
1643.000000	65.209031 
1642.000000	65.189456 
1641.000000	65.170502 
1640.000000	65.154075 
1639.000000	65.141797 
1638.000000	65.134739 
1637.000000	65.133357 
1636.000000	65.137505 
1635.000000	65.146327 
1634.000000	65.158510 
1633.000000	65.172195 
1632.000000	65.185356 
1631.000000	65.196013 
1630.000000	65.202355 
1629.000000	65.203380 
1628.000000	65.198802 
1627.000000	65.189528 
1626.000000	65.177321 
1625.000000	65.164804 
1624.000000	65.154862 
1623.000000	65.150094 
1622.000000	65.152454 
1621.000000	65.162396 
1620.000000	65.179085 
1619.000000	65.199899 
1618.000000	65.221428 
1617.000000	65.239667 
1616.000000	65.250873 
1615.000000	65.252351 
1614.000000	65.242934 
1613.000000	65.223407 
1612.000000	65.196180 
1611.000000	65.164971 
1610.000000	65.133953 
1609.000000	65.107035 
1608.000000	65.087080 
1607.000000	65.075469 
1606.000000	65.071892 
1605.000000	65.074563 
1604.000000	65.080833 
1603.000000	65.087604 
1602.000000	65.092062 
1601.000000	65.092206 
1600.000000	65.087294 
1599.000000	65.077638 
1598.000000	65.064716 
1597.000000	65.050506 
1596.000000	65.037703 
1595.000000	65.028738 
1594.000000	65.025639 
1593.000000	65.029931 
1592.000000	65.042042 
1591.000000	65.061640 
1590.000000	65.087103 
1589.000000	65.116071 
1588.000000	65.145349 
1587.000000	65.171384 
1586.000000	65.190768 
1585.000000	65.200853 
1584.000000	65.200138 
1583.000000	65.188479 
1582.000000	65.167117 
1581.000000	65.138387 
1580.000000	65.105557 
1579.000000	65.072083 
1578.000000	65.041041 
1577.000000	65.014624 
1576.000000	64.994025 
1575.000000	64.979434 
1574.000000	64.970207 
1573.000000	64.965343 
1572.000000	64.963555 
1571.000000	64.963746 
1570.000000	64.964985 
1569.000000	64.966773 
1568.000000	64.968538 
1567.000000	64.970040 
1566.000000	64.971041 
1565.000000	64.971280 
1564.000000	64.970445 
1563.000000	64.968299 
1562.000000	64.964747 
1561.000000	64.959883 
1560.000000	64.953875 
1559.000000	64.947390 
1558.000000	64.941310 
1557.000000	64.936900 
1556.000000	64.935564 
1555.000000	64.938592 
1554.000000	64.947032 
1553.000000	64.961171 
1552.000000	64.980554 
1551.000000	65.003514 
1550.000000	65.027761 
1549.000000	65.050292 
1548.000000	65.068316 
1547.000000	65.079689 
1546.000000	65.083646 
1545.000000	65.080904 
1544.000000	65.073680 
1543.000000	65.065026 
1542.000000	65.058040 
1541.000000	65.055274 
1540.000000	65.057849 
1539.000000	65.065383 
1538.000000	65.075802 
1537.000000	65.086245 
1536.000000	65.093731 
1535.000000	65.095877 
1534.000000	65.091943 
1533.000000	65.082812 
1532.000000	65.071153 
1531.000000	65.060687 
1530.000000	65.055608 
1529.000000	65.059208 
1528.000000	65.073370 
1527.000000	65.097928 
1526.000000	65.130496 
1525.000000	65.166807 
1524.000000	65.201306 
1523.000000	65.228247 
1522.000000	65.242528 
1521.000000	65.240836 
1520.000000	65.222358 
1519.000000	65.189051 
1518.000000	65.145277 
1517.000000	65.096998 
1516.000000	65.050959 
1515.000000	65.013051 
1514.000000	64.987707 
1513.000000	64.976835 
1512.000000	64.979934 
1511.000000	64.994406 
1510.000000	65.016150 
1509.000000	65.040755 
1508.000000	65.064215 
1507.000000	65.083837 
1506.000000	65.098118 
1505.000000	65.107440 
1504.000000	65.113234 
1503.000000	65.117502 
1502.000000	65.122103 
1501.000000	65.128087 
1500.000000	65.135550 
1499.000000	65.143489 
1498.000000	65.150308 
1497.000000	65.154361 
1496.000000	65.154457 
1495.000000	65.150189 
1494.000000	65.142059 
1493.000000	65.131497 
1492.000000	65.120220 
1491.000000	65.109872 
1490.000000	65.101671 
1489.000000	65.096187 
1488.000000	65.093302 
1487.000000	65.092658 
1486.000000	65.093684 
1485.000000	65.095949 
1484.000000	65.099143 
1483.000000	65.103316 
1482.000000	65.108203 
1481.000000	65.113472 
1480.000000	65.118336 
1479.000000	65.121626 
1478.000000	65.122222 
1477.000000	65.119147 
1476.000000	65.112113 
1475.000000	65.101766 
1474.000000	65.089297 
1473.000000	65.076017 
1472.000000	65.063261 
1471.000000	65.051865 
1470.000000	65.041756 
1469.000000	65.032076 
1468.000000	65.021538 
1467.000000	65.009093 
1466.000000	64.994096 
1465.000000	64.976787 
1464.000000	64.958333 
1463.000000	64.940309 
1462.000000	64.924240 
1461.000000	64.911007 
1460.000000	64.900374 
1459.000000	64.890861 
1458.000000	64.880013 
1457.000000	64.865064 
1456.000000	64.843654 
1455.000000	64.815235 
1454.000000	64.781165 
1453.000000	64.745545 
1452.000000	64.713573 
1451.000000	64.691734 
1450.000000	64.685654 
1449.000000	64.699554 
1448.000000	64.734768 
1447.000000	64.789724 
1446.000000	64.860105 
1445.000000	64.939665 
1444.000000	65.021133 
1443.000000	65.097284 
1442.000000	65.162014 
1441.000000	65.210938 
1440.000000	65.242004 
1439.000000	65.255761 
1438.000000	65.254735 
1437.000000	65.243387 
1436.000000	65.226626 
1435.000000	65.209507 
1434.000000	65.195488 
1433.000000	65.186762 
1432.000000	65.183115 
1431.000000	65.182828 
1430.000000	65.182971 
1429.000000	65.180587 
1428.000000	65.173530 
1427.000000	65.160822 
1426.000000	65.143179 
1425.000000	65.122914 
1424.000000	65.103268 
1423.000000	65.087485 
1422.000000	65.078043 
1421.000000	65.075993 
1420.000000	65.080857 
1419.000000	65.090751 
1418.000000	65.102934 
1417.000000	65.114498 
1416.000000	65.123438 
1415.000000	65.128755 
1414.000000	65.130472 
1413.000000	65.129113 
1412.000000	65.125536 
1411.000000	65.120291 
1410.000000	65.112876 
1409.000000	65.102076 
1408.000000	65.086460 
1407.000000	65.064978 
1406.000000	65.037584 
1405.000000	65.005850 
1404.000000	64.972901 
1403.000000	64.943194 
1402.000000	64.921617 
1401.000000	64.912533 
1400.000000	64.918637 
1399.000000	64.940428 
1398.000000	64.975786 
1397.000000	65.020418 
1396.000000	65.068531 
1395.000000	65.113735 
1394.000000	65.150499 
1393.000000	65.174579 
1392.000000	65.183663 
1391.000000	65.177822 
1390.000000	65.159177 
1389.000000	65.131258 
1388.000000	65.098428 
1387.000000	65.065264 
1386.000000	65.035581 
1385.000000	65.012502 
1384.000000	64.997529 
1383.000000	64.990854 
1382.000000	64.991211 
1381.000000	64.996528 
1380.000000	65.004181 
1379.000000	65.011382 
1378.000000	65.016269 
1377.000000	65.017604 
1376.000000	65.015602 
1375.000000	65.011239 
1374.000000	65.006279 
1373.000000	65.002632 
1372.000000	65.002059 
1371.000000	65.005660 
1370.000000	65.013647 
1369.000000	65.025568 
1368.000000	65.040183 
1367.000000	65.056157 
1366.000000	65.072250 
1365.000000	65.087556 
1364.000000	65.101599 
1363.000000	65.113973 
1362.000000	65.124320 
1361.000000	65.132308 
1360.000000	65.137338 
1359.000000	65.138816 
1358.000000	65.136408 
1357.000000	65.130162 
1356.000000	65.121102 
1355.000000	65.110731 
1354.000000	65.100789 
1353.000000	65.092706 
1352.000000	65.087413 
1351.000000	65.084719 
1350.000000	65.083503 
1349.000000	65.081954 
1348.000000	65.078210 
1347.000000	65.070724 
1346.000000	65.058970 
1345.000000	65.043640 
1344.000000	65.026378 
1343.000000	65.009546 
1342.000000	64.995718 
1341.000000	64.986991 
1340.000000	64.984321 
1339.000000	64.987492 
1338.000000	64.995265 
1337.000000	65.005707 
1336.000000	65.016698 
1335.000000	65.026521 
1334.000000	65.034246 
1333.000000	65.039730 
1332.000000	65.043497 
1331.000000	65.046429 
1330.000000	65.049028 
1329.000000	65.051579 
1328.000000	65.053653 
1327.000000	65.054345 
1326.000000	65.052676 
1325.000000	65.047931 
1324.000000	65.040111 
1323.000000	65.029883 
1322.000000	65.018749 
1321.000000	65.008568 
1320.000000	65.001082 
1319.000000	64.997315 
1318.000000	64.997076 
1317.000000	64.999175 
1316.000000	65.001440 
1315.000000	65.001416 
1314.000000	64.997005 
1313.000000	64.987015 
1312.000000	64.971566 
1311.000000	64.952111 
1310.000000	64.931321 
1309.000000	64.912414 
1308.000000	64.898610 
1307.000000	64.892387 
1306.000000	64.895105 
1305.000000	64.906573 
1304.000000	64.925312 
1303.000000	64.948797 
1302.000000	64.973688 
1301.000000	64.996623 
1300.000000	65.014719 
1299.000000	65.026235 
1298.000000	65.030574 
1297.000000	65.028429 
1296.000000	65.021705 
1295.000000	65.012812 
1294.000000	65.004563 
1293.000000	64.999127 
1292.000000	64.997935 
1291.000000	65.001201 
1290.000000	65.008091 
1289.000000	65.017127 
1288.000000	65.026664 
1287.000000	65.035271 
1286.000000	65.042209 
1285.000000	65.047502 
1284.000000	65.051603 
1283.000000	65.055203 
1282.000000	65.058732 
1281.000000	65.061950 
1280.000000	65.063714 
1279.000000	65.062284 
1278.000000	65.055561 
1277.000000	65.041661 
1276.000000	65.019702 
1275.000000	64.989995 
1274.000000	64.954543 
1273.000000	64.916658 
1272.000000	64.880752 
1271.000000	64.851140 
1270.000000	64.831519 
1269.000000	64.824557 
1268.000000	64.830875 
1267.000000	64.849185 
1266.000000	64.876317 
1265.000000	64.907693 
1264.000000	64.938187 
1263.000000	64.963030 
1262.000000	64.979004 
1261.000000	64.984703 
1260.000000	64.981150 
1259.000000	64.971280 
1258.000000	64.959025 
1257.000000	64.948368 
1256.000000	64.942169 
1255.000000	64.941716 
1254.000000	64.946365 
1253.000000	64.953875 
1252.000000	64.961218 
1251.000000	64.965415 
1250.000000	64.964032 
1249.000000	64.955878 
1248.000000	64.941000 
1247.000000	64.920783 
1246.000000	64.896965 
1245.000000	64.871525 
1244.000000	64.846396 
1243.000000	64.823222 
1242.000000	64.803218 
1241.000000	64.787292 
1240.000000	64.776420 
1239.000000	64.771270 
1238.000000	64.772224 
1237.000000	64.779186 
1236.000000	64.791178 
1235.000000	64.806723 
1234.000000	64.823842 
1233.000000	64.840292 
1232.000000	64.853954 
1231.000000	64.863324 
1230.000000	64.867782 
1229.000000	64.867520 
1228.000000	64.863300 
1227.000000	64.856362 
1226.000000	64.848113 
1225.000000	64.839768 
1224.000000	64.832353 
1223.000000	64.826869 
1222.000000	64.824295 
1221.000000	64.825749 
1220.000000	64.832472 
1219.000000	64.845633 
1218.000000	64.865946 
1217.000000	64.893269 
1216.000000	64.926314 
1215.000000	64.962601 
1214.000000	64.998745 
1213.000000	65.031075 
1212.000000	65.056014 
1211.000000	65.071201 
1210.000000	65.075421 
1209.000000	65.069437 
1208.000000	65.055084 
1207.000000	65.034961 
1206.000000	65.011763 
1205.000000	64.987635 
1204.000000	64.963793 
1203.000000	64.940619 
1202.000000	64.917778 
1201.000000	64.894843 
1200.000000	64.871692 
1199.000000	64.848875 
1198.000000	64.827513 
1197.000000	64.809155 
1196.000000	64.795160 
1195.000000	64.786410 
1194.000000	64.782667 
1193.000000	64.782834 
1192.000000	64.784955 
1191.000000	64.786839 
1190.000000	64.786314 
1189.000000	64.781904 
1188.000000	64.773154 
1187.000000	64.760541 
1186.000000	64.745116 
1185.000000	64.728426 
1184.000000	64.711952 
1183.000000	64.696907 
1182.000000	64.683914 
1181.000000	64.673066 
1180.000000	64.664101 
1179.000000	64.656591 
1178.000000	64.650034 
1177.000000	64.644098 
1176.000000	64.638733 
1175.000000	64.634180 
1174.000000	64.630794 
1173.000000	64.629077 
1172.000000	64.629364 
1171.000000	64.632034 
1170.000000	64.637088 
1169.000000	64.644241 
1168.000000	64.652585 
1167.000000	64.660978 
1166.000000	64.668178 
1165.000000	64.672589 
1164.000000	64.673018 
1163.000000	64.668869 
1162.000000	64.660406 
1161.000000	64.648818 
1160.000000	64.636039 
1159.000000	64.624428 
1158.000000	64.616227 
1157.000000	64.613008 
1156.000000	64.615106 
1155.000000	64.621829 
1154.000000	64.631247 
1153.000000	64.640784 
1152.000000	64.647960 
1151.000000	64.651012 
1150.000000	64.649343 
1149.000000	64.643836 
1148.000000	64.636492 
1147.000000	64.630031 
1146.000000	64.627313 
1145.000000	64.630436 
1144.000000	64.640378 
1143.000000	64.656758 
1142.000000	64.677906 
1141.000000	64.701437 
1140.000000	64.724636 
1139.000000	64.745163 
1138.000000	64.761376 
1137.000000	64.772772 
1136.000000	64.779615 
1135.000000	64.782881 
1134.000000	64.783787 
1133.000000	64.783596 
1132.000000	64.783334 
1131.000000	64.783501 
1130.000000	64.784288 
1129.000000	64.785361 
1128.000000	64.786267 
1127.000000	64.786219 
1126.000000	64.784646 
1125.000000	64.780783 
1124.000000	64.774084 
1123.000000	64.764404 
1122.000000	64.752030 
1121.000000	64.737629 
1120.000000	64.722299 
1119.000000	64.707398 
1118.000000	64.694261 
1117.000000	64.683866 
1116.000000	64.676594 
1115.000000	64.671850 
1114.000000	64.668607 
1113.000000	64.665102 
1112.000000	64.659905 
1111.000000	64.651942 
1110.000000	64.641475 
1109.000000	64.629697 
1108.000000	64.618921 
1107.000000	64.612054 
1106.000000	64.611768 
1105.000000	64.619755 
1104.000000	64.635920 
1103.000000	64.658236 
1102.000000	64.682888 
1101.000000	64.705276 
1100.000000	64.720988 
1099.000000	64.726901 
1098.000000	64.721965 
1097.000000	64.707493 
1096.000000	64.686799 
1095.000000	64.664244 
1094.000000	64.644265 
1093.000000	64.630150 
1092.000000	64.623355 
1091.000000	64.623332 
1090.000000	64.627981 
1089.000000	64.634561 
1088.000000	64.640355 
1087.000000	64.643573 
1086.000000	64.643692 
1085.000000	64.641737 
1084.000000	64.639401 
1083.000000	64.639043 
1082.000000	64.642190 
1081.000000	64.649915 
1080.000000	64.662575 
1079.000000	64.679718 
1078.000000	64.700698 
1077.000000	64.724397 
1076.000000	64.749431 
1075.000000	64.773964 
1074.000000	64.796257 
1073.000000	64.814376 
1072.000000	64.826679 
1071.000000	64.831829 
1070.000000	64.829015 
1069.000000	64.818668 
1068.000000	64.802265 
1067.000000	64.782190 
1066.000000	64.761281 
1065.000000	64.742898 
1064.000000	64.730167 
1063.000000	64.725637 
1062.000000	64.730405 
1061.000000	64.743947 
1060.000000	64.764046 
1059.000000	64.787125 
1058.000000	64.808821 
1057.000000	64.824295 
1056.000000	64.830160 
1055.000000	64.824175 
1054.000000	64.807224 
1053.000000	64.783167 
1052.000000	64.758586 
1051.000000	64.741373 
1050.000000	64.738821 
1049.000000	64.755821 
1048.000000	64.792919 
1047.000000	64.846205 
1046.000000	64.907646 
1045.000000	64.967489 
1044.000000	65.015411 
1043.000000	65.043282 
1042.000000	65.045785 
1041.000000	65.021419 
1040.000000	64.972090 
1039.000000	64.902782 
1038.000000	64.820718 
1037.000000	64.734363 
1036.000000	64.652776 
1035.000000	64.584207 
1034.000000	64.535212 
1033.000000	64.509487 
1032.000000	64.507746 
1031.000000	64.527177 
1030.000000	64.561939 
1029.000000	64.604592 
1028.000000	64.646816 
1027.000000	64.681839 
1026.000000	64.704680 
1025.000000	64.713382 
1024.000000	64.709019 
1023.000000	64.694547 
1022.000000	64.673686 
1021.000000	64.649629 
1020.000000	64.624166 
1019.000000	64.597725 
1018.000000	64.569807 
1017.000000	64.539694 
1016.000000	64.507579 
1015.000000	64.474868 
1014.000000	64.444565 
1013.000000	64.420104 
1012.000000	64.404726 
1011.000000	64.400529 
1010.000000	64.407992 
1009.000000	64.425349 
1008.000000	64.449286 
1007.000000	64.475226 
1006.000000	64.499187 
1005.000000	64.518284 
1004.000000	64.532327 
1003.000000	64.542770 
1002.000000	64.553165 
1001.000000	64.568281 
1000.000000	64.592671 
999.000000	 64.629745 
998.000000	 64.680147 
997.000000	 64.741969 
996.000000	 64.809823 
995.000000	 64.876627 
994.000000	 64.933800 
993.000000	 64.973497 
992.000000	 64.989614 
991.000000	 64.979338 
990.000000	 64.943790 
989.000000	 64.888286 
988.000000	 64.820790 
987.000000	 64.750432 
986.000000	 64.685392 
985.000000	 64.631891 
984.000000	 64.592456 
983.000000	 64.566397 
982.000000	 64.550256 
981.000000	 64.539837 
980.000000	 64.531636 
979.000000	 64.524650 
978.000000	 64.520740 
977.000000	 64.524221 
976.000000	 64.540410 
975.000000	 64.573144 
974.000000	 64.623045 
973.000000	 64.685916 
972.000000	 64.752984 
971.000000	 64.812564 
970.000000	 64.852166 
969.000000	 64.862656 
968.000000	 64.840745 
967.000000	 64.790821 
966.000000	 64.724063 
965.000000	 64.656305 
964.000000	 64.604163 
963.000000	 64.580607 
962.000000	 64.591765 
961.000000	 64.635467 
960.000000	 64.702033 
959.000000	 64.776730 
958.000000	 64.843940 
957.000000	 64.890623 
956.000000	 64.909696 
955.000000	 64.901137 
954.000000	 64.872193 
953.000000	 64.834260 
952.000000	 64.800119 
951.000000	 64.780712 
950.000000	 64.782071 
949.000000	 64.804625 
948.000000	 64.842653 
947.000000	 64.887261 
946.000000	 64.927721 
945.000000	 64.955210 
944.000000	 64.964079 
943.000000	 64.952945 
942.000000	 64.924597 
941.000000	 64.884924 
940.000000	 64.840865 
939.000000	 64.798569 
938.000000	 64.762043 
937.000000	 64.732742 
936.000000	 64.709830 
935.000000	 64.691257 
934.000000	 64.674973 
933.000000	 64.660000 
932.000000	 64.646911 
931.000000	 64.637851 
930.000000	 64.635324 
929.000000	 64.641261 
928.000000	 64.655709 
927.000000	 64.676785 
926.000000	 64.701581 
925.000000	 64.726448 
924.000000	 64.748311 
923.000000	 64.764857 
922.000000	 64.775347 
921.000000	 64.779806 
920.000000	 64.778995 
919.000000	 64.773344 
918.000000	 64.762496 
917.000000	 64.745712 
916.000000	 64.722108 
915.000000	 64.691495 
914.000000	 64.655208 
913.000000	 64.616417 
912.000000	 64.579629 
911.000000	 64.550447 
910.000000	 64.534115 
909.000000	 64.534378 
908.000000	 64.552354 
907.000000	 64.585947 
906.000000	 64.629936 
905.000000	 64.677119 
904.000000	 64.719843 
903.000000	 64.751386 
902.000000	 64.767313 
901.000000	 64.766001 
900.000000	 64.748716 
899.000000	 64.718842 
898.000000	 64.681124 
897.000000	 64.640235 
896.000000	 64.600396 
895.000000	 64.565205 
894.000000	 64.537143 
893.000000	 64.517998 
892.000000	 64.508485 
891.000000	 64.509057 
890.000000	 64.519166 
889.000000	 64.536881 
888.000000	 64.559388 
887.000000	 64.582777 
886.000000	 64.602994 
885.000000	 64.616084 
884.000000	 64.619708 
883.000000	 64.613294 
882.000000	 64.598703 
881.000000	 64.579868 
880.000000	 64.561581 
879.000000	 64.548277 
878.000000	 64.543128 
877.000000	 64.547491 
876.000000	 64.560532 
875.000000	 64.579606 
874.000000	 64.600992 
873.000000	 64.620447 
872.000000	 64.634108 
871.000000	 64.638614 
870.000000	 64.631533 
869.000000	 64.611148 
868.000000	 64.576649 
867.000000	 64.528179 
866.000000	 64.467096 
865.000000	 64.395642 
864.000000	 64.317274 
863.000000	 64.235925 
862.000000	 64.156198 
861.000000	 64.082288 
860.000000	 64.017438 
859.000000	 63.964247 
858.000000	 63.923811 
857.000000	 63.897418 
856.000000	 63.886213 
855.000000	 63.891839 
854.000000	 63.915657 
853.000000	 63.958525 
852.000000	 64.019680 
851.000000	 64.095711 
850.000000	 64.180421 
849.000000	 64.265918 
848.000000	 64.343667 
847.000000	 64.406323 
846.000000	 64.448904 
845.000000	 64.469933 
844.000000	 64.471173 
843.000000	 64.457321 
842.000000	 64.434051 
841.000000	 64.407038 
840.000000	 64.380049 
839.000000	 64.355206 
838.000000	 64.332365 
837.000000	 64.310240 
836.000000	 64.287328 
835.000000	 64.263486 
834.000000	 64.240217 
833.000000	 64.220380 
832.000000	 64.207768 
831.000000	 64.205861 
830.000000	 64.216613 
829.000000	 64.239478 
828.000000	 64.271044 
827.000000	 64.305305 
826.000000	 64.334893 
825.000000	 64.352488 
824.000000	 64.352154 
823.000000	 64.330458 
822.000000	 64.287495 
821.000000	 64.227032 
820.000000	 64.155316 
819.000000	 64.080262 
818.000000	 64.010047 
817.000000	 63.952016 
816.000000	 63.911032 
815.000000	 63.889575 
814.000000	 63.887405 
813.000000	 63.902473 
812.000000	 63.931179 
811.000000	 63.969469 
810.000000	 64.013051 
809.000000	 64.058303 
808.000000	 64.102077 
807.000000	 64.141583 
806.000000	 64.173913 
805.000000	 64.195966 
804.000000	 64.204883 
803.000000	 64.197731 
802.000000	 64.172458 
801.000000	 64.128255 
800.000000	 64.066433 
799.000000	 63.990235 
798.000000	 63.904953 
797.000000	 63.817262 
796.000000	 63.734388 
795.000000	 63.663339 
794.000000	 63.609838 
793.000000	 63.577508 
792.000000	 63.567543 
791.000000	 63.578534 
790.000000	 63.607335 
789.000000	 63.649463 
788.000000	 63.700127 
787.000000	 63.754534 
786.000000	 63.808989 
785.000000	 63.860917 
784.000000	 63.908839 
783.000000	 63.951873 
782.000000	 63.989257 
781.000000	 64.019823 
780.000000	 64.042258 
779.000000	 64.055371 
778.000000	 64.058303 
777.000000	 64.051079 
776.000000	 64.034628 
775.000000	 64.011240 
774.000000	 63.983917 
773.000000	 63.956212 
772.000000	 63.931179 
771.000000	 63.910889 
770.000000	 63.895726 
769.000000	 63.884544 
768.000000	 63.874721 
767.000000	 63.863039 
766.000000	 63.846802 
765.000000	 63.824939 
764.000000	 63.798260 
763.000000	 63.769960 
762.000000	 63.744783 
761.000000	 63.728022 
760.000000	 63.723969 
759.000000	 63.734221 
758.000000	 63.756799 
757.000000	 63.786077 
756.000000	 63.813638 
755.000000	 63.830399 
754.000000	 63.828325 
753.000000	 63.803482 
752.000000	 63.757181 
751.000000	 63.696241 
750.000000	 63.631653 
749.000000	 63.575434 
748.000000	 63.537716 
747.000000	 63.523626 
746.000000	 63.531994 
745.000000	 63.555717 
744.000000	 63.583874 
743.000000	 63.604855 
742.000000	 63.609766 
741.000000	 63.594865 
740.000000	 63.562560 
739.000000	 63.520288 
738.000000	 63.478398 
737.000000	 63.446831 
736.000000	 63.432288 
735.000000	 63.436365 
734.000000	 63.455295 
733.000000	 63.481235 
732.000000	 63.504862 
731.000000	 63.518452 
730.000000	 63.517951 
729.000000	 63.503861 
728.000000	 63.481283 
727.000000	 63.457536 
726.000000	 63.440823 
725.000000	 63.437318 
724.000000	 63.449716 
723.000000	 63.476824 
722.000000	 63.513374 
721.000000	 63.552045 
720.000000	 63.584876 
719.000000	 63.605618 
718.000000	 63.610768 
717.000000	 63.600230 
716.000000	 63.576745 
715.000000	 63.544774 
714.000000	 63.508939 
713.000000	 63.472890 
712.000000	 63.438487 
711.000000	 63.406014 
710.000000	 63.375067 
709.000000	 63.345313 
708.000000	 63.317608 
707.000000	 63.293719 
706.000000	 63.275909 
705.000000	 63.266181 
704.000000	 63.264942 
703.000000	 63.270950 
702.000000	 63.280606 
701.000000	 63.289403 
700.000000	 63.292574 
699.000000	 63.286924 
698.000000	 63.272118 
697.000000	 63.250565 
696.000000	 63.227057 
695.000000	 63.206648 
694.000000	 63.193273 
693.000000	 63.187789 
692.000000	 63.187837 
691.000000	 63.188052 
690.000000	 63.181900 
689.000000	 63.163614 
688.000000	 63.130211 
687.000000	 63.082504 
686.000000	 63.025236 
685.000000	 62.965703 
684.000000	 62.911987 
683.000000	 62.871003 
682.000000	 62.846970 
681.000000	 62.840414 
680.000000	 62.848353 
679.000000	 62.865495 
678.000000	 62.885522 
677.000000	 62.902927 
676.000000	 62.914133 
675.000000	 62.917780 
674.000000	 62.915015 
673.000000	 62.907958 
672.000000	 62.899279 
671.000000	 62.890958 
670.000000	 62.883758 
669.000000	 62.877249 
668.000000	 62.870335 
667.000000	 62.862324 
666.000000	 62.852954 
665.000000	 62.843060 
664.000000	 62.834262 
663.000000	 62.828612 
662.000000	 62.827634 
661.000000	 62.831687 
660.000000	 62.839198 
659.000000	 62.846827 
658.000000	 62.849926 
657.000000	 62.843632 
656.000000	 62.824034 
655.000000	 62.789368 
654.000000	 62.740492 
653.000000	 62.681102 
652.000000	 62.616729 
651.000000	 62.554049 
650.000000	 62.499475 
649.000000	 62.458181 
648.000000	 62.433791 
647.000000	 62.427020 
646.000000	 62.436437 
645.000000	 62.457394 
644.000000	 62.483477 
643.000000	 62.506842 
642.000000	 62.519741 
641.000000	 62.515759 
640.000000	 62.490844 
639.000000	 62.444615 
638.000000	 62.380552 
637.000000	 62.305140 
636.000000	 62.226343 
635.000000	 62.152218 
634.000000	 62.089323 
633.000000	 62.041211 
632.000000	 62.008333 
631.000000	 61.988067 
630.000000	 61.976218 
629.000000	 61.968684 
628.000000	 61.962413 
627.000000	 61.955857 
626.000000	 61.948752 
625.000000	 61.941099 
624.000000	 61.932802 
623.000000	 61.922240 
622.000000	 61.907553 
621.000000	 61.886262 
620.000000	 61.857795 
619.000000	 61.824083 
618.000000	 61.790227 
617.000000	 61.763143 
616.000000	 61.750769 
615.000000	 61.759853 
614.000000	 61.794447 
613.000000	 61.854267 
612.000000	 61.934900 
611.000000	 62.028193 
610.000000	 62.124085 
609.000000	 62.212395 
608.000000	 62.284517 
607.000000	 62.334585 
606.000000	 62.359642 
605.000000	 62.359428 
604.000000	 62.335205 
603.000000	 62.289333 
602.000000	 62.224531 
601.000000	 62.144136 
600.000000	 62.052679 
599.000000	 61.956167 
598.000000	 61.862277 
597.000000	 61.779999 
596.000000	 61.718535 
595.000000	 61.685895 
594.000000	 61.686873 
593.000000	 61.722326 
592.000000	 61.787748 
591.000000	 61.874771 
590.000000	 61.972093 
589.000000	 62.067914 
588.000000	 62.151503 
587.000000	 62.215614 
586.000000	 62.257456 
585.000000	 62.278079 
584.000000	 62.281060 
583.000000	 62.270498 
582.000000	 62.249445 
581.000000	 62.218666 
580.000000	 62.176775 
579.000000	 62.121200 
578.000000	 62.049937 
577.000000	 61.963033 
576.000000	 61.864113 
575.000000	 61.760830 
574.000000	 61.663985 
573.000000	 61.584901 
572.000000	 61.533403 
571.000000	 61.515188 
570.000000	 61.530613 
569.000000	 61.574387 
568.000000	 61.636209 
567.000000	 61.703300 
566.000000	 61.762356 
565.000000	 61.802268 
564.000000	 61.815381 
563.000000	 61.798095 
562.000000	 61.751246 
561.000000	 61.678242 
560.000000	 61.585807 
559.000000	 61.482572 
558.000000	 61.378169 
557.000000	 61.281704 
556.000000	 61.201691 
555.000000	 61.145186 
554.000000	 61.115741 
553.000000	 61.112999 
552.000000	 61.132168 
551.000000	 61.164712 
550.000000	 61.199593 
549.000000	 61.225390 
548.000000	 61.231517 
547.000000	 61.211109 
546.000000	 61.162519 
545.000000	 61.089754 
544.000000	 61.000967 
543.000000	 60.906958 
542.000000	 60.819339 
541.000000	 60.747408 
540.000000	 60.696601 
539.000000	 60.667061 
538.000000	 60.654854 
537.000000	 60.652279 
536.000000	 60.650944 
535.000000	 60.642147 
534.000000	 60.619354 
533.000000	 60.578107 
532.000000	 60.516691 
531.000000	 60.435414 
530.000000	 60.335946 
529.000000	 60.221672 
528.000000	 60.097217 
527.000000	 59.969234 
526.000000	 59.846186 
525.000000	 59.738135 
524.000000	 59.655952 
523.000000	 59.609699 
522.000000	 59.607148 
521.000000	 59.651899 
520.000000	 59.742426 
519.000000	 59.871554 
518.000000	 60.027050 
517.000000	 60.192894 
516.000000	 60.351729 
515.000000	 60.487294 
514.000000	 60.586667 
513.000000	 60.642027 
512.000000	 60.651040 
511.000000	 60.616946 
510.000000	 60.546994 
509.000000	 60.451960 
508.000000	 60.342693 
507.000000	 60.230088 
506.000000	 60.122203 
505.000000	 60.025405 
504.000000	 59.942507 
503.000000	 59.874129 
502.000000	 59.818887 
501.000000	 59.774732 
500.000000	 59.739041 
499.000000	 59.709501 
498.000000	 59.683990 
497.000000	 59.661245 
496.000000	 59.641504 
495.000000	 59.626722 
494.000000	 59.619212 
493.000000	 59.621596 
492.000000	 59.637188 
491.000000	 59.668159 
490.000000	 59.714555 
489.000000	 59.772300 
488.000000	 59.834551 
487.000000	 59.890222 
486.000000	 59.926891 
485.000000	 59.931516 
484.000000	 59.893202 
483.000000	 59.805536 
482.000000	 59.670042 
481.000000	 59.494590 
480.000000	 59.293437 
479.000000	 59.082698 
478.000000	 58.878374 
477.000000	 58.692097 
476.000000	 58.529734 
475.000000	 58.392739 
474.000000	 58.279943 
473.000000	 58.190798 
472.000000	 58.127713 
471.000000	 58.096361 
470.000000	 58.105349 
469.000000	 58.165192 
468.000000	 58.285355 
467.000000	 58.469295 
466.000000	 58.712077 
465.000000	 59.000587 
464.000000	 59.312510 
463.000000	 59.619164 
462.000000	 59.888887 
461.000000	 60.092186 
460.000000	 60.206508 
459.000000	 60.222458 
458.000000	 60.143113 
457.000000	 59.984779 
456.000000	 59.771466 
455.000000	 59.534955 
454.000000	 59.301948 
453.000000	 59.092330 
452.000000	 58.912324 
451.000000	 58.757567 
450.000000	 58.614683 
449.000000	 58.467769 
448.000000	 58.307504 
447.000000	 58.136224 
446.000000	 57.972812 
445.000000	 57.849693 
444.000000	 57.808279 
443.000000	 57.887554 
442.000000	 58.113765 
441.000000	 58.490180 
440.000000	 58.992362 
439.000000	 59.568881 
438.000000	 60.153198 
437.000000	 60.672354 
436.000000	 61.062359 
435.000000	 61.275863 
434.000000	 61.295914 
433.000000	 61.128401 
432.000000	 60.800576 
431.000000	 60.347914 
430.000000	 59.810376 
429.000000	 59.221220 
428.000000	 58.608698 
427.000000	 57.993483 
426.000000	 57.393860 
425.000000	 56.831002 
424.000000	 56.337070 
423.000000	 55.943560 
422.000000	 55.674576 
421.000000	 55.543637 
420.000000	 55.548262 
419.000000	 55.665802 
418.000000	 55.856943 
417.000000	 56.074666 
416.000000	 56.276106 
415.000000	 56.440520 
414.000000	 56.575727 
413.000000	 56.702494 
412.000000	 56.853222 
411.000000	 57.074785 
410.000000	 57.408046 
409.000000	 57.860112 
408.000000	 58.409404 
407.000000	 59.007406 
406.000000	 59.592485 
405.000000	 60.127067 
404.000000	 60.577392 
403.000000	 60.935115 
402.000000	 61.179685 
401.000000	 61.284613 
400.000000	 61.195063 
399.000000	 60.840153 
398.000000	 60.147690 
397.000000	 59.081578 
396.000000	 57.645869 
395.000000	 55.893683 
394.000000	 53.954076 
393.000000	 52.032327 
392.000000	 50.328683 
391.000000	 49.014592 
390.000000	 48.241186 
389.000000	 48.128032 
388.000000	 48.845100 
387.000000	 50.569891 
386.000000	 53.355383 
385.000000	 57.111692 
384.000000	 61.644029 
383.000000	 66.621613 
382.000000	 71.597313 
381.000000	 76.043677 
380.000000	 79.521799 
379.000000	 81.660509 
378.000000	 82.117843 
377.000000	 80.767178 
376.000000	 77.690386 
375.000000	 73.292779 
374.000000	 68.385958 
373.000000	 63.848304 
372.000000	 60.692906 
371.000000	 59.312891 
370.000000	 59.390616 

