PE IR       SPECTRUM    SPECTRUM    ASCII       PEDS        1.60        
  -1
C-9A65~1.ASC
17/03/27
16:47:54.00
17/03/27
16:47:54.00
tln
$C-4040-8_t0028$<tbV0>[0.0,-7.8,8.0,0.0,27,1,0]
370.000000
64









2002,4.07    
MIRTGS : RIGHTBACK : INTERNAL 2
MIR : ON : INTERNAL 2
OPTKBR

0.200000
8
8.000000
FILLER
RATIO
SPECTRUM
UNLOCKED 256

DOUBLE
64
COMBINED
1
0
0


1.000000
RATIO


1
0
TRUE
51149
0
LEFT NOT FITTED RIGHT NOT FITTED 0
NONE
NONE
15600
12.000000
4.427000
51148
TRUE
1 0 8 72 0 0 0 0 

15798.010000






#HDR
-1
-1
#GR
CM-1
%T
0.00002384185791015625
0.0
5000.000000
-1.000000
4631
8
68.933463
22.839236
#DATA
5000.000000	63.619112 
4999.000000	63.576745 
4998.000000	63.544440 
4997.000000	63.524293 
4996.000000	63.517761 
4995.000000	63.525271 
4994.000000	63.545775 
4993.000000	63.576889 
4992.000000	63.614273 
4991.000000	63.652110 
4990.000000	63.684058 
4989.000000	63.704109 
4988.000000	63.708281 
4987.000000	63.695120 
4986.000000	63.666510 
4985.000000	63.626909 
4984.000000	63.582873 
4983.000000	63.541579 
4982.000000	63.509464 
4981.000000	63.490605 
4980.000000	63.486218 
4979.000000	63.494277 
4978.000000	63.509964 
4977.000000	63.527131 
4976.000000	63.539481 
4975.000000	63.542699 
4974.000000	63.534832 
4973.000000	63.517642 
4972.000000	63.495373 
4971.000000	63.474607 
4970.000000	63.462734 
4969.000000	63.466119 
4968.000000	63.488602 
4967.000000	63.530516 
4966.000000	63.588809 
4965.000000	63.657212 
4964.000000	63.728094 
4963.000000	63.793420 
4962.000000	63.846397 
4961.000000	63.882923 
4960.000000	63.902139 
4959.000000	63.905978 
4958.000000	63.898491 
4957.000000	63.884139 
4956.000000	63.866639 
4955.000000	63.848185 
4954.000000	63.829207 
4953.000000	63.808727 
4952.000000	63.785552 
4951.000000	63.759279 
4950.000000	63.731503 
4949.000000	63.705682 
4948.000000	63.687348 
4947.000000	63.682413 
4946.000000	63.696146 
4945.000000	63.731789 
4944.000000	63.788890 
4943.000000	63.863253 
4942.000000	63.946557 
4941.000000	64.027762 
4940.000000	64.094638 
4939.000000	64.136123 
4938.000000	64.144587 
4937.000000	64.117312 
4936.000000	64.057421 
4935.000000	63.973283 
4934.000000	63.877177 
4933.000000	63.782954 
4932.000000	63.703560 
4931.000000	63.648843 
4930.000000	63.623166 
4929.000000	63.625431 
4928.000000	63.649630 
4927.000000	63.686728 
4926.000000	63.726806 
4925.000000	63.761281 
4924.000000	63.784193 
4923.000000	63.793349 
4922.000000	63.789367 
4921.000000	63.775563 
4920.000000	63.755607 
4919.000000	63.733410 
4918.000000	63.712549 
4917.000000	63.695478 
4916.000000	63.684272 
4915.000000	63.679647 
4914.000000	63.681697 
4913.000000	63.689064 
4912.000000	63.699221 
4911.000000	63.709330 
4910.000000	63.716030 
4909.000000	63.717627 
4908.000000	63.713502 
4907.000000	63.706851 
4906.000000	63.703680 
4905.000000	63.712286 
4904.000000	63.741159 
4903.000000	63.796424 
4902.000000	63.879799 
4901.000000	63.987112 
4900.000000	64.108204 
4899.000000	64.228487 
4898.000000	64.331412 
4897.000000	64.402723 
4896.000000	64.432907 
4895.000000	64.418888 
4894.000000	64.364314 
4893.000000	64.278650 
4892.000000	64.175105 
4891.000000	64.068293 
4890.000000	63.971209 
4889.000000	63.893580 
4888.000000	63.840556 
4887.000000	63.813567 
4886.000000	63.810205 
4885.000000	63.825988 
4884.000000	63.855051 
4883.000000	63.891577 
4882.000000	63.929963 
4881.000000	63.964915 
4880.000000	63.991689 
4879.000000	64.005899 
4878.000000	64.004087 
4877.000000	63.983654 
4876.000000	63.944339 
4875.000000	63.888859 
4874.000000	63.823127 
4873.000000	63.755893 
4872.000000	63.698768 
4871.000000	63.663983 
4870.000000	63.662147 
4869.000000	63.698768 
4868.000000	63.773107 
4867.000000	63.876247 
4866.000000	63.992428 
4865.000000	64.101243 
4864.000000	64.181900 
4863.000000	64.217662 
4862.000000	64.199519 
4861.000000	64.128422 
4860.000000	64.013957 
4859.000000	63.873553 
4858.000000	63.728737 
4857.000000	63.600206 
4856.000000	63.503956 
4855.000000	63.448166 
4854.000000	63.433647 
4853.000000	63.453006 
4852.000000	63.493967 
4851.000000	63.541579 
4850.000000	63.581871 
4849.000000	63.603925 
4848.000000	63.601756 
4847.000000	63.573908 
4846.000000	63.523149 
4845.000000	63.455843 
4844.000000	63.380312 
4843.000000	63.305568 
4842.000000	63.239979 
4841.000000	63.190245 
4840.000000	63.161063 
4839.000000	63.154625 
4838.000000	63.171315 
4837.000000	63.209319 
4836.000000	63.266062 
4835.000000	63.337349 
4834.000000	63.419508 
4833.000000	63.508629 
4832.000000	63.601636 
4831.000000	63.695240 
4830.000000	63.786697 
4829.000000	63.873338 
4828.000000	63.952589 
4827.000000	64.022350 
4826.000000	64.080047 
4825.000000	64.123034 
4824.000000	64.148879 
4823.000000	64.156222 
4822.000000	64.144182 
4821.000000	64.112973 
4820.000000	64.064240 
4819.000000	64.001178 
4818.000000	63.928532 
4817.000000	63.852119 
4816.000000	63.778519 
4815.000000	63.713884 
4814.000000	63.663220 
4813.000000	63.629674 
4812.000000	63.613820 
4811.000000	63.614058 
4810.000000	63.626575 
4809.000000	63.646769 
4808.000000	63.669323 
4807.000000	63.690042 
4806.000000	63.706231 
4805.000000	63.716936 
4804.000000	63.722157 
4803.000000	63.722681 
4802.000000	63.719630 
4801.000000	63.713359 
4800.000000	63.703322 
4799.000000	63.688588 
4798.000000	63.668489 
4797.000000	63.643288 
4796.000000	63.614630 
4795.000000	63.585782 
4794.000000	63.561344 
4793.000000	63.546299 
4792.000000	63.544797 
4791.000000	63.559007 
4790.000000	63.588428 
4789.000000	63.629865 
4788.000000	63.677692 
4787.000000	63.724565 
4786.000000	63.762545 
4785.000000	63.785529 
4784.000000	63.789391 
4783.000000	63.772583 
4782.000000	63.736414 
4781.000000	63.684606 
4780.000000	63.622546 
4779.000000	63.556313 
4778.000000	63.491797 
4777.000000	63.434052 
4776.000000	63.387084 
4775.000000	63.353729 
4774.000000	63.335585 
4773.000000	63.333034 
4772.000000	63.345646 
4771.000000	63.372087 
4770.000000	63.410234 
4769.000000	63.456654 
4768.000000	63.507366 
4767.000000	63.558197 
4766.000000	63.605022 
4765.000000	63.644480 
4764.000000	63.675045 
4763.000000	63.697218 
4762.000000	63.713645 
4761.000000	63.728094 
4760.000000	63.744878 
4759.000000	63.767194 
4758.000000	63.796567 
4757.000000	63.831591 
4756.000000	63.868737 
4755.000000	63.902759 
4754.000000	63.928270 
4753.000000	63.940954 
4752.000000	63.938760 
4751.000000	63.922238 
4750.000000	63.895177 
4749.000000	63.862562 
4748.000000	63.829374 
4747.000000	63.799047 
4746.000000	63.773059 
4745.000000	63.749837 
4744.000000	63.725733 
4743.000000	63.695931 
4742.000000	63.656353 
4741.000000	63.604784 
4740.000000	63.541960 
4739.000000	63.471317 
4738.000000	63.398623 
4737.000000	63.330698 
4736.000000	63.273835 
4735.000000	63.232278 
4734.000000	63.207769 
4733.000000	63.199186 
4732.000000	63.203954 
4731.000000	63.217639 
4730.000000	63.236594 
4729.000000	63.258314 
4728.000000	63.282608 
4727.000000	63.310456 
4726.000000	63.344407 
4725.000000	63.386440 
4724.000000	63.437795 
4723.000000	63.497424 
4722.000000	63.562178 
4721.000000	63.627171 
4720.000000	63.686347 
4719.000000	63.734245 
4718.000000	63.766431 
4717.000000	63.780522 
4716.000000	63.776850 
4715.000000	63.758659 
4714.000000	63.731312 
4713.000000	63.701200 
4712.000000	63.675022 
4711.000000	63.658213 
4710.000000	63.653802 
4709.000000	63.661408 
4708.000000	63.677692 
4707.000000	63.697099 
4706.000000	63.713169 
4705.000000	63.720107 
4704.000000	63.714337 
4703.000000	63.695526 
4702.000000	63.666486 
4701.000000	63.632893 
4700.000000	63.601303 
4699.000000	63.577961 
4698.000000	63.566994 
4697.000000	63.569831 
4696.000000	63.585019 
4695.000000	63.608932 
4694.000000	63.637042 
4693.000000	63.665175 
4692.000000	63.690805 
4691.000000	63.713312 
4690.000000	63.733720 
4689.000000	63.754057 
4688.000000	63.775849 
4687.000000	63.799977 
4686.000000	63.826298 
4685.000000	63.853383 
4684.000000	63.878583 
4683.000000	63.899278 
4682.000000	63.912916 
4681.000000	63.917660 
4680.000000	63.912248 
4679.000000	63.896322 
4678.000000	63.870501 
4677.000000	63.836026 
4676.000000	63.795423 
4675.000000	63.751864 
4674.000000	63.710308 
4673.000000	63.676166 
4672.000000	63.655710 
4671.000000	63.655090 
4670.000000	63.679075 
4669.000000	63.730001 
4668.000000	63.806462 
4667.000000	63.902783 
4666.000000	64.009547 
4665.000000	64.115071 
4664.000000	64.207339 
4663.000000	64.276242 
4662.000000	64.315199 
4661.000000	64.322113 
4660.000000	64.298772 
4659.000000	64.249992 
4658.000000	64.182138 
4657.000000	64.101576 
4656.000000	64.013743 
4655.000000	63.922882 
4654.000000	63.832497 
4653.000000	63.745808 
4652.000000	63.666772 
4651.000000	63.599634 
4650.000000	63.548660 
4649.000000	63.517332 
4648.000000	63.506579 
4647.000000	63.515520 
4646.000000	63.539695 
4645.000000	63.573837 
4644.000000	63.611912 
4643.000000	63.649487 
4642.000000	63.684201 
4641.000000	63.715863 
4640.000000	63.745498 
4639.000000	63.774466 
4638.000000	63.803005 
4637.000000	63.830471 
4636.000000	63.855290 
4635.000000	63.875675 
4634.000000	63.890385 
4633.000000	63.899326 
4632.000000	63.903856 
4631.000000	63.906002 
4630.000000	63.907647 
4629.000000	63.909912 
4628.000000	63.912606 
4627.000000	63.914394 
4626.000000	63.913154 
4625.000000	63.906908 
4624.000000	63.894820 
4623.000000	63.878321 
4622.000000	63.861012 
4621.000000	63.847613 
4620.000000	63.843083 
4619.000000	63.851141 
4618.000000	63.873195 
4617.000000	63.907909 
4616.000000	63.951063 
4615.000000	63.996529 
4614.000000	64.037418 
4613.000000	64.067864 
4612.000000	64.084005 
4611.000000	64.084482 
4610.000000	64.071083 
4609.000000	64.048123 
4608.000000	64.021372 
4607.000000	63.996815 
4606.000000	63.978528 
4605.000000	63.968205 
4604.000000	63.964629 
4603.000000	63.964629 
4602.000000	63.964152 
4601.000000	63.959860 
4600.000000	63.949990 
4599.000000	63.935136 
4598.000000	63.917922 
4597.000000	63.902163 
4596.000000	63.891673 
4595.000000	63.888478 
4594.000000	63.892531 
4593.000000	63.900732 
4592.000000	63.908362 
4591.000000	63.909173 
4590.000000	63.897514 
4589.000000	63.869309 
4588.000000	63.822865 
4587.000000	63.760042 
4586.000000	63.685631 
4585.000000	63.607382 
4584.000000	63.533949 
4583.000000	63.474869 
4582.000000	63.438510 
4581.000000	63.431024 
4580.000000	63.455033 
4579.000000	63.508772 
4578.000000	63.586115 
4577.000000	63.676977 
4576.000000	63.769078 
4575.000000	63.849401 
4574.000000	63.907098 
4573.000000	63.935184 
4572.000000	63.932538 
4571.000000	63.903975 
4570.000000	63.859009 
4569.000000	63.810038 
4568.000000	63.768577 
4567.000000	63.743472 
4566.000000	63.737750 
4565.000000	63.749122 
4564.000000	63.769912 
4563.000000	63.789677 
4562.000000	63.797879 
4561.000000	63.787078 
4560.000000	63.754796 
4559.000000	63.703703 
4558.000000	63.641190 
4557.000000	63.576650 
4556.000000	63.519620 
4555.000000	63.476514 
4554.000000	63.450503 
4553.000000	63.441109 
4552.000000	63.444995 
4551.000000	63.457369 
4550.000000	63.474273 
4549.000000	63.493561 
4548.000000	63.514208 
4547.000000	63.535881 
4546.000000	63.557410 
4545.000000	63.576292 
4544.000000	63.588666 
4543.000000	63.590240 
4542.000000	63.576984 
4541.000000	63.547325 
4540.000000	63.503599 
4539.000000	63.451910 
4538.000000	63.401556 
4537.000000	63.362431 
4536.000000	63.342905 
4535.000000	63.347148 
4534.000000	63.373994 
4533.000000	63.417410 
4532.000000	63.467550 
4531.000000	63.514304 
4530.000000	63.549375 
4529.000000	63.570094 
4528.000000	63.579821 
4527.000000	63.587760 
4526.000000	63.605952 
4525.000000	63.646268 
4524.000000	63.716411 
4523.000000	63.817739 
4522.000000	63.943767 
4521.000000	64.081525 
4520.000000	64.213633 
4519.000000	64.322423 
4518.000000	64.393138 
4517.000000	64.417076 
4516.000000	64.393115 
4515.000000	64.327549 
4514.000000	64.232349 
4513.000000	64.122509 
4512.000000	64.012861 
4511.000000	63.916563 
4510.000000	63.842034 
4509.000000	63.793492 
4508.000000	63.769674 
4507.000000	63.766336 
4506.000000	63.776302 
4505.000000	63.791656 
4504.000000	63.804912 
4503.000000	63.809752 
4502.000000	63.803029 
4501.000000	63.784646 
4500.000000	63.757109 
4499.000000	63.724088 
4498.000000	63.689684 
4497.000000	63.656854 
4496.000000	63.626313 
4495.000000	63.596367 
4494.000000	63.563871 
4493.000000	63.525962 
4492.000000	63.481283 
4491.000000	63.431572 
4490.000000	63.381743 
4489.000000	63.339710 
4488.000000	63.313913 
4487.000000	63.311767 
4486.000000	63.337135 
4485.000000	63.388895 
4484.000000	63.461136 
4483.000000	63.543438 
4482.000000	63.622951 
4481.000000	63.686871 
4480.000000	63.725686 
4479.000000	63.733696 
4478.000000	63.709998 
4477.000000	63.657784 
4476.000000	63.583374 
4475.000000	63.494277 
4474.000000	63.397860 
4473.000000	63.300347 
4472.000000	63.206672 
4471.000000	63.120388 
4470.000000	63.044381 
4469.000000	62.981319 
4468.000000	62.934207 
4467.000000	62.905645 
4466.000000	62.897944 
4465.000000	62.911701 
4464.000000	62.946391 
4463.000000	62.999868 
4462.000000	63.069391 
4461.000000	63.151168 
4460.000000	63.241410 
4459.000000	63.336277 
4458.000000	63.432002 
4457.000000	63.525080 
4456.000000	63.611841 
4455.000000	63.688778 
4454.000000	63.751864 
4453.000000	63.797950 
4452.000000	63.823771 
4451.000000	63.827109 
4450.000000	63.806843 
4449.000000	63.763856 
4448.000000	63.701963 
4447.000000	63.628506 
4446.000000	63.553524 
4445.000000	63.488554 
4444.000000	63.443803 
4443.000000	63.426017 
4442.000000	63.436532 
4441.000000	63.470983 
4440.000000	63.520073 
4439.000000	63.571786 
4438.000000	63.613653 
4437.000000	63.635993 
4436.000000	63.633012 
4435.000000	63.605022 
4434.000000	63.557219 
4433.000000	63.499546 
4432.000000	63.444304 
4431.000000	63.403439 
4430.000000	63.386464 
4429.000000	63.397431 
4428.000000	63.435673 
4427.000000	63.494181 
4426.000000	63.562417 
4425.000000	63.626718 
4424.000000	63.673639 
4423.000000	63.692402 
4422.000000	63.676476 
4421.000000	63.626790 
4420.000000	63.551473 
4419.000000	63.463664 
4418.000000	63.378620 
4417.000000	63.306856 
4416.000000	63.251733 
4415.000000	63.207483 
4414.000000	63.161873 
4413.000000	63.104796 
4412.000000	63.032054 
4411.000000	62.948203 
4410.000000	62.865304 
4409.000000	62.797832 
4408.000000	62.759160 
4407.000000	62.754774 
4406.000000	62.783265 
4405.000000	62.834072 
4404.000000	62.893843 
4403.000000	62.953925 
4402.000000	63.009715 
4401.000000	63.061356 
4400.000000	63.111519 
4399.000000	63.162469 
4398.000000	63.213753 
4397.000000	63.259410 
4396.000000	63.291597 
4395.000000	63.300895 
4394.000000	63.284611 
4393.000000	63.249611 
4392.000000	63.210248 
4391.000000	63.186883 
4390.000000	63.186383 
4389.000000	63.197851 
4388.000000	63.190007 
4387.000000	63.120198 
4386.000000	62.945365 
4385.000000	62.641000 
4384.000000	62.213897 
4383.000000	61.710715 
4382.000000	61.209654 
4381.000000	60.810017 
4380.000000	60.602879 
4379.000000	60.656642 
4378.000000	61.002111 
4377.000000	61.621952 
4376.000000	62.456655 
4375.000000	63.407588 
4374.000000	64.359164 
4373.000000	65.191936 
4372.000000	65.802049 
4371.000000	66.120767 
4370.000000	66.119289 
4369.000000	65.822744 
4368.000000	65.296936 
4367.000000	64.651846 
4366.000000	64.019203 
4365.000000	63.536286 
4364.000000	63.321471 
4363.000000	63.449859 
4362.000000	63.938665 
4361.000000	64.739251 
4360.000000	65.745735 
4359.000000	66.812157 
4358.000000	67.781019 
4357.000000	68.512296 
4356.000000	68.909621 
4355.000000	68.933463 
4354.000000	68.605709 
4353.000000	67.998790 
4352.000000	67.217087 
4351.000000	66.375589 
4350.000000	65.574908 
4349.000000	64.894032 
4348.000000	64.372777 
4347.000000	64.022350 
4346.000000	63.823080 
4345.000000	63.742089 
4344.000000	63.740086 
4343.000000	63.782930 
4342.000000	63.845086 
4341.000000	63.903808 
4340.000000	63.949632 
4339.000000	63.979077 
4338.000000	63.995742 
4337.000000	64.003348 
4336.000000	64.006805 
4335.000000	64.008522 
4334.000000	64.009833 
4333.000000	64.010405 
4332.000000	64.007544 
4331.000000	63.997197 
4330.000000	63.975477 
4329.000000	63.939595 
4328.000000	63.890004 
4327.000000	63.829803 
4326.000000	63.761830 
4325.000000	63.689851 
4324.000000	63.619947 
4323.000000	63.558197 
4322.000000	63.510084 
4321.000000	63.478589 
4320.000000	63.462066 
4319.000000	63.456010 
4318.000000	63.456177 
4317.000000	63.456964 
4316.000000	63.450765 
4315.000000	63.432049 
4314.000000	63.398599 
4313.000000	63.352084 
4312.000000	63.297176 
4311.000000	63.241863 
4310.000000	63.195204 
4309.000000	63.166856 
4308.000000	63.164997 
4307.000000	63.194990 
4306.000000	63.257884 
4305.000000	63.350605 
4304.000000	63.465499 
4303.000000	63.591718 
4302.000000	63.716220 
4301.000000	63.825488 
4300.000000	63.907623 
4299.000000	63.954186 
4298.000000	63.961362 
4297.000000	63.930463 
4296.000000	63.868141 
4295.000000	63.785600 
4294.000000	63.696265 
4293.000000	63.613796 
4292.000000	63.549423 
4291.000000	63.511276 
4290.000000	63.502073 
4289.000000	63.519859 
4288.000000	63.558316 
4287.000000	63.608789 
4286.000000	63.662195 
4285.000000	63.710951 
4284.000000	63.750100 
4283.000000	63.777112 
4282.000000	63.792419 
4281.000000	63.798093 
4280.000000	63.796734 
4279.000000	63.789987 
4278.000000	63.778305 
4277.000000	63.761019 
4276.000000	63.736915 
4275.000000	63.705444 
4274.000000	63.667869 
4273.000000	63.627696 
4272.000000	63.590145 
4271.000000	63.561248 
4270.000000	63.546562 
4269.000000	63.549613 
4268.000000	63.570451 
4267.000000	63.605642 
4266.000000	63.649106 
4265.000000	63.692927 
4264.000000	63.729667 
4263.000000	63.752698 
4262.000000	63.757371 
4261.000000	63.741207 
4260.000000	63.704323 
4259.000000	63.648080 
4258.000000	63.574528 
4257.000000	63.486456 
4256.000000	63.387346 
4255.000000	63.281702 
4254.000000	63.175082 
4253.000000	63.073968 
4252.000000	62.985038 
4251.000000	62.913918 
4250.000000	62.864565 
4249.000000	62.837624 
4248.000000	62.831330 
4247.000000	62.841534 
4246.000000	62.863588 
4245.000000	62.892675 
4244.000000	62.925577 
4243.000000	62.960290 
4242.000000	62.996721 
4241.000000	63.034844 
4240.000000	63.075232 
4239.000000	63.117599 
4238.000000	63.161134 
4237.000000	63.204503 
4236.000000	63.246154 
4235.000000	63.284873 
4234.000000	63.319730 
4233.000000	63.350605 
4232.000000	63.377618 
4231.000000	63.401293 
4230.000000	63.421678 
4229.000000	63.438344 
4228.000000	63.450527 
4227.000000	63.457536 
4226.000000	63.459038 
4225.000000	63.455390 
4224.000000	63.447189 
4223.000000	63.434863 
4222.000000	63.419127 
4221.000000	63.400650 
4220.000000	63.379597 
4219.000000	63.355970 
4218.000000	63.330268 
4217.000000	63.303613 
4216.000000	63.277578 
4215.000000	63.254499 
4214.000000	63.236784 
4213.000000	63.226890 
4212.000000	63.227105 
4211.000000	63.238549 
4210.000000	63.261127 
4209.000000	63.292622 
4208.000000	63.329219 
4207.000000	63.365149 
4206.000000	63.393735 
4205.000000	63.407778 
4204.000000	63.400840 
4203.000000	63.368487 
4202.000000	63.309383 
4201.000000	63.226485 
4200.000000	63.127017 
4199.000000	63.021802 
4198.000000	62.923645 
4197.000000	62.845110 
4196.000000	62.796211 
4195.000000	62.782645 
4194.000000	62.804651 
4193.000000	62.857174 
4192.000000	62.930917 
4191.000000	63.014221 
4190.000000	63.095378 
4189.000000	63.164138 
4188.000000	63.214111 
4187.000000	63.242101 
4186.000000	63.249635 
4185.000000	63.241076 
4184.000000	63.223576 
4183.000000	63.205027 
4182.000000	63.192987 
4181.000000	63.193559 
4180.000000	63.209795 
4179.000000	63.242316 
4178.000000	63.287734 
4177.000000	63.340115 
4176.000000	63.391184 
4175.000000	63.432431 
4174.000000	63.456797 
4173.000000	63.460421 
4172.000000	63.443660 
4171.000000	63.411211 
4170.000000	63.371133 
4169.000000	63.332748 
4168.000000	63.305020 
4167.000000	63.293981 
4166.000000	63.301372 
4165.000000	63.323903 
4164.000000	63.354873 
4163.000000	63.385438 
4162.000000	63.407015 
4161.000000	63.413429 
4160.000000	63.401913 
4159.000000	63.374209 
4158.000000	63.336157 
4157.000000	63.296198 
4156.000000	63.262486 
4155.000000	63.241696 
4154.000000	63.237452 
4153.000000	63.249540 
4152.000000	63.274478 
4151.000000	63.306450 
4150.000000	63.338899 
4149.000000	63.365936 
4148.000000	63.383674 
4147.000000	63.390278 
4146.000000	63.386249 
4145.000000	63.373494 
4144.000000	63.354802 
4143.000000	63.333773 
4142.000000	63.314270 
4141.000000	63.299822 
4140.000000	63.293147 
4139.000000	63.296127 
4138.000000	63.308930 
4137.000000	63.330245 
4136.000000	63.356709 
4135.000000	63.383078 
4134.000000	63.402962 
4133.000000	63.410186 
4132.000000	63.400268 
4131.000000	63.371396 
4130.000000	63.325285 
4129.000000	63.267064 
4128.000000	63.204598 
4127.000000	63.146448 
4126.000000	63.100862 
4125.000000	63.073968 
4124.000000	63.068747 
4123.000000	63.084602 
4122.000000	63.117599 
4121.000000	63.161635 
4120.000000	63.208532 
4119.000000	63.249659 
4118.000000	63.276529 
4117.000000	63.282299 
4116.000000	63.262629 
4115.000000	63.216948 
4114.000000	63.148522 
4113.000000	63.064455 
4112.000000	62.974977 
4111.000000	62.891435 
4110.000000	62.825036 
4109.000000	62.784194 
4108.000000	62.773346 
4107.000000	62.792038 
4106.000000	62.834811 
4105.000000	62.893271 
4104.000000	62.957501 
4103.000000	63.018894 
4102.000000	63.071107 
4101.000000	63.112139 
4100.000000	63.143420 
4099.000000	63.169384 
4098.000000	63.195276 
4097.000000	63.225317 
4096.000000	63.261127 
4095.000000	63.301301 
4094.000000	63.341975 
4093.000000	63.377332 
4092.000000	63.401603 
4091.000000	63.410568 
4090.000000	63.402843 
4089.000000	63.380289 
4088.000000	63.347458 
4087.000000	63.310527 
4086.000000	63.275742 
4085.000000	63.248157 
4084.000000	63.230681 
4083.000000	63.223934 
4082.000000	63.226103 
4081.000000	63.234114 
4080.000000	63.244104 
4079.000000	63.252878 
4078.000000	63.258361 
4077.000000	63.259291 
4076.000000	63.255715 
4075.000000	63.248157 
4074.000000	63.237905 
4073.000000	63.226461 
4072.000000	63.215470 
4071.000000	63.206100 
4070.000000	63.199734 
4069.000000	63.197779 
4068.000000	63.201260 
4067.000000	63.210439 
4066.000000	63.224792 
4065.000000	63.242840 
4064.000000	63.262176 
4063.000000	63.279652 
4062.000000	63.292026 
4061.000000	63.296556 
4060.000000	63.291573 
4059.000000	63.277006 
4058.000000	63.254237 
4057.000000	63.225936 
4056.000000	63.195776 
4055.000000	63.167428 
4054.000000	63.143801 
4053.000000	63.126444 
4052.000000	63.115930 
4051.000000	63.111352 
4050.000000	63.110685 
4049.000000	63.111424 
4048.000000	63.111162 
4047.000000	63.107752 
4046.000000	63.099622 
4045.000000	63.085961 
4044.000000	63.066601 
4043.000000	63.042330 
4042.000000	63.014769 
4041.000000	62.986111 
4040.000000	62.958908 
4039.000000	62.935853 
4038.000000	62.919545 
4037.000000	62.911844 
4036.000000	62.913513 
4035.000000	62.924242 
4034.000000	62.942790 
4033.000000	62.966966 
4032.000000	62.994337 
4031.000000	63.022541 
4030.000000	63.050079 
4029.000000	63.076043 
4028.000000	63.100647 
4027.000000	63.124537 
4026.000000	63.149094 
4025.000000	63.175702 
4024.000000	63.205432 
4023.000000	63.238906 
4022.000000	63.275647 
4021.000000	63.314867 
4020.000000	63.354277 
4019.000000	63.390803 
4018.000000	63.420200 
4017.000000	63.438248 
4016.000000	63.440918 
4015.000000	63.425421 
4014.000000	63.390851 
4013.000000	63.338947 
4012.000000	63.273644 
4011.000000	63.200664 
4010.000000	63.126802 
4009.000000	63.058638 
4008.000000	63.001513 
4007.000000	62.958288 
4006.000000	62.929224 
4005.000000	62.912178 
4004.000000	62.903237 
4003.000000	62.898087 
4002.000000	62.892675 
4001.000000	62.884950 
4000.000000	62.874531 
3999.000000	62.863397 
3998.000000	62.854337 
3997.000000	62.850570 
3996.000000	62.854290 
3995.000000	62.866020 
3994.000000	62.884116 
3993.000000	62.904953 
3992.000000	62.924098 
3991.000000	62.937140 
3990.000000	62.941026 
3989.000000	62.935280 
3988.000000	62.922286 
3987.000000	62.906718 
3986.000000	62.894129 
3985.000000	62.889647 
3984.000000	62.896394 
3983.000000	62.914514 
3982.000000	62.941145 
3981.000000	62.971067 
3980.000000	62.998270 
3979.000000	63.017964 
3978.000000	63.027691 
3977.000000	63.027930 
3976.000000	63.022136 
3975.000000	63.015675 
3974.000000	63.014245 
3973.000000	63.021898 
3972.000000	63.040041 
3971.000000	63.067388 
3970.000000	63.100028 
3969.000000	63.133001 
3968.000000	63.161015 
3967.000000	63.180708 
3966.000000	63.190293 
3965.000000	63.189959 
3964.000000	63.181042 
3963.000000	63.165521 
3962.000000	63.144969 
3961.000000	63.120388 
3960.000000	63.091969 
3959.000000	63.059639 
3958.000000	63.023424 
3957.000000	62.984061 
3956.000000	62.942957 
3955.000000	62.902235 
3954.000000	62.864208 
3953.000000	62.831163 
3952.000000	62.804579 
3951.000000	62.785458 
3950.000000	62.774229 
3949.000000	62.771296 
3948.000000	62.776684 
3947.000000	62.790369 
3946.000000	62.812304 
3945.000000	62.842035 
3944.000000	62.878227 
3943.000000	62.918829 
3942.000000	62.961053 
3941.000000	63.002085 
3940.000000	63.039278 
3939.000000	63.070583 
3938.000000	63.094806 
3937.000000	63.111567 
3936.000000	63.121271 
3935.000000	63.124537 
3934.000000	63.122081 
3933.000000	63.114452 
3932.000000	63.102078 
3931.000000	63.085603 
3930.000000	63.065981 
3929.000000	63.044643 
3928.000000	63.023543 
3927.000000	63.004612 
3926.000000	62.989521 
3925.000000	62.979149 
3924.000000	62.973260 
3923.000000	62.970352 
3922.000000	62.968206 
3921.000000	62.964248 
3920.000000	62.956690 
3919.000000	62.944436 
3918.000000	62.928295 
3917.000000	62.910032 
3916.000000	62.892746 
3915.000000	62.880134 
3914.000000	62.875866 
3913.000000	62.882423 
3912.000000	62.900924 
3911.000000	62.931013 
3910.000000	62.970566 
3909.000000	63.015937 
3908.000000	63.062310 
3907.000000	63.104510 
3906.000000	63.137412 
3905.000000	63.156723 
3904.000000	63.159871 
3903.000000	63.146352 
3902.000000	63.118028 
3901.000000	63.078856 
3900.000000	63.034558 
3899.000000	62.991476 
3898.000000	62.955808 
3897.000000	62.932276 
3896.000000	62.923383 
3895.000000	62.928915 
3894.000000	62.946343 
3893.000000	62.971091 
3892.000000	62.997865 
3891.000000	63.021397 
3890.000000	63.037657 
3889.000000	63.044381 
3888.000000	63.040995 
3887.000000	63.029003 
3886.000000	63.010931 
3885.000000	62.990140 
3884.000000	62.970089 
3883.000000	62.953519 
3882.000000	62.942361 
3881.000000	62.937140 
3880.000000	62.937331 
3879.000000	62.940955 
3878.000000	62.945318 
3877.000000	62.947249 
3876.000000	62.944149 
3875.000000	62.934088 
3874.000000	62.916493 
3873.000000	62.892460 
3872.000000	62.864565 
3871.000000	62.836432 
3870.000000	62.811779 
3869.000000	62.793755 
3868.000000	62.784123 
3867.000000	62.782955 
3866.000000	62.788939 
3865.000000	62.799811 
3864.000000	62.813115 
3863.000000	62.826657 
3862.000000	62.838816 
3861.000000	62.848734 
3860.000000	62.855958 
3859.000000	62.859821 
3858.000000	62.859368 
3857.000000	62.853479 
3856.000000	62.840938 
3855.000000	62.821245 
3854.000000	62.794685 
3853.000000	62.762689 
3852.000000	62.728047 
3851.000000	62.694621 
3850.000000	62.666344 
3849.000000	62.646436 
3848.000000	62.636923 
3847.000000	62.638092 
3846.000000	62.648749 
3845.000000	62.666463 
3844.000000	62.688088 
3843.000000	62.710428 
3842.000000	62.730383 
3841.000000	62.745237 
3840.000000	62.752723 
3839.000000	62.751412 
3838.000000	62.740349 
3837.000000	62.719488 
3836.000000	62.689733 
3835.000000	62.652921 
3834.000000	62.611579 
3833.000000	62.568759 
3832.000000	62.527680 
3831.000000	62.491655 
3830.000000	62.463784 
3829.000000	62.446689 
3828.000000	62.442183 
3827.000000	62.451219 
3826.000000	62.473773 
3825.000000	62.508797 
3824.000000	62.554001 
3823.000000	62.606191 
3822.000000	62.661457 
3821.000000	62.715721 
3820.000000	62.765049 
3819.000000	62.806558 
3818.000000	62.838602 
3817.000000	62.860989 
3816.000000	62.874698 
3815.000000	62.881541 
3814.000000	62.883305 
3813.000000	62.881731 
3812.000000	62.877821 
3811.000000	62.872266 
3810.000000	62.865090 
3809.000000	62.856650 
3808.000000	62.847137 
3807.000000	62.837171 
3806.000000	62.827181 
3805.000000	62.817621 
3804.000000	62.808775 
3803.000000	62.800574 
3802.000000	62.792754 
3801.000000	62.784957 
3800.000000	62.777113 
3799.000000	62.769508 
3798.000000	62.762665 
3797.000000	62.757420 
3796.000000	62.754034 
3795.000000	62.752032 
3794.000000	62.749886 
3793.000000	62.745189 
3792.000000	62.735271 
3791.000000	62.717938 
3790.000000	62.692213 
3789.000000	62.658929 
3788.000000	62.620854 
3787.000000	62.582278 
3786.000000	62.548017 
3785.000000	62.522673 
3784.000000	62.509417 
3783.000000	62.509226 
3782.000000	62.520861 
3781.000000	62.540745 
3780.000000	62.563514 
3779.000000	62.583398 
3778.000000	62.595176 
3777.000000	62.595319 
3776.000000	62.582516 
3775.000000	62.558197 
3774.000000	62.525939 
3773.000000	62.490987 
3772.000000	62.458944 
3771.000000	62.434959 
3770.000000	62.422513 
3769.000000	62.422943 
3768.000000	62.435483 
3767.000000	62.457466 
3766.000000	62.485122 
3765.000000	62.514615 
3764.000000	62.542772 
3763.000000	62.567663 
3762.000000	62.588691 
3761.000000	62.606167 
3760.000000	62.620949 
3759.000000	62.633943 
3758.000000	62.645792 
3757.000000	62.656736 
3756.000000	62.666654 
3755.000000	62.675786 
3754.000000	62.684345 
3753.000000	62.692809 
3752.000000	62.701559 
3751.000000	62.711215 
3750.000000	62.721896 
3749.000000	62.733650 
3748.000000	62.745904 
3747.000000	62.757730 
3746.000000	62.767505 
3745.000000	62.773346 
3744.000000	62.773203 
3743.000000	62.765407 
3742.000000	62.748956 
3741.000000	62.723970 
3740.000000	62.691879 
3739.000000	62.655591 
3738.000000	62.618803 
3737.000000	62.585830 
3736.000000	62.560653 
3735.000000	62.546324 
3734.000000	62.544679 
3733.000000	62.555932 
3732.000000	62.578463 
3731.000000	62.609195 
3730.000000	62.644338 
3729.000000	62.679553 
3728.000000	62.710690 
3727.000000	62.734150 
3726.000000	62.747120 
3725.000000	62.748122 
3724.000000	62.736845 
3723.000000	62.714648 
3722.000000	62.684440 
3721.000000	62.650251 
3720.000000	62.616920 
3719.000000	62.588930 
3718.000000	62.569880 
3717.000000	62.561464 
3716.000000	62.563300 
3715.000000	62.573194 
3714.000000	62.587785 
3713.000000	62.603282 
3712.000000	62.616395 
3711.000000	62.625026 
3710.000000	62.628483 
3709.000000	62.627458 
3708.000000	62.623715 
3707.000000	62.619256 
3706.000000	62.615895 
3705.000000	62.614893 
3704.000000	62.616777 
3703.000000	62.621235 
3702.000000	62.627434 
3701.000000	62.634325 
3700.000000	62.640929 
3699.000000	62.646746 
3698.000000	62.651419 
3697.000000	62.654733 
3696.000000	62.656569 
3695.000000	62.656998 
3694.000000	62.655854 
3693.000000	62.652730 
3692.000000	62.646842 
3691.000000	62.637233 
3690.000000	62.622857 
3689.000000	62.603044 
3688.000000	62.577724 
3687.000000	62.547731 
3686.000000	62.514948 
3685.000000	62.482237 
3684.000000	62.452888 
3683.000000	62.430047 
3682.000000	62.416172 
3681.000000	62.412619 
3680.000000	62.419152 
3679.000000	62.434148 
3678.000000	62.455034 
3677.000000	62.478518 
3676.000000	62.501287 
3675.000000	62.520480 
3674.000000	62.534070 
3673.000000	62.540531 
3672.000000	62.539482 
3671.000000	62.530994 
3670.000000	62.515521 
3669.000000	62.493896 
3668.000000	62.467432 
3667.000000	62.437582 
3666.000000	62.406325 
3665.000000	62.375688 
3664.000000	62.347769 
3663.000000	62.324285 
3662.000000	62.306427 
3661.000000	62.294507 
3660.000000	62.288260 
3659.000000	62.286901 
3658.000000	62.289571 
3657.000000	62.295722 
3656.000000	62.305617 
3655.000000	62.320089 
3654.000000	62.340474 
3653.000000	62.367844 
3652.000000	62.402439 
3651.000000	62.443256 
3650.000000	62.487530 
3649.000000	62.531280 
3648.000000	62.569475 
3647.000000	62.597322 
3646.000000	62.610983 
3645.000000	62.608408 
3644.000000	62.589669 
3643.000000	62.557125 
3642.000000	62.514686 
3641.000000	62.467169 
3640.000000	62.419390 
3639.000000	62.375378 
3638.000000	62.337875 
3637.000000	62.308335 
3636.000000	62.286877 
3635.000000	62.272977 
3634.000000	62.265849 
3633.000000	62.264776 
3632.000000	62.269330 
3631.000000	62.279367 
3630.000000	62.294745 
3629.000000	62.315154 
3628.000000	62.339711 
3627.000000	62.366771 
3626.000000	62.394070 
3625.000000	62.418913 
3624.000000	62.438678 
3623.000000	62.451291 
3622.000000	62.455916 
3621.000000	62.452816 
3620.000000	62.443709 
3619.000000	62.430906 
3618.000000	62.417149 
3617.000000	62.404513 
3616.000000	62.394380 
3615.000000	62.386727 
3614.000000	62.380790 
3613.000000	62.374973 
3612.000000	62.367677 
3611.000000	62.357640 
3610.000000	62.344479 
3609.000000	62.328600 
3608.000000	62.311291 
3607.000000	62.293982 
3606.000000	62.278127 
3605.000000	62.264871 
3604.000000	62.255072 
3603.000000	62.249255 
3602.000000	62.247943 
3601.000000	62.251567 
3600.000000	62.260508 
3599.000000	62.274789 
3598.000000	62.293910 
3597.000000	62.316346 
3596.000000	62.340092 
3595.000000	62.362933 
3594.000000	62.382698 
3593.000000	62.398028 
3592.000000	62.408185 
3591.000000	62.413620 
3590.000000	62.415051 
3589.000000	62.413668 
3588.000000	62.409901 
3587.000000	62.403345 
3586.000000	62.392759 
3585.000000	62.376761 
3584.000000	62.354207 
3583.000000	62.325024 
3582.000000	62.290525 
3581.000000	62.253808 
3580.000000	62.218809 
3579.000000	62.189459 
3578.000000	62.168860 
3577.000000	62.158560 
3576.000000	62.158322 
3575.000000	62.166190 
3574.000000	62.179255 
3573.000000	62.194180 
3572.000000	62.207937 
3571.000000	62.218189 
3570.000000	62.223291 
3569.000000	62.222647 
3568.000000	62.216186 
3567.000000	62.204790 
3566.000000	62.189435 
3565.000000	62.171840 
3564.000000	62.154150 
3563.000000	62.138891 
3562.000000	62.128567 
3561.000000	62.125182 
3560.000000	62.129926 
3559.000000	62.142682 
3558.000000	62.161874 
3557.000000	62.184929 
3556.000000	62.208676 
3555.000000	62.230157 
3554.000000	62.247061 
3553.000000	62.258076 
3552.000000	62.262773 
3551.000000	62.261652 
3550.000000	62.256002 
3549.000000	62.247276 
3548.000000	62.237071 
3547.000000	62.227177 
3546.000000	62.219142 
3545.000000	62.213969 
3544.000000	62.211918 
3543.000000	62.212562 
3542.000000	62.214899 
3541.000000	62.217688 
3540.000000	62.219762 
3539.000000	62.220025 
3538.000000	62.218093 
3537.000000	62.214422 
3536.000000	62.210011 
3535.000000	62.206268 
3534.000000	62.204360 
3533.000000	62.205290 
3532.000000	62.209081 
3531.000000	62.215042 
3530.000000	62.221455 
3529.000000	62.226080 
3528.000000	62.226557 
3527.000000	62.221240 
3526.000000	62.209606 
3525.000000	62.192726 
3524.000000	62.173128 
3523.000000	62.154388 
3522.000000	62.140607 
3521.000000	62.135410 
3520.000000	62.141036 
3519.000000	62.157702 
3518.000000	62.183618 
3517.000000	62.214946 
3516.000000	62.246680 
3515.000000	62.273144 
3514.000000	62.288999 
3513.000000	62.290215 
3512.000000	62.274575 
3511.000000	62.242555 
3510.000000	62.197065 
3509.000000	62.143301 
3508.000000	62.087678 
3507.000000	62.036967 
3506.000000	61.997103 
3505.000000	61.972236 
3504.000000	61.964058 
3503.000000	61.971735 
3502.000000	61.992168 
3501.000000	62.020683 
3500.000000	62.052059 
3499.000000	62.081265 
3498.000000	62.104153 
3497.000000	62.117886 
3496.000000	62.121057 
3495.000000	62.113595 
3494.000000	62.096858 
3493.000000	62.073254 
3492.000000	62.045979 
3491.000000	62.019014 
3490.000000	61.996412 
3489.000000	61.982131 
3488.000000	61.979007 
3487.000000	61.988139 
3486.000000	62.008357 
3485.000000	62.036061 
3484.000000	62.066102 
3483.000000	62.092399 
3482.000000	62.109708 
3481.000000	62.114405 
3480.000000	62.105751 
3479.000000	62.086033 
3478.000000	62.060046 
3477.000000	62.034153 
3476.000000	62.014412 
3475.000000	62.005138 
3474.000000	62.007975 
3473.000000	62.021708 
3472.000000	62.042641 
3471.000000	62.065672 
3470.000000	62.085652 
3469.000000	62.098574 
3468.000000	62.102270 
3467.000000	62.096691 
3466.000000	62.083292 
3465.000000	62.064552 
3464.000000	62.043213 
3463.000000	62.021827 
3462.000000	62.002372 
3461.000000	61.986112 
3460.000000	61.973762 
3459.000000	61.965298 
3458.000000	61.960482 
3457.000000	61.958742 
3456.000000	61.959266 
3455.000000	61.961007 
3454.000000	61.962485 
3453.000000	61.962556 
3452.000000	61.960268 
3451.000000	61.955499 
3450.000000	61.948800 
3449.000000	61.941480 
3448.000000	61.935281 
3447.000000	61.932063 
3446.000000	61.933207 
3445.000000	61.939120 
3444.000000	61.948990 
3443.000000	61.961054 
3442.000000	61.972928 
3441.000000	61.981868 
3440.000000	61.985635 
3439.000000	61.982941 
3438.000000	61.973714 
3437.000000	61.959505 
3436.000000	61.942648 
3435.000000	61.926102 
3434.000000	61.912202 
3433.000000	61.902379 
3432.000000	61.896324 
3431.000000	61.892342 
3430.000000	61.887860 
3429.000000	61.880040 
3428.000000	61.866688 
3427.000000	61.847043 
3426.000000	61.822104 
3425.000000	61.794590 
3424.000000	61.768388 
3423.000000	61.747193 
3422.000000	61.734271 
3421.000000	61.731266 
3420.000000	61.738324 
3419.000000	61.753797 
3418.000000	61.775183 
3417.000000	61.799812 
3416.000000	61.825394 
3415.000000	61.850428 
3414.000000	61.874079 
3413.000000	61.895871 
3412.000000	61.915159 
3411.000000	61.930799 
3410.000000	61.941218 
3409.000000	61.944484 
3408.000000	61.939263 
3407.000000	61.924695 
3406.000000	61.901450 
3405.000000	61.871170 
3404.000000	61.837029 
3403.000000	61.802434 
3402.000000	61.770653 
3401.000000	61.743736 
3400.000000	61.722493 
3399.000000	61.706256 
3398.000000	61.693429 
3397.000000	61.681962 
3396.000000	61.669921 
3395.000000	61.656308 
3394.000000	61.641311 
3393.000000	61.626195 
3392.000000	61.612653 
3391.000000	61.602449 
3390.000000	61.596632 
3389.000000	61.595225 
3388.000000	61.597204 
3387.000000	61.600303 
3386.000000	61.601829 
3385.000000	61.599254 
3384.000000	61.591076 
3383.000000	61.577296 
3382.000000	61.559724 
3381.000000	61.541342 
3380.000000	61.526107 
3379.000000	61.518120 
3378.000000	61.520338 
3377.000000	61.534309 
3376.000000	61.558961 
3375.000000	61.591339 
3374.000000	61.626219 
3373.000000	61.657691 
3372.000000	61.679697 
3371.000000	61.687445 
3370.000000	61.678099 
3369.000000	61.651372 
3368.000000	61.609745 
3367.000000	61.557698 
3366.000000	61.501383 
3365.000000	61.447358 
3364.000000	61.402130 
3363.000000	61.371135 
3362.000000	61.358070 
3361.000000	61.364340 
3360.000000	61.388969 
3359.000000	61.428546 
3358.000000	61.477780 
3357.000000	61.530041 
3356.000000	61.578345 
3355.000000	61.616444 
3354.000000	61.639666 
3353.000000	61.645889 
3352.000000	61.635327 
3351.000000	61.610627 
3350.000000	61.576366 
3349.000000	61.537766 
3348.000000	61.499905 
3347.000000	61.466312 
3346.000000	61.439347 
3345.000000	61.419129 
3344.000000	61.404395 
3343.000000	61.392545 
3342.000000	61.381006 
3341.000000	61.367321 
3340.000000	61.349940 
3339.000000	61.328220 
3338.000000	61.302375 
3337.000000	61.273145 
3336.000000	61.241483 
3335.000000	61.208534 
3334.000000	61.175656 
3333.000000	61.144280 
3332.000000	61.116242 
3331.000000	61.093711 
3330.000000	61.079072 
3329.000000	61.074328 
3328.000000	61.080813 
3327.000000	61.098384 
3326.000000	61.125683 
3325.000000	61.160206 
3324.000000	61.198806 
3323.000000	61.237764 
3322.000000	61.273670 
3321.000000	61.303663 
3320.000000	61.325931 
3319.000000	61.339735 
3318.000000	61.345553 
3317.000000	61.344838 
3316.000000	61.339926 
3315.000000	61.333727 
3314.000000	61.329078 
3313.000000	61.328387 
3312.000000	61.332988 
3311.000000	61.343193 
3310.000000	61.357855 
3309.000000	61.374998 
3308.000000	61.391973 
3307.000000	61.406326 
3306.000000	61.416292 
3305.000000	61.421251 
3304.000000	61.421847 
3303.000000	61.419653 
3302.000000	61.416554 
3301.000000	61.414289 
3300.000000	61.413884 
3299.000000	61.415386 
3298.000000	61.418223 
3297.000000	61.421298 
3296.000000	61.423826 
3295.000000	61.425352 
3294.000000	61.426281 
3293.000000	61.427092 
3292.000000	61.428403 
3291.000000	61.430096 
3290.000000	61.431288 
3289.000000	61.430096 
3288.000000	61.424040 
3287.000000	61.410975 
3286.000000	61.389923 
3285.000000	61.361479 
3284.000000	61.328172 
3283.000000	61.293721 
3282.000000	61.262392 
3281.000000	61.237788 
3280.000000	61.222100 
3279.000000	61.215543 
3278.000000	61.216354 
3277.000000	61.221241 
3276.000000	61.226582 
3275.000000	61.228847 
3274.000000	61.225938 
3273.000000	61.217117 
3272.000000	61.203265 
3271.000000	61.186146 
3270.000000	61.168336 
3269.000000	61.152267 
3268.000000	61.139702 
3267.000000	61.131834 
3266.000000	61.128473 
3265.000000	61.128926 
3264.000000	61.131429 
3263.000000	61.133933 
3262.000000	61.134171 
3261.000000	61.129975 
3260.000000	61.120367 
3259.000000	61.105680 
3258.000000	61.087775 
3257.000000	61.069750 
3256.000000	61.055493 
3255.000000	61.048698 
3254.000000	61.051869 
3253.000000	61.065649 
3252.000000	61.088585 
3251.000000	61.117267 
3250.000000	61.147069 
3249.000000	61.173248 
3248.000000	61.191868 
3247.000000	61.200785 
3246.000000	61.200046 
3245.000000	61.191630 
3244.000000	61.178922 
3243.000000	61.165571 
3242.000000	61.154842 
3241.000000	61.148548 
3240.000000	61.147022 
3239.000000	61.148881 
3238.000000	61.152029 
3237.000000	61.153554 
3236.000000	61.150932 
3235.000000	61.142277 
3234.000000	61.126708 
3233.000000	61.104750 
3232.000000	61.078047 
3231.000000	61.048960 
3230.000000	61.020255 
3229.000000	60.994315 
3228.000000	60.972595 
3227.000000	60.955286 
3226.000000	60.941553 
3225.000000	60.929608 
3224.000000	60.917377 
3223.000000	60.902976 
3222.000000	60.885286 
3221.000000	60.864472 
3220.000000	60.841822 
3219.000000	60.819554 
3218.000000	60.800409 
3217.000000	60.787081 
3216.000000	60.781764 
3215.000000	60.785388 
3214.000000	60.797309 
3213.000000	60.815334 
3212.000000	60.836267 
3211.000000	60.856389 
3210.000000	60.872292 
3209.000000	60.881280 
3208.000000	60.882282 
3207.000000	60.875821 
3206.000000	60.864067 
3205.000000	60.850095 
3204.000000	60.837244 
3203.000000	60.828185 
3202.000000	60.824298 
3201.000000	60.825204 
3200.000000	60.829091 
3199.000000	60.833191 
3198.000000	60.834622 
3197.000000	60.831093 
3196.000000	60.821747 
3195.000000	60.807204 
3194.000000	60.789084 
3193.000000	60.769867 
3192.000000	60.751819 
3191.000000	60.736942 
3190.000000	60.726523 
3189.000000	60.721659 
3188.000000	60.722827 
3187.000000	60.730576 
3186.000000	60.745382 
3185.000000	60.767483 
3184.000000	60.796594 
3183.000000	60.831189 
3182.000000	60.868573 
3181.000000	60.904979 
3180.000000	60.935950 
3179.000000	60.957312 
3178.000000	60.966300 
3177.000000	60.962104 
3176.000000	60.946393 
3175.000000	60.922670 
3174.000000	60.895800 
3173.000000	60.870623 
3172.000000	60.850882 
3171.000000	60.838508 
3170.000000	60.833072 
3169.000000	60.832500 
3168.000000	60.833358 
3167.000000	60.832357 
3166.000000	60.826873 
3165.000000	60.815525 
3164.000000	60.798382 
3163.000000	60.776615 
3162.000000	60.752224 
3161.000000	60.727071 
3160.000000	60.703039 
3159.000000	60.681581 
3158.000000	60.663723 
3157.000000	60.650467 
3156.000000	60.642576 
3155.000000	60.640668 
3154.000000	60.644793 
3153.000000	60.654306 
3152.000000	60.667824 
3151.000000	60.683202 
3150.000000	60.697937 
3149.000000	60.709381 
3148.000000	60.715627 
3147.000000	60.715818 
3146.000000	60.710334 
3145.000000	60.700559 
3144.000000	60.688281 
3143.000000	60.675096 
3142.000000	60.662150 
3141.000000	60.649824 
3140.000000	60.637998 
3139.000000	60.626196 
3138.000000	60.614418 
3137.000000	60.603284 
3136.000000	60.594010 
3135.000000	60.588169 
3134.000000	60.587143 
3133.000000	60.591721 
3132.000000	60.601878 
3131.000000	60.616469 
3130.000000	60.633349 
3129.000000	60.649871 
3128.000000	60.663485 
3127.000000	60.672211 
3126.000000	60.675024 
3125.000000	60.672092 
3124.000000	60.664510 
3123.000000	60.654187 
3122.000000	60.643291 
3121.000000	60.634040 
3120.000000	60.628247 
3119.000000	60.627222 
3118.000000	60.631370 
3117.000000	60.640358 
3116.000000	60.653209 
3115.000000	60.668230 
3114.000000	60.683584 
3113.000000	60.697627 
3112.000000	60.708975 
3111.000000	60.716986 
3110.000000	60.721302 
3109.000000	60.721421 
3108.000000	60.716533 
3107.000000	60.705685 
3106.000000	60.687613 
3105.000000	60.661339 
3104.000000	60.626602 
3103.000000	60.584330 
3102.000000	60.536909 
3101.000000	60.487937 
3100.000000	60.441660 
3099.000000	60.402369 
3098.000000	60.373592 
3097.000000	60.357522 
3096.000000	60.354399 
3095.000000	60.362410 
3094.000000	60.378074 
3093.000000	60.397100 
3092.000000	60.414934 
3091.000000	60.427832 
3090.000000	60.433316 
3089.000000	60.430932 
3088.000000	60.421872 
3087.000000	60.408854 
3086.000000	60.395431 
3085.000000	60.385155 
3084.000000	60.380768 
3083.000000	60.383486 
3082.000000	60.393071 
3081.000000	60.407376 
3080.000000	60.423231 
3079.000000	60.437226 
3078.000000	60.446763 
3077.000000	60.450458 
3076.000000	60.448479 
3075.000000	60.442280 
3074.000000	60.433816 
3073.000000	60.424971 
3072.000000	60.416841 
3071.000000	60.409426 
3070.000000	60.401630 
3069.000000	60.391879 
3068.000000	60.378956 
3067.000000	60.362148 
3066.000000	60.341668 
3065.000000	60.318708 
3064.000000	60.295557 
3063.000000	60.274791 
3062.000000	60.258793 
3061.000000	60.249257 
3060.000000	60.246825 
3059.000000	60.251188 
3058.000000	60.260891 
3057.000000	60.273861 
3056.000000	60.287308 
3055.000000	60.298395 
3054.000000	60.304284 
3053.000000	60.302758 
3052.000000	60.292363 
3051.000000	60.272979 
3050.000000	60.245871 
3049.000000	60.213446 
3048.000000	60.179114 
3047.000000	60.146403 
3046.000000	60.118699 
3045.000000	60.098457 
3044.000000	60.087251 
3043.000000	60.085630 
3042.000000	60.093426 
3041.000000	60.109949 
3040.000000	60.134124 
3039.000000	60.164594 
3038.000000	60.199642 
3037.000000	60.237050 
3036.000000	60.274100 
3035.000000	60.307455 
3034.000000	60.333657 
3033.000000	60.349297 
3032.000000	60.351872 
3031.000000	60.340070 
3030.000000	60.314464 
3029.000000	60.277390 
3028.000000	60.232686 
3027.000000	60.185194 
3026.000000	60.139918 
3025.000000	60.101127 
3024.000000	60.072135 
3023.000000	60.054373 
3022.000000	60.047841 
3021.000000	60.051035 
3020.000000	60.061359 
3019.000000	60.075831 
3018.000000	60.091567 
3017.000000	60.106325 
3016.000000	60.118532 
3015.000000	60.127592 
3014.000000	60.133552 
3013.000000	60.136771 
3012.000000	60.137391 
3011.000000	60.135293 
3010.000000	60.129904 
3009.000000	60.120344 
3008.000000	60.105681 
3007.000000	60.085415 
3006.000000	60.059714 
3005.000000	60.029697 
3004.000000	59.997510 
3003.000000	59.965968 
3002.000000	59.938335 
3001.000000	59.917521 
3000.000000	59.905695 
2999.000000	59.903860 
2998.000000	59.911656 
2997.000000	59.927201 
2996.000000	59.947752 
2995.000000	59.970021 
2994.000000	59.990739 
2993.000000	60.007405 
2992.000000	60.018587 
2991.000000	60.023927 
2990.000000	60.024166 
2989.000000	60.020685 
2988.000000	60.014939 
2987.000000	60.008072 
2986.000000	60.000538 
2985.000000	59.992361 
2984.000000	59.983158 
2983.000000	59.972429 
2982.000000	59.960317 
2981.000000	59.947609 
2980.000000	59.936046 
2979.000000	59.927964 
2978.000000	59.925985 
2977.000000	59.932351 
2976.000000	59.948134 
2975.000000	59.972858 
2974.000000	60.004329 
2973.000000	60.038495 
2972.000000	60.070538 
2971.000000	60.095262 
2970.000000	60.108184 
2969.000000	60.106158 
2968.000000	60.088229 
2967.000000	60.055708 
2966.000000	60.011744 
2965.000000	59.960913 
2964.000000	59.908294 
2963.000000	59.858489 
2962.000000	59.815311 
2961.000000	59.780693 
2960.000000	59.754943 
2959.000000	59.736752 
2958.000000	59.723901 
2957.000000	59.713554 
2956.000000	59.703135 
2955.000000	59.690904 
2954.000000	59.676218 
2953.000000	59.659481 
2952.000000	59.641909 
2951.000000	59.625101 
2950.000000	59.610652 
2949.000000	59.599328 
2948.000000	59.591126 
2947.000000	59.585070 
2946.000000	59.579467 
2945.000000	59.572625 
2944.000000	59.563064 
2943.000000	59.550213 
2942.000000	59.534502 
2941.000000	59.517216 
2940.000000	59.500217 
2939.000000	59.485220 
2938.000000	59.473347 
2937.000000	59.464812 
2936.000000	59.458613 
2935.000000	59.452867 
2934.000000	59.445548 
2933.000000	59.435153 
2932.000000	59.420847 
2931.000000	59.402751 
2930.000000	59.382247 
2929.000000	59.361386 
2928.000000	59.342145 
2927.000000	59.325909 
2926.000000	59.313154 
2925.000000	59.303641 
2924.000000	59.296298 
2923.000000	59.289979 
2922.000000	59.283852 
2921.000000	59.277653 
2920.000000	59.271669 
2919.000000	59.266734 
2918.000000	59.263515 
2917.000000	59.262657 
2916.000000	59.264135 
2915.000000	59.267687 
2914.000000	59.272575 
2913.000000	59.278011 
2912.000000	59.283375 
2911.000000	59.288573 
2910.000000	59.293842 
2909.000000	59.299945 
2908.000000	59.307813 
2907.000000	59.318494 
2906.000000	59.332799 
2905.000000	59.351134 
2904.000000	59.373474 
2903.000000	59.399461 
2902.000000	59.428358 
2901.000000	59.458899 
2900.000000	59.489583 
2899.000000	59.518647 
2898.000000	59.544110 
2897.000000	59.564089 
2896.000000	59.576797 
2895.000000	59.581089 
2894.000000	59.576439 
2893.000000	59.563469 
2892.000000	59.543609 
2891.000000	59.519147 
2890.000000	59.492659 
2889.000000	59.466719 
2888.000000	59.443354 
2887.000000	59.423756 
2886.000000	59.408235 
2885.000000	59.396433 
2884.000000	59.387326 
2883.000000	59.379792 
2882.000000	59.372925 
2881.000000	59.366226 
2880.000000	59.359979 
2879.000000	59.354591 
2878.000000	59.351015 
2877.000000	59.350204 
2876.000000	59.352850 
2875.000000	59.359002 
2874.000000	59.368062 
2873.000000	59.378504 
2872.000000	59.388113 
2871.000000	59.394335 
2870.000000	59.394645 
2869.000000	59.387254 
2868.000000	59.371304 
2867.000000	59.347414 
2866.000000	59.317541 
2865.000000	59.284877 
2864.000000	59.253263 
2863.000000	59.226012 
2862.000000	59.205627 
2861.000000	59.192848 
2860.000000	59.186840 
2859.000000	59.185218 
2858.000000	59.184694 
2857.000000	59.182024 
2856.000000	59.174799 
2855.000000	59.162187 
2854.000000	59.144830 
2853.000000	59.125018 
2852.000000	59.105730 
2851.000000	59.090352 
2850.000000	59.081745 
2849.000000	59.081673 
2848.000000	59.090495 
2847.000000	59.107160 
2846.000000	59.129452 
2845.000000	59.154462 
2844.000000	59.179162 
2843.000000	59.200716 
2842.000000	59.217047 
2841.000000	59.226799 
2840.000000	59.229993 
2839.000000	59.227752 
2838.000000	59.221887 
2837.000000	59.214878 
2836.000000	59.209060 
2835.000000	59.206366 
2834.000000	59.207510 
2833.000000	59.212446 
2832.000000	59.219622 
2831.000000	59.226870 
2830.000000	59.231543 
2829.000000	59.231352 
2828.000000	59.224891 
2827.000000	59.211897 
2826.000000	59.193325 
2825.000000	59.170913 
2824.000000	59.147119 
2823.000000	59.124279 
2822.000000	59.104466 
2821.000000	59.089183 
2820.000000	59.079432 
2819.000000	59.075880 
2818.000000	59.078812 
2817.000000	59.088373 
2816.000000	59.104204 
2815.000000	59.125518 
2814.000000	59.150552 
2813.000000	59.176969 
2812.000000	59.201836 
2811.000000	59.222197 
2810.000000	59.235477 
2809.000000	59.239912 
2808.000000	59.235167 
2807.000000	59.221935 
2806.000000	59.202003 
2805.000000	59.177494 
2804.000000	59.150409 
2803.000000	59.122323 
2802.000000	59.094262 
2801.000000	59.066939 
2800.000000	59.041261 
2799.000000	59.018468 
2798.000000	59.000205 
2797.000000	58.988189 
2796.000000	58.983659 
2795.000000	58.986735 
2794.000000	58.996152 
2793.000000	59.009504 
2792.000000	59.023571 
2791.000000	59.035086 
2790.000000	59.041547 
2789.000000	59.041547 
2788.000000	59.035134 
2787.000000	59.023571 
2786.000000	59.008836 
2785.000000	58.993172 
2784.000000	58.978557 
2783.000000	58.966183 
2782.000000	58.956313 
2781.000000	58.948445 
2780.000000	58.941411 
2779.000000	58.934092 
2778.000000	58.925557 
2777.000000	58.915472 
2776.000000	58.904075 
2775.000000	58.892083 
2774.000000	58.880496 
2773.000000	58.870124 
2772.000000	58.861565 
2771.000000	58.854937 
2770.000000	58.850002 
2769.000000	58.846211 
2768.000000	58.842873 
2767.000000	58.839273 
2766.000000	58.834791 
2765.000000	58.829116 
2764.000000	58.821988 
2763.000000	58.813548 
2762.000000	58.803820 
2761.000000	58.793258 
2760.000000	58.782339 
2759.000000	58.771777 
2758.000000	58.762431 
2757.000000	58.755230 
2756.000000	58.751106 
2755.000000	58.750724 
2754.000000	58.754158 
2753.000000	58.761191 
2752.000000	58.771133 
2751.000000	58.782887 
2750.000000	58.794999 
2749.000000	58.806037 
2748.000000	58.814716 
2747.000000	58.819842 
2746.000000	58.820652 
2745.000000	58.816599 
2744.000000	58.807468 
2743.000000	58.793210 
2742.000000	58.773994 
2741.000000	58.750271 
2740.000000	58.722805 
2739.000000	58.692860 
2738.000000	58.661866 
2737.000000	58.631467 
2736.000000	58.603382 
2735.000000	58.578920 
2734.000000	58.559203 
2733.000000	58.544373 
2732.000000	58.534455 
2731.000000	58.529067 
2730.000000	58.528137 
2729.000000	58.531475 
2728.000000	58.539605 
2727.000000	58.552861 
2726.000000	58.571648 
2725.000000	58.595776 
2724.000000	58.624005 
2723.000000	58.654189 
2722.000000	58.683180 
2721.000000	58.707213 
2720.000000	58.722686 
2719.000000	58.726954 
2718.000000	58.718681 
2717.000000	58.698344 
2716.000000	58.668184 
2715.000000	58.631706 
2714.000000	58.593106 
2713.000000	58.556413 
2712.000000	58.524751 
2711.000000	58.499979 
2710.000000	58.482480 
2709.000000	58.471536 
2708.000000	58.465552 
2707.000000	58.462738 
2706.000000	58.461356 
2705.000000	58.460545 
2704.000000	58.459925 
2703.000000	58.459711 
2702.000000	58.460378 
2701.000000	58.462429 
2700.000000	58.465838 
2699.000000	58.470010 
2698.000000	58.473896 
2697.000000	58.475947 
2696.000000	58.474659 
2695.000000	58.468699 
2694.000000	58.457326 
2693.000000	58.440423 
2692.000000	58.418583 
2691.000000	58.392977 
2690.000000	58.365154 
2689.000000	58.336901 
2688.000000	58.310103 
2687.000000	58.286499 
2686.000000	58.267378 
2685.000000	58.253526 
2684.000000	58.245038 
2683.000000	58.241438 
2682.000000	58.241844 
2681.000000	58.244919 
2680.000000	58.249473 
2679.000000	58.254384 
2678.000000	58.258962 
2677.000000	58.263087 
2676.000000	58.266997 
2675.000000	58.270955 
2674.000000	58.275151 
2673.000000	58.279561 
2672.000000	58.283615 
2671.000000	58.286643 
2670.000000	58.287882 
2669.000000	58.286881 
2668.000000	58.283495 
2667.000000	58.278417 
2666.000000	58.272480 
2665.000000	58.266639 
2664.000000	58.261537 
2663.000000	58.257460 
2662.000000	58.254218 
2661.000000	58.251166 
2660.000000	58.247637 
2659.000000	58.243107 
2658.000000	58.237409 
2657.000000	58.230519 
2656.000000	58.222651 
2655.000000	58.213853 
2654.000000	58.203792 
2653.000000	58.191704 
2652.000000	58.176517 
2651.000000	58.157229 
2650.000000	58.133196 
2649.000000	58.104586 
2648.000000	58.072710 
2647.000000	58.039689 
2646.000000	58.008408 
2645.000000	57.981944 
2644.000000	57.962822 
2643.000000	57.952737 
2642.000000	57.952189 
2641.000000	57.960557 
2640.000000	57.976007 
2639.000000	57.995963 
2638.000000	58.017301 
2637.000000	58.036923 
2636.000000	58.052062 
2635.000000	58.060646 
2634.000000	58.061623 
2633.000000	58.054900 
2632.000000	58.041405 
2631.000000	58.022785 
2630.000000	58.001089 
2629.000000	57.978677 
2628.000000	57.957577 
2627.000000	57.939505 
2626.000000	57.925462 
2625.000000	57.915854 
2624.000000	57.910370 
2623.000000	57.908272 
2622.000000	57.908487 
2621.000000	57.909727 
2620.000000	57.910966 
2619.000000	57.911372 
2618.000000	57.910418 
2617.000000	57.908034 
2616.000000	57.904577 
2615.000000	57.900524 
2614.000000	57.896447 
2613.000000	57.892847 
2612.000000	57.889890 
2611.000000	57.887268 
2610.000000	57.884144 
2609.000000	57.879495 
2608.000000	57.872343 
2607.000000	57.862067 
2606.000000	57.848596 
2605.000000	57.832551 
2604.000000	57.815146 
2603.000000	57.797980 
2602.000000	57.782769 
2601.000000	57.770943 
2600.000000	57.763290 
2599.000000	57.760047 
2598.000000	57.760763 
2597.000000	57.764387 
2596.000000	57.769489 
2595.000000	57.774662 
2594.000000	57.778429 
2593.000000	57.780051 
2592.000000	57.779097 
2591.000000	57.775783 
2590.000000	57.770729 
2589.000000	57.764911 
2588.000000	57.759451 
2587.000000	57.755327 
2586.000000	57.753133 
2585.000000	57.752990 
2584.000000	57.754516 
2583.000000	57.756876 
2582.000000	57.758998 
2581.000000	57.759952 
2580.000000	57.759237 
2579.000000	57.756876 
2578.000000	57.753276 
2577.000000	57.749152 
2576.000000	57.745075 
2575.000000	57.741355 
2574.000000	57.737803 
2573.000000	57.733893 
2572.000000	57.728815 
2571.000000	57.722020 
2570.000000	57.713007 
2569.000000	57.701873 
2568.000000	57.688951 
2567.000000	57.674837 
2566.000000	57.660174 
2565.000000	57.645511 
2564.000000	57.631182 
2563.000000	57.617211 
2562.000000	57.603693 
2561.000000	57.590723 
2560.000000	57.578563 
2559.000000	57.567644 
2558.000000	57.558488 
2557.000000	57.551479 
2556.000000	57.546758 
2555.000000	57.543992 
2554.000000	57.542514 
2553.000000	57.541513 
2552.000000	57.540011 
2551.000000	57.537198 
2550.000000	57.532572 
2549.000000	57.525897 
2548.000000	57.517075 
2547.000000	57.506179 
2546.000000	57.493519 
2545.000000	57.479596 
2544.000000	57.464933 
2543.000000	57.450032 
2542.000000	57.435584 
2541.000000	57.422184 
2540.000000	57.410240 
2539.000000	57.399988 
2538.000000	57.391548 
2537.000000	57.384729 
2536.000000	57.379126 
2535.000000	57.374358 
2534.000000	57.369899 
2533.000000	57.365465 
2532.000000	57.360935 
2531.000000	57.356643 
2530.000000	57.353091 
2529.000000	57.350993 
2528.000000	57.350873 
2527.000000	57.353043 
2526.000000	57.357382 
2525.000000	57.363009 
2524.000000	57.368588 
2523.000000	57.372260 
2522.000000	57.372117 
2521.000000	57.366538 
2520.000000	57.354640 
2519.000000	57.336401 
2518.000000	57.312846 
2517.000000	57.285976 
2516.000000	57.258486 
2515.000000	57.232832 
2514.000000	57.211065 
2513.000000	57.194399 
2512.000000	57.182765 
2511.000000	57.175207 
2510.000000	57.169961 
2509.000000	57.165050 
2508.000000	57.158637 
2507.000000	57.149457 
2506.000000	57.137060 
2505.000000	57.121682 
2504.000000	57.104063 
2503.000000	57.085108 
2502.000000	57.065677 
2501.000000	57.046365 
2500.000000	57.027411 
2499.000000	57.008838 
2498.000000	56.990671 
2497.000000	56.973147 
2496.000000	56.957125 
2495.000000	56.943845 
2494.000000	56.934833 
2493.000000	56.931495 
2492.000000	56.934714 
2491.000000	56.944632 
2490.000000	56.960082 
2489.000000	56.979107 
2488.000000	56.998944 
2487.000000	57.016825 
2486.000000	57.030367 
2485.000000	57.038164 
2484.000000	57.039642 
2483.000000	57.035326 
2482.000000	57.026648 
2481.000000	57.015419 
2480.000000	57.003235 
2479.000000	56.991457 
2478.000000	56.980967 
2477.000000	56.972455 
2476.000000	56.966376 
2475.000000	56.963157 
2474.000000	56.963253 
2473.000000	56.966972 
2472.000000	56.974220 
2471.000000	56.984138 
2470.000000	56.995034 
2469.000000	57.004380 
2468.000000	57.009220 
2467.000000	57.006621 
2466.000000	56.994414 
2465.000000	56.971621 
2464.000000	56.939077 
2463.000000	56.899166 
2462.000000	56.855797 
2461.000000	56.813716 
2460.000000	56.777620 
2459.000000	56.751394 
2458.000000	56.737232 
2457.000000	56.735730 
2456.000000	56.745433 
2455.000000	56.763267 
2454.000000	56.785178 
2453.000000	56.806755 
2452.000000	56.824302 
2451.000000	56.835317 
2450.000000	56.838893 
2449.000000	56.835389 
2448.000000	56.826376 
2447.000000	56.814122 
2446.000000	56.800842 
2445.000000	56.788110 
2444.000000	56.776571 
2443.000000	56.765842 
2442.000000	56.755089 
2441.000000	56.743359 
2440.000000	56.730103 
2439.000000	56.715345 
2438.000000	56.700086 
2437.000000	56.685709 
2436.000000	56.673574 
2435.000000	56.664133 
2434.000000	56.656789 
2433.000000	56.649827 
2432.000000	56.640410 
2431.000000	56.626057 
2430.000000	56.604981 
2429.000000	56.577920 
2428.000000	56.547737 
2427.000000	56.520223 
2426.000000	56.502413 
2425.000000	56.501674 
2424.000000	56.523299 
2423.000000	56.569170 
2422.000000	56.636786 
2421.000000	56.718873 
2420.000000	56.804728 
2419.000000	56.882071 
2418.000000	56.939530 
2417.000000	56.968975 
2416.000000	56.966829 
2415.000000	56.934738 
2414.000000	56.878662 
2413.000000	56.807661 
2412.000000	56.731462 
2411.000000	56.658864 
2410.000000	56.595730 
2409.000000	56.545281 
2408.000000	56.507396 
2407.000000	56.480169 
2406.000000	56.460857 
2405.000000	56.446886 
2404.000000	56.436920 
2403.000000	56.430268 
2402.000000	56.427454 
2401.000000	56.428551 
2400.000000	56.433558 
2399.000000	56.441569 
2398.000000	56.451058 
2397.000000	56.459784 
2396.000000	56.465530 
2395.000000	56.466507 
2394.000000	56.461668 
2393.000000	56.451010 
2392.000000	56.435298 
2391.000000	56.415915 
2390.000000	56.394386 
2389.000000	56.371998 
2388.000000	56.349825 
2387.000000	56.328582 
2386.000000	56.308674 
2385.000000	56.290459 
2384.000000	56.274366 
2383.000000	56.261301 
2382.000000	56.252408 
2381.000000	56.248855 
2380.000000	56.251335 
2379.000000	56.260037 
2378.000000	56.274342 
2377.000000	56.292748 
2376.000000	56.312608 
2375.000000	56.330895 
2374.000000	56.344342 
2373.000000	56.350374 
2372.000000	56.347346 
2371.000000	56.335186 
2370.000000	56.315231 
2369.000000	56.290149 
2368.000000	56.263327 
2367.000000	56.238245 
2366.000000	56.217885 
2365.000000	56.204104 
2364.000000	56.197476 
2363.000000	56.197237 
2362.000000	56.201505 
2361.000000	56.207656 
2360.000000	56.212949 
2359.000000	56.214785 
2358.000000	56.211352 
2357.000000	56.201529 
2356.000000	56.185269 
2355.000000	56.163477 
2354.000000	56.137776 
2353.000000	56.110286 
2352.000000	56.083321 
2351.000000	56.059122 
2350.000000	56.039524 
2349.000000	56.025743 
2348.000000	56.018233 
2347.000000	56.016778 
2346.000000	56.020474 
2345.000000	56.028056 
2344.000000	56.038117 
2343.000000	56.049060 
2342.000000	56.059503 
2341.000000	56.068158 
2340.000000	56.073975 
2339.000000	56.076073 
2338.000000	56.073784 
2337.000000	56.066656 
2336.000000	56.054711 
2335.000000	56.038498 
2334.000000	56.019067 
2333.000000	55.997920 
2332.000000	55.976772 
2331.000000	55.957365 
2330.000000	55.941128 
2329.000000	55.928802 
2328.000000	55.920338 
2327.000000	55.915260 
2326.000000	55.912613 
2325.000000	55.911326 
2324.000000	55.910539 
2323.000000	55.909824 
2322.000000	55.908966 
2321.000000	55.908083 
2320.000000	55.907368 
2319.000000	55.906653 
2318.000000	55.905485 
2317.000000	55.903172 
2316.000000	55.898928 
2315.000000	55.892300 
2314.000000	55.883312 
2313.000000	55.872464 
2312.000000	55.860757 
2311.000000	55.849361 
2310.000000	55.839323 
2309.000000	55.831122 
2308.000000	55.824494 
2307.000000	55.818653 
2306.000000	55.812525 
2305.000000	55.804967 
2304.000000	55.795311 
2303.000000	55.783534 
2302.000000	55.770111 
2301.000000	55.755949 
2300.000000	55.742096 
2299.000000	55.729222 
2298.000000	55.717658 
2297.000000	55.707383 
2296.000000	55.698060 
2295.000000	55.689501 
2294.000000	55.681967 
2293.000000	55.676150 
2292.000000	55.673098 
2291.000000	55.673956 
2290.000000	55.679464 
2289.000000	55.689406 
2288.000000	55.702638 
2287.000000	55.717015 
2286.000000	55.729770 
2285.000000	55.738186 
2284.000000	55.740141 
2283.000000	55.734586 
2282.000000	55.721783 
2281.000000	55.703282 
2280.000000	55.681300 
2279.000000	55.658125 
2278.000000	55.635595 
2277.000000	55.614852 
2276.000000	55.596160 
2275.000000	55.579018 
2274.000000	55.562710 
2273.000000	55.546402 
2272.000000	55.529904 
2271.000000	55.513525 
2270.000000	55.497908 
2269.000000	55.483961 
2268.000000	55.472278 
2267.000000	55.463099 
2266.000000	55.455946 
2265.000000	55.449962 
2264.000000	55.443954 
2263.000000	55.437111 
2262.000000	55.428981 
2261.000000	55.420136 
2260.000000	55.411791 
2259.000000	55.405926 
2258.000000	55.404400 
2257.000000	55.408763 
2256.000000	55.419754 
2255.000000	55.436849 
2254.000000	55.458164 
2253.000000	55.480837 
2252.000000	55.501294 
2251.000000	55.516052 
2250.000000	55.522155 
2249.000000	55.517721 
2248.000000	55.502343 
2247.000000	55.477070 
2246.000000	55.444169 
2245.000000	55.406522 
2244.000000	55.367302 
2243.000000	55.329442 
2242.000000	55.295515 
2241.000000	55.267262 
2240.000000	55.245947 
2239.000000	55.232334 
2238.000000	55.226540 
2237.000000	55.228161 
2236.000000	55.236220 
2235.000000	55.248975 
2234.000000	55.263996 
2233.000000	55.278086 
2232.000000	55.287933 
2231.000000	55.290317 
2230.000000	55.282998 
2229.000000	55.265212 
2228.000000	55.237936 
2227.000000	55.203795 
2226.000000	55.166506 
2225.000000	55.130338 
2224.000000	55.099010 
2223.000000	55.075192 
2222.000000	55.060100 
2221.000000	55.053472 
2220.000000	55.053782 
2219.000000	55.058717 
2218.000000	55.065870 
2217.000000	55.073428 
2216.000000	55.079913 
2215.000000	55.084800 
2214.000000	55.087947 
2213.000000	55.089688 
2212.000000	55.090427 
2211.000000	55.090641 
2210.000000	55.090379 
2209.000000	55.089497 
2208.000000	55.087876 
2207.000000	55.085277 
2206.000000	55.081462 
2205.000000	55.076241 
2204.000000	55.069422 
2203.000000	55.061006 
2202.000000	55.051016 
2201.000000	55.039644 
2200.000000	55.027103 
2199.000000	55.013728 
2198.000000	54.999828 
2197.000000	54.985666 
2196.000000	54.971480 
2195.000000	54.957461 
2194.000000	54.943799 
2193.000000	54.930543 
2192.000000	54.917860 
2191.000000	54.905962 
2190.000000	54.895043 
2189.000000	54.885149 
2188.000000	54.876422 
2187.000000	54.869055 
2186.000000	54.863357 
2185.000000	54.859399 
2184.000000	54.857206 
2183.000000	54.856777 
2182.000000	54.857921 
2181.000000	54.860329 
2180.000000	54.863524 
2179.000000	54.866862 
2178.000000	54.869794 
2177.000000	54.871821 
2176.000000	54.872465 
2175.000000	54.871392 
2174.000000	54.868412 
2173.000000	54.863476 
2172.000000	54.856610 
2171.000000	54.847908 
2170.000000	54.837632 
2169.000000	54.825854 
2168.000000	54.812669 
2167.000000	54.797816 
2166.000000	54.780960 
2165.000000	54.761672 
2164.000000	54.739379 
2163.000000	54.713726 
2162.000000	54.684591 
2161.000000	54.652690 
2160.000000	54.619169 
2159.000000	54.586100 
2158.000000	54.555845 
2157.000000	54.531097 
2156.000000	54.514193 
2155.000000	54.506826 
2154.000000	54.509544 
2153.000000	54.521751 
2152.000000	54.541563 
2151.000000	54.566168 
2150.000000	54.592227 
2149.000000	54.616475 
2148.000000	54.636096 
2147.000000	54.649233 
2146.000000	54.655098 
2145.000000	54.653978 
2144.000000	54.646921 
2143.000000	54.635548 
2142.000000	54.621672 
2141.000000	54.607009 
2140.000000	54.592680 
2139.000000	54.579639 
2138.000000	54.568147 
2137.000000	54.558157 
2136.000000	54.549264 
2135.000000	54.541063 
2134.000000	54.533076 
2133.000000	54.525113 
2132.000000	54.517078 
2131.000000	54.509043 
2130.000000	54.501295 
2129.000000	54.494094 
2128.000000	54.487586 
2127.000000	54.481863 
2126.000000	54.476857 
2125.000000	54.472398 
2124.000000	54.468464 
2123.000000	54.465031 
2122.000000	54.462289 
2121.000000	54.460477 
2120.000000	54.459810 
2119.000000	54.460310 
2118.000000	54.461789 
2117.000000	54.463815 
2116.000000	54.465746 
2115.000000	54.466700 
2114.000000	54.465770 
2113.000000	54.462027 
2112.000000	54.454898 
2111.000000	54.444074 
2110.000000	54.429841 
2109.000000	54.412651 
2108.000000	54.393243 
2107.000000	54.372096 
2106.000000	54.349541 
2105.000000	54.325485 
2104.000000	54.299497 
2103.000000	54.271149 
2102.000000	54.240417 
2101.000000	54.207754 
2100.000000	54.174375 
2099.000000	54.142189 
2098.000000	54.113316 
2097.000000	54.089856 
2096.000000	54.073333 
2095.000000	54.064583 
2094.000000	54.063558 
2093.000000	54.069471 
2092.000000	54.081201 
2091.000000	54.097628 
2090.000000	54.117679 
2089.000000	54.140472 
2088.000000	54.165101 
2087.000000	54.190421 
2086.000000	54.214501 
2085.000000	54.234933 
2084.000000	54.248642 
2083.000000	54.252576 
2082.000000	54.244089 
2081.000000	54.221940 
2080.000000	54.186463 
2079.000000	54.139924 
2078.000000	54.086041 
2077.000000	54.029750 
2076.000000	53.976154 
2075.000000	53.929853 
2074.000000	53.894162 
2073.000000	53.870797 
2072.000000	53.859758 
2071.000000	53.859567 
2070.000000	53.868007 
2069.000000	53.882265 
2068.000000	53.900003 
2067.000000	53.919410 
2066.000000	53.939366 
2065.000000	53.959274 
2064.000000	53.978419 
2063.000000	53.995847 
2062.000000	54.010248 
2061.000000	54.019784 
2060.000000	54.022789 
2059.000000	54.017996 
2058.000000	54.004931 
2057.000000	53.983998 
2056.000000	53.956747 
2055.000000	53.925085 
2054.000000	53.891396 
2053.000000	53.857684 
2052.000000	53.825759 
2051.000000	53.796863 
2050.000000	53.771877 
2049.000000	53.751134 
2048.000000	53.734779 
2047.000000	53.722524 
2046.000000	53.713870 
2045.000000	53.707814 
2044.000000	53.702712 
2043.000000	53.696608 
2042.000000	53.687596 
2041.000000	53.674459 
2040.000000	53.656959 
2039.000000	53.636217 
2038.000000	53.614521 
2037.000000	53.594803 
2036.000000	53.579854 
2035.000000	53.571367 
2034.000000	53.569579 
2033.000000	53.573131 
2032.000000	53.579306 
2031.000000	53.584909 
2030.000000	53.586912 
2029.000000	53.583478 
2028.000000	53.574252 
2027.000000	53.560352 
2026.000000	53.544044 
2025.000000	53.527832 
2024.000000	53.513789 
2023.000000	53.503155 
2022.000000	53.496003 
2021.000000	53.491330 
2020.000000	53.487610 
2019.000000	53.483462 
2018.000000	53.477931 
2017.000000	53.470826 
2016.000000	53.462696 
2015.000000	53.454494 
2014.000000	53.447127 
2013.000000	53.441166 
2012.000000	53.436446 
2011.000000	53.432273 
2010.000000	53.427600 
2009.000000	53.421521 
2008.000000	53.413581 
2007.000000	53.403973 
2006.000000	53.393435 
2005.000000	53.383302 
2004.000000	53.375029 
2003.000000	53.369975 
2002.000000	53.368949 
2001.000000	53.372263 
2000.000000	53.379511 
1999.000000	53.389525 
1998.000000	53.400731 
1997.000000	53.411102 
1996.000000	53.418588 
1995.000000	53.421163 
1994.000000	53.417158 
1993.000000	53.405690 
1992.000000	53.386712 
1991.000000	53.361368 
1990.000000	53.331756 
1989.000000	53.300714 
1988.000000	53.271341 
1987.000000	53.246259 
1986.000000	53.227114 
1985.000000	53.213977 
1984.000000	53.205585 
1983.000000	53.199648 
1982.000000	53.193426 
1981.000000	53.184509 
1980.000000	53.171229 
1979.000000	53.153085 
1978.000000	53.130984 
1977.000000	53.106474 
1976.000000	53.081607 
1975.000000	53.058147 
1974.000000	53.037714 
1973.000000	53.021001 
1972.000000	53.008246 
1971.000000	52.999019 
1970.000000	52.992701 
1969.000000	52.988576 
1968.000000	52.986216 
1967.000000	52.985334 
1966.000000	52.985906 
1965.000000	52.987861 
1964.000000	52.991104 
1963.000000	52.995276 
1962.000000	52.999877 
1961.000000	53.004217 
1960.000000	53.007268 
1959.000000	53.007912 
1958.000000	53.005003 
1957.000000	52.997708 
1956.000000	52.985453 
1955.000000	52.968215 
1954.000000	52.946615 
1953.000000	52.921962 
1952.000000	52.896094 
1951.000000	52.871298 
1950.000000	52.849841 
1949.000000	52.833795 
1948.000000	52.824568 
1947.000000	52.823042 
1946.000000	52.829027 
1945.000000	52.841496 
1944.000000	52.858495 
1943.000000	52.877831 
1942.000000	52.896833 
1941.000000	52.913260 
1940.000000	52.925419 
1939.000000	52.932333 
1938.000000	52.933931 
1937.000000	52.930808 
1936.000000	52.924084 
1935.000000	52.914953 
1934.000000	52.904486 
1933.000000	52.893233 
1932.000000	52.881169 
1931.000000	52.867770 
1930.000000	52.852201 
1929.000000	52.833604 
1928.000000	52.811384 
1927.000000	52.785491 
1926.000000	52.756595 
1925.000000	52.725911 
1924.000000	52.695155 
1923.000000	52.666044 
1922.000000	52.640223 
1921.000000	52.618908 
1920.000000	52.602720 
1919.000000	52.591538 
1918.000000	52.584552 
1917.000000	52.580547 
1916.000000	52.577996 
1915.000000	52.575278 
1914.000000	52.571082 
1913.000000	52.564597 
1912.000000	52.555513 
1911.000000	52.543902 
1910.000000	52.530217 
1909.000000	52.515077 
1908.000000	52.499103 
1907.000000	52.482771 
1906.000000	52.466726 
1905.000000	52.451586 
1904.000000	52.438116 
1903.000000	52.427244 
1902.000000	52.420043 
1901.000000	52.417349 
1900.000000	52.419638 
1899.000000	52.426600 
1898.000000	52.436923 
1897.000000	52.448534 
1896.000000	52.458739 
1895.000000	52.464771 
1894.000000	52.464342 
1893.000000	52.455949 
1892.000000	52.439665 
1891.000000	52.416849 
1890.000000	52.389669 
1889.000000	52.360868 
1888.000000	52.333140 
1887.000000	52.308773 
1886.000000	52.289295 
1885.000000	52.275466 
1884.000000	52.267313 
1883.000000	52.264285 
1882.000000	52.265548 
1881.000000	52.270007 
1880.000000	52.276372 
1879.000000	52.283287 
1878.000000	52.289319 
1877.000000	52.293181 
1876.000000	52.293634 
1875.000000	52.289891 
1874.000000	52.281475 
1873.000000	52.268648 
1872.000000	52.252292 
1871.000000	52.233958 
1870.000000	52.215480 
1869.000000	52.198910 
1868.000000	52.186107 
1867.000000	52.178430 
1866.000000	52.176523 
1865.000000	52.180171 
1864.000000	52.188181 
1863.000000	52.198576 
1862.000000	52.208900 
1861.000000	52.216506 
1860.000000	52.219104 
1859.000000	52.215123 
1858.000000	52.203941 
1857.000000	52.186155 
1856.000000	52.163124 
1855.000000	52.136635 
1854.000000	52.108645 
1853.000000	52.080917 
1852.000000	52.054858 
1851.000000	52.031397 
1850.000000	52.010989 
1849.000000	51.993942 
1848.000000	51.980519 
1847.000000	51.971101 
1846.000000	51.965737 
1845.000000	51.964354 
1844.000000	51.966381 
1843.000000	51.970958 
1842.000000	51.976490 
1841.000000	51.981210 
1840.000000	51.983571 
1839.000000	51.982378 
1838.000000	51.977229 
1837.000000	51.968455 
1836.000000	51.957106 
1835.000000	51.944684 
1834.000000	51.932692 
1833.000000	51.922464 
1832.000000	51.914882 
1831.000000	51.910471 
1830.000000	51.909255 
1829.000000	51.910948 
1828.000000	51.915311 
1827.000000	51.921796 
1826.000000	51.929688 
1825.000000	51.937890 
1824.000000	51.944947 
1823.000000	51.949024 
1822.000000	51.948261 
1821.000000	51.941037 
1820.000000	51.926422 
1819.000000	51.904606 
1818.000000	51.876783 
1817.000000	51.845097 
1816.000000	51.812052 
1815.000000	51.780104 
1814.000000	51.751065 
1813.000000	51.726007 
1812.000000	51.705217 
1811.000000	51.688051 
1810.000000	51.673626 
1809.000000	51.661229 
1808.000000	51.650524 
1807.000000	51.641392 
1806.000000	51.634263 
1805.000000	51.629519 
1804.000000	51.627421 
1803.000000	51.627564 
1802.000000	51.628899 
1801.000000	51.629829 
1800.000000	51.628565 
1799.000000	51.623535 
1798.000000	51.613688 
1797.000000	51.598978 
1796.000000	51.580166 
1795.000000	51.558804 
1794.000000	51.536750 
1793.000000	51.515579 
1792.000000	51.496362 
1791.000000	51.479268 
1790.000000	51.463770 
1789.000000	51.448869 
1788.000000	51.433300 
1787.000000	51.416277 
1786.000000	51.397514 
1785.000000	51.377534 
1784.000000	51.357460 
1783.000000	51.338744 
1782.000000	51.322817 
1781.000000	51.310825 
1780.000000	51.303172 
1779.000000	51.299786 
1778.000000	51.299858 
1777.000000	51.302385 
1776.000000	51.306319 
1775.000000	51.310873 
1774.000000	51.315569 
1773.000000	51.320338 
1772.000000	51.325297 
1771.000000	51.330542 
1770.000000	51.336002 
1769.000000	51.341176 
1768.000000	51.345109 
1767.000000	51.346611 
1766.000000	51.344227 
1765.000000	51.336765 
1764.000000	51.323413 
1763.000000	51.304078 
1762.000000	51.279330 
1761.000000	51.250529 
1760.000000	51.219630 
1759.000000	51.188731 
1758.000000	51.159858 
1757.000000	51.134562 
1756.000000	51.113700 
1755.000000	51.097488 
1754.000000	51.085543 
1753.000000	51.076912 
1752.000000	51.070499 
1751.000000	51.065301 
1750.000000	51.060795 
1749.000000	51.056551 
1748.000000	51.052427 
1747.000000	51.048207 
1746.000000	51.043534 
1745.000000	51.037812 
1744.000000	51.030278 
1743.000000	51.020193 
1742.000000	51.007008 
1741.000000	50.990676 
1740.000000	50.971651 
1739.000000	50.950717 
1738.000000	50.929045 
1737.000000	50.907897 
1736.000000	50.888156 
1735.000000	50.870203 
1734.000000	50.853991 
1733.000000	50.838899 
1732.000000	50.823998 
1731.000000	50.807905 
1730.000000	50.789737 
1729.000000	50.768566 
1728.000000	50.743770 
1727.000000	50.715303 
1726.000000	50.683474 
1725.000000	50.649261 
1724.000000	50.614070 
1723.000000	50.579762 
1722.000000	50.548458 
1721.000000	50.522351 
1720.000000	50.503206 
1719.000000	50.492238 
1718.000000	50.489735 
1717.000000	50.495362 
1716.000000	50.508117 
1715.000000	50.526547 
1714.000000	50.548911 
1713.000000	50.573492 
1712.000000	50.598740 
1711.000000	50.623250 
1710.000000	50.645852 
1709.000000	50.665688 
1708.000000	50.681996 
1707.000000	50.694680 
1706.000000	50.703692 
1705.000000	50.709342 
1704.000000	50.711941 
1703.000000	50.712156 
1702.000000	50.710511 
1701.000000	50.707459 
1700.000000	50.703144 
1699.000000	50.697660 
1698.000000	50.690913 
1697.000000	50.682973 
1696.000000	50.673723 
1695.000000	50.663423 
1694.000000	50.652217 
1693.000000	50.640225 
1692.000000	50.627374 
1691.000000	50.613451 
1690.000000	50.598049 
1689.000000	50.580883 
1688.000000	50.561881 
1687.000000	50.541281 
1686.000000	50.519847 
1685.000000	50.498771 
1684.000000	50.479412 
1683.000000	50.463271 
1682.000000	50.451850 
1681.000000	50.446414 
1680.000000	50.447535 
1679.000000	50.455093 
1678.000000	50.468254 
1677.000000	50.485372 
1676.000000	50.504088 
1675.000000	50.521731 
1674.000000	50.535607 
1673.000000	50.543618 
1672.000000	50.544166 
1671.000000	50.536632 
1670.000000	50.521326 
1669.000000	50.499415 
1668.000000	50.472664 
1667.000000	50.443005 
1666.000000	50.412440 
1665.000000	50.382590 
1664.000000	50.354862 
1663.000000	50.330257 
1662.000000	50.309562 
1661.000000	50.293254 
1660.000000	50.281667 
1659.000000	50.274777 
1658.000000	50.272345 
1657.000000	50.273633 
1656.000000	50.277590 
1655.000000	50.282907 
1654.000000	50.288319 
1653.000000	50.292634 
1652.000000	50.294923 
1651.000000	50.294566 
1650.000000	50.291037 
1649.000000	50.283932 
1648.000000	50.273132 
1647.000000	50.258469 
1646.000000	50.240230 
1645.000000	50.218963 
1644.000000	50.195550 
1643.000000	50.171351 
1642.000000	50.148081 
1641.000000	50.127339 
1640.000000	50.110554 
1639.000000	50.098562 
1638.000000	50.091481 
1637.000000	50.088644 
1636.000000	50.088548 
1635.000000	50.089335 
1634.000000	50.089073 
1633.000000	50.086259 
1632.000000	50.080037 
1631.000000	50.070357 
1630.000000	50.058007 
1629.000000	50.044274 
1628.000000	50.030541 
1627.000000	50.018215 
1626.000000	50.008058 
1625.000000	50.000262 
1624.000000	49.994468 
1623.000000	49.989819 
1622.000000	49.985313 
1621.000000	49.979996 
1620.000000	49.973368 
1619.000000	49.965381 
1618.000000	49.956369 
1617.000000	49.946928 
1616.000000	49.937748 
1615.000000	49.929237 
1614.000000	49.921536 
1613.000000	49.914574 
1612.000000	49.907898 
1611.000000	49.901080 
1610.000000	49.893760 
1609.000000	49.885702 
1608.000000	49.876832 
1607.000000	49.867081 
1606.000000	49.856495 
1605.000000	49.845194 
1604.000000	49.833273 
1603.000000	49.820947 
1602.000000	49.808549 
1601.000000	49.796438 
1600.000000	49.784994 
1599.000000	49.774503 
1598.000000	49.765229 
1597.000000	49.757266 
1596.000000	49.750423 
1595.000000	49.744272 
1594.000000	49.738264 
1593.000000	49.731755 
1592.000000	49.724006 
1591.000000	49.714517 
1590.000000	49.703049 
1589.000000	49.689793 
1588.000000	49.675250 
1587.000000	49.660277 
1586.000000	49.645686 
1585.000000	49.632096 
1584.000000	49.619770 
1583.000000	49.608492 
1582.000000	49.597597 
1581.000000	49.586224 
1580.000000	49.573588 
1579.000000	49.559044 
1578.000000	49.542760 
1577.000000	49.525666 
1576.000000	49.509167 
1575.000000	49.495005 
1574.000000	49.484705 
1573.000000	49.479222 
1572.000000	49.478578 
1571.000000	49.481797 
1570.000000	49.487185 
1569.000000	49.492597 
1568.000000	49.496102 
1567.000000	49.496412 
1566.000000	49.492883 
1565.000000	49.485993 
1564.000000	49.476909 
1563.000000	49.467396 
1562.000000	49.459314 
1561.000000	49.454164 
1560.000000	49.452853 
1559.000000	49.455070 
1558.000000	49.459528 
1557.000000	49.463725 
1556.000000	49.464750 
1555.000000	49.459409 
1554.000000	49.445223 
1553.000000	49.420690 
1552.000000	49.385643 
1551.000000	49.341320 
1550.000000	49.290251 
1549.000000	49.235725 
1548.000000	49.181461 
1547.000000	49.130892 
1546.000000	49.086999 
1545.000000	49.051904 
1544.000000	49.026846 
1543.000000	49.012017 
1542.000000	49.007105 
1541.000000	49.010968 
1540.000000	49.022245 
1539.000000	49.039196 
1538.000000	49.060082 
1537.000000	49.082899 
1536.000000	49.105787 
1535.000000	49.126982 
1534.000000	49.144721 
1533.000000	49.157547 
1532.000000	49.164128 
1531.000000	49.163579 
1530.000000	49.155259 
1529.000000	49.139237 
1528.000000	49.116086 
1527.000000	49.087142 
1526.000000	49.054336 
1525.000000	49.020147 
1524.000000	48.987126 
1523.000000	48.957729 
1522.000000	48.933839 
1521.000000	48.916625 
1520.000000	48.906397 
1519.000000	48.902654 
1518.000000	48.904395 
1517.000000	48.910284 
1516.000000	48.918795 
1515.000000	48.928833 
1514.000000	48.939418 
1513.000000	48.950076 
1512.000000	48.960566 
1511.000000	48.970699 
1510.000000	48.980283 
1509.000000	48.988890 
1508.000000	48.995947 
1507.000000	49.000763 
1506.000000	49.002599 
1505.000000	49.001002 
1504.000000	48.995876 
1503.000000	48.987460 
1502.000000	48.976516 
1501.000000	48.963952 
1500.000000	48.950743 
1499.000000	48.937654 
1498.000000	48.924994 
1497.000000	48.912525 
1496.000000	48.899626 
1495.000000	48.885369 
1494.000000	48.868989 
1493.000000	48.850083 
1492.000000	48.828911 
1491.000000	48.806500 
1490.000000	48.784375 
1489.000000	48.763966 
1488.000000	48.746538 
1487.000000	48.732614 
1486.000000	48.722028 
1485.000000	48.714113 
1484.000000	48.707818 
1483.000000	48.702120 
1482.000000	48.696231 
1481.000000	48.689937 
1480.000000	48.683500 
1479.000000	48.677396 
1478.000000	48.672151 
1477.000000	48.668098 
1476.000000	48.665213 
1475.000000	48.663043 
1474.000000	48.660802 
1473.000000	48.657679 
1472.000000	48.652815 
1471.000000	48.645591 
1470.000000	48.635745 
1469.000000	48.623418 
1468.000000	48.609137 
1467.000000	48.594021 
1466.000000	48.579192 
1465.000000	48.565816 
1464.000000	48.555088 
1463.000000	48.547649 
1462.000000	48.543691 
1461.000000	48.542547 
1460.000000	48.542714 
1459.000000	48.542165 
1458.000000	48.538661 
1457.000000	48.530387 
1456.000000	48.516249 
1455.000000	48.496580 
1454.000000	48.473262 
1453.000000	48.449277 
1452.000000	48.428106 
1451.000000	48.412561 
1450.000000	48.404073 
1449.000000	48.401832 
1448.000000	48.402786 
1447.000000	48.402762 
1446.000000	48.397421 
1445.000000	48.383617 
1444.000000	48.360562 
1443.000000	48.330283 
1442.000000	48.297381 
1441.000000	48.267841 
1440.000000	48.247599 
1439.000000	48.241043 
1438.000000	48.249721 
1437.000000	48.272085 
1436.000000	48.303294 
1435.000000	48.336696 
1434.000000	48.364806 
1433.000000	48.381567 
1432.000000	48.383069 
1431.000000	48.368477 
1430.000000	48.339939 
1429.000000	48.301887 
1428.000000	48.259878 
1427.000000	48.219227 
1426.000000	48.183751 
1425.000000	48.155426 
1424.000000	48.133921 
1423.000000	48.117494 
1422.000000	48.103237 
1421.000000	48.088550 
1420.000000	48.071575 
1419.000000	48.051667 
1418.000000	48.029470 
1417.000000	48.006415 
1416.000000	47.984313 
1415.000000	47.964668 
1414.000000	47.948288 
1413.000000	47.934913 
1412.000000	47.923541 
1411.000000	47.912573 
1410.000000	47.900676 
1409.000000	47.887110 
1408.000000	47.871828 
1407.000000	47.855758 
1406.000000	47.840619 
1405.000000	47.828412 
1404.000000	47.820830 
1403.000000	47.818851 
1402.000000	47.822260 
1401.000000	47.829699 
1400.000000	47.839117 
1399.000000	47.847914 
1398.000000	47.853732 
1397.000000	47.854852 
1396.000000	47.850275 
1395.000000	47.840094 
1394.000000	47.825264 
1393.000000	47.807192 
1392.000000	47.787356 
1391.000000	47.767066 
1390.000000	47.747182 
1389.000000	47.728180 
1388.000000	47.710180 
1387.000000	47.693157 
1386.000000	47.677326 
1385.000000	47.663283 
1384.000000	47.651958 
1383.000000	47.644472 
1382.000000	47.641825 
1381.000000	47.644615 
1380.000000	47.652697 
1379.000000	47.664952 
1378.000000	47.679281 
1377.000000	47.693181 
1376.000000	47.703790 
1375.000000	47.708821 
1374.000000	47.706794 
1373.000000	47.697305 
1372.000000	47.681117 
1371.000000	47.660064 
1370.000000	47.636556 
1369.000000	47.613167 
1368.000000	47.591948 
1367.000000	47.574377 
1366.000000	47.561025 
1365.000000	47.551846 
1364.000000	47.546076 
1363.000000	47.542619 
1362.000000	47.540378 
1361.000000	47.538232 
1360.000000	47.535085 
1359.000000	47.529864 
1358.000000	47.521567 
1357.000000	47.509193 
1356.000000	47.491931 
1355.000000	47.469425 
1354.000000	47.441911 
1353.000000	47.410631 
1352.000000	47.377490 
1351.000000	47.344970 
1350.000000	47.315692 
1349.000000	47.291994 
1348.000000	47.275280 
1347.000000	47.266006 
1346.000000	47.263503 
1345.000000	47.266364 
1344.000000	47.272586 
1343.000000	47.280240 
1342.000000	47.287678 
1341.000000	47.293782 
1340.000000	47.298026 
1339.000000	47.300076 
1338.000000	47.299647 
1337.000000	47.296380 
1336.000000	47.289824 
1335.000000	47.279405 
1334.000000	47.264862 
1333.000000	47.246336 
1332.000000	47.224473 
1331.000000	47.200441 
1330.000000	47.175693 
1329.000000	47.151732 
1328.000000	47.129797 
1327.000000	47.110700 
1326.000000	47.094869 
1325.000000	47.082352 
1324.000000	47.072815 
1323.000000	47.065877 
1322.000000	47.061061 
1321.000000	47.057914 
1320.000000	47.056221 
1319.000000	47.055673 
1318.000000	47.056150 
1317.000000	47.057390 
1316.000000	47.059178 
1315.000000	47.061252 
1314.000000	47.063183 
1313.000000	47.064518 
1312.000000	47.064590 
1311.000000	47.062587 
1310.000000	47.057485 
1309.000000	47.048354 
1308.000000	47.034454 
1307.000000	47.015452 
1306.000000	46.991586 
1305.000000	46.963787 
1304.000000	46.933460 
1303.000000	46.902680 
1302.000000	46.873545 
1301.000000	46.847939 
1300.000000	46.827101 
1299.000000	46.811652 
1298.000000	46.801424 
1297.000000	46.795463 
1296.000000	46.792125 
1295.000000	46.789622 
1294.000000	46.786117 
1293.000000	46.780180 
1292.000000	46.770811 
1291.000000	46.757769 
1290.000000	46.741533 
1289.000000	46.723222 
1288.000000	46.704411 
1287.000000	46.686863 
1286.000000	46.672272 
1285.000000	46.661758 
1284.000000	46.655750 
1283.000000	46.653723 
1282.000000	46.654343 
1281.000000	46.655464 
1280.000000	46.654438 
1279.000000	46.648836 
1278.000000	46.636819 
1277.000000	46.617579 
1276.000000	46.591639 
1275.000000	46.560668 
1274.000000	46.527576 
1273.000000	46.495485 
1272.000000	46.467590 
1271.000000	46.446418 
1270.000000	46.433591 
1269.000000	46.429872 
1268.000000	46.435022 
1267.000000	46.448206 
1266.000000	46.467781 
1265.000000	46.491789 
1264.000000	46.517896 
1263.000000	46.543526 
1262.000000	46.566367 
1261.000000	46.584343 
1260.000000	46.596288 
1259.000000	46.601819 
1258.000000	46.601796 
1257.000000	46.598029 
1256.000000	46.593070 
1255.000000	46.589636 
1254.000000	46.589922 
1253.000000	46.595025 
1252.000000	46.604824 
1251.000000	46.617698 
1250.000000	46.631169 
1249.000000	46.641874 
1248.000000	46.646738 
1247.000000	46.643137 
1246.000000	46.629333 
1245.000000	46.604824 
1244.000000	46.570110 
1243.000000	46.527099 
1242.000000	46.478533 
1241.000000	46.427917 
1240.000000	46.379351 
1239.000000	46.336650 
1238.000000	46.303176 
1237.000000	46.280980 
1236.000000	46.270489 
1235.000000	46.270346 
1234.000000	46.277761 
1233.000000	46.288847 
1232.000000	46.299266 
1231.000000	46.305298 
1230.000000	46.304583 
1229.000000	46.296548 
1228.000000	46.282267 
1227.000000	46.264433 
1226.000000	46.246266 
1225.000000	46.230745 
1224.000000	46.219921 
1223.000000	46.214318 
1222.000000	46.212863 
1221.000000	46.213340 
1220.000000	46.212983 
1219.000000	46.209406 
1218.000000	46.201181 
1217.000000	46.188068 
1216.000000	46.171188 
1215.000000	46.152806 
1214.000000	46.135234 
1213.000000	46.120500 
1212.000000	46.109485 
1211.000000	46.101665 
1210.000000	46.095156 
1209.000000	46.087551 
1208.000000	46.076560 
1207.000000	46.060419 
1206.000000	46.038985 
1205.000000	46.013569 
1204.000000	45.986819 
1203.000000	45.961952 
1202.000000	45.941925 
1201.000000	45.928645 
1200.000000	45.922923 
1199.000000	45.924043 
1198.000000	45.930266 
1197.000000	45.938920 
1196.000000	45.947194 
1195.000000	45.952415 
1194.000000	45.952558 
1193.000000	45.946216 
1192.000000	45.932626 
1191.000000	45.911812 
1190.000000	45.884323 
1189.000000	45.851373 
1188.000000	45.814561 
1187.000000	45.775985 
1186.000000	45.738124 
1185.000000	45.703625 
1184.000000	45.675110 
1183.000000	45.654726 
1182.000000	45.643854 
1181.000000	45.642542 
1180.000000	45.649623 
1179.000000	45.662403 
1178.000000	45.677089 
1177.000000	45.689177 
1176.000000	45.694518 
1175.000000	45.689702 
1174.000000	45.672917 
1173.000000	45.644450 
1172.000000	45.606493 
1171.000000	45.563149 
1170.000000	45.519614 
1169.000000	45.480847 
1168.000000	45.451068 
1167.000000	45.432639 
1166.000000	45.426034 
1165.000000	45.429658 
1164.000000	45.440816 
1163.000000	45.455837 
1162.000000	45.471358 
1161.000000	45.484805 
1160.000000	45.494866 
1159.000000	45.501351 
1158.000000	45.504665 
1157.000000	45.505118 
1156.000000	45.502662 
1155.000000	45.496511 
1154.000000	45.485258 
1153.000000	45.467662 
1152.000000	45.442819 
1151.000000	45.410966 
1150.000000	45.373702 
1149.000000	45.333862 
1148.000000	45.295214 
1147.000000	45.261716 
1146.000000	45.237183 
1145.000000	45.224499 
1144.000000	45.225024 
1143.000000	45.238351 
1142.000000	45.262145 
1141.000000	45.292329 
1140.000000	45.323538 
1139.000000	45.350360 
1138.000000	45.367598 
1137.000000	45.371866 
1136.000000	45.362067 
1135.000000	45.339608 
1134.000000	45.308136 
1133.000000	45.272302 
1132.000000	45.237398 
1131.000000	45.207262 
1130.000000	45.184016 
1129.000000	45.167064 
1128.000000	45.153760 
1127.000000	45.140194 
1126.000000	45.122504 
1125.000000	45.098257 
1124.000000	45.067048 
1123.000000	45.031356 
1122.000000	44.995665 
1121.000000	44.965386 
1120.000000	44.945383 
1119.000000	44.938397 
1118.000000	44.944477 
1117.000000	44.960784 
1116.000000	44.982624 
1115.000000	45.004439 
1114.000000	45.021510 
1113.000000	45.031118 
1112.000000	45.033264 
1111.000000	45.030117 
1110.000000	45.025491 
1109.000000	45.022726 
1108.000000	45.024609 
1107.000000	45.032596 
1106.000000	45.046496 
1105.000000	45.064496 
1104.000000	45.083761 
1103.000000	45.101809 
1102.000000	45.116233 
1101.000000	45.125198 
1100.000000	45.127248 
1099.000000	45.121216 
1098.000000	45.106315 
1097.000000	45.081901 
1096.000000	45.048189 
1095.000000	45.006537 
1094.000000	44.960021 
1093.000000	44.913434 
1092.000000	44.872450 
1091.000000	44.842958 
1090.000000	44.829964 
1089.000000	44.836616 
1088.000000	44.863247 
1087.000000	44.906568 
1086.000000	44.960784 
1085.000000	45.017361 
1084.000000	45.066404 
1083.000000	45.097661 
1082.000000	45.102810 
1081.000000	45.076060 
1080.000000	45.015406 
1079.000000	44.922804 
1078.000000	44.804644 
1077.000000	44.669914 
1076.000000	44.528865 
1075.000000	44.391250 
1074.000000	44.265222 
1073.000000	44.156146 
1072.000000	44.066643 
1071.000000	43.996930 
1070.000000	43.945384 
1069.000000	43.910503 
1068.000000	43.891549 
1067.000000	43.888759 
1066.000000	43.902897 
1065.000000	43.934679 
1064.000000	43.983864 
1063.000000	44.047904 
1062.000000	44.122028 
1061.000000	44.199585 
1060.000000	44.273805 
1059.000000	44.338226 
1058.000000	44.389343 
1057.000000	44.427323 
1056.000000	44.456386 
1055.000000	44.483280 
1054.000000	44.515681 
1053.000000	44.560360 
1052.000000	44.620347 
1051.000000	44.695138 
1050.000000	44.778847 
1049.000000	44.862222 
1048.000000	44.933748 
1047.000000	44.983720 
1046.000000	45.004582 
1045.000000	44.992899 
1044.000000	44.949817 
1043.000000	44.881367 
1042.000000	44.796466 
1041.000000	44.705486 
1040.000000	44.618463 
1039.000000	44.543337 
1038.000000	44.484853 
1037.000000	44.443798 
1036.000000	44.417500 
1035.000000	44.400286 
1034.000000	44.384980 
1033.000000	44.364476 
1032.000000	44.332289 
1031.000000	44.284892 
1030.000000	44.221854 
1029.000000	44.147300 
1028.000000	44.067287 
1027.000000	43.991231 
1026.000000	43.929505 
1025.000000	43.892478 
1024.000000	43.887686 
1023.000000	43.918943 
1022.000000	43.985605 
1021.000000	44.081377 
1020.000000	44.195723 
1019.000000	44.314026 
1018.000000	44.420337 
1017.000000	44.499325 
1016.000000	44.538903 
1015.000000	44.532179 
1014.000000	44.478917 
1013.000000	44.385695 
1012.000000	44.264602 
1011.000000	44.131278 
1010.000000	44.002008 
1009.000000	43.891429 
1008.000000	43.809747 
1007.000000	43.761610 
1006.000000	43.745326 
1005.000000	43.754649 
1004.000000	43.779778 
1003.000000	43.809700 
1002.000000	43.834781 
1001.000000	43.847322 
1000.000000	43.844032 
999.000000	 43.824505 
998.000000	 43.792533 
997.000000	 43.753337 
996.000000	 43.713951 
995.000000	 43.681049 
994.000000	 43.660426 
993.000000	 43.656039 
992.000000	 43.669128 
991.000000	 43.698620 
990.000000	 43.740415 
989.000000	 43.788146 
988.000000	 43.834114 
987.000000	 43.870592 
986.000000	 43.890738 
985.000000	 43.889880 
984.000000	 43.866348 
983.000000	 43.821573 
982.000000	 43.760228 
981.000000	 43.689155 
980.000000	 43.615913 
979.000000	 43.547511 
978.000000	 43.489980 
977.000000	 43.447041 
976.000000	 43.419718 
975.000000	 43.406748 
974.000000	 43.405175 
973.000000	 43.411016 
972.000000	 43.420028 
971.000000	 43.428277 
970.000000	 43.432044 
969.000000	 43.428540 
968.000000	 43.415784 
967.000000	 43.392944 
966.000000	 43.360137 
965.000000	 43.318605 
964.000000	 43.270540 
963.000000	 43.219280 
962.000000	 43.168973 
961.000000	 43.124341 
960.000000	 43.090176 
959.000000	 43.070268 
958.000000	 43.066835 
957.000000	 43.079733 
956.000000	 43.106579 
955.000000	 43.142509 
954.000000	 43.181467 
953.000000	 43.217229 
952.000000	 43.244743 
951.000000	 43.261170 
950.000000	 43.265914 
949.000000	 43.260169 
948.000000	 43.246388 
947.000000	 43.227577 
946.000000	 43.206119 
945.000000	 43.183565 
944.000000	 43.160390 
943.000000	 43.136811 
942.000000	 43.112897 
941.000000	 43.089509 
940.000000	 43.068051 
939.000000	 43.050336 
938.000000	 43.037986 
937.000000	 43.031907 
936.000000	 43.031620 
935.000000	 43.035221 
934.000000	 43.039798 
933.000000	 43.042063 
932.000000	 43.039369 
931.000000	 43.030333 
930.000000	 43.015074 
929.000000	 42.995166 
928.000000	 42.973113 
927.000000	 42.951846 
926.000000	 42.934060 
925.000000	 42.921686 
924.000000	 42.915773 
923.000000	 42.916250 
922.000000	 42.922353 
921.000000	 42.932224 
920.000000	 42.943620 
919.000000	 42.953658 
918.000000	 42.959308 
917.000000	 42.957663 
916.000000	 42.946124 
915.000000	 42.923164 
914.000000	 42.888545 
913.000000	 42.843866 
912.000000	 42.792367 
911.000000	 42.738747 
910.000000	 42.688417 
909.000000	 42.646431 
908.000000	 42.616534 
907.000000	 42.600488 
906.000000	 42.597603 
905.000000	 42.605018 
904.000000	 42.618465 
903.000000	 42.633295 
902.000000	 42.645573 
901.000000	 42.652750 
900.000000	 42.654085 
899.000000	 42.650723 
898.000000	 42.644906 
897.000000	 42.639207 
896.000000	 42.635607 
895.000000	 42.634868 
894.000000	 42.636084 
893.000000	 42.637491 
892.000000	 42.636418 
891.000000	 42.630815 
890.000000	 42.619132 
889.000000	 42.601060 
888.000000	 42.577338 
887.000000	 42.549610 
886.000000	 42.519903 
885.000000	 42.490077 
884.000000	 42.462015 
883.000000	 42.437148 
882.000000	 42.416739 
881.000000	 42.401957 
880.000000	 42.393469 
879.000000	 42.391204 
878.000000	 42.394256 
877.000000	 42.400813 
876.000000	 42.408108 
875.000000	 42.413043 
874.000000	 42.412734 
873.000000	 42.405343 
872.000000	 42.390966 
871.000000	 42.371392 
870.000000	 42.350149 
869.000000	 42.330718 
868.000000	 42.315959 
867.000000	 42.306518 
866.000000	 42.300677 
865.000000	 42.294168 
864.000000	 42.281532 
863.000000	 42.257618 
862.000000	 42.219138 
861.000000	 42.166113 
860.000000	 42.101955 
859.000000	 42.033267 
858.000000	 41.968035 
857.000000	 41.914296 
856.000000	 41.878223 
855.000000	 41.862845 
854.000000	 41.867470 
853.000000	 41.888046 
852.000000	 41.918206 
851.000000	 41.950535 
850.000000	 41.978216 
849.000000	 41.995882 
848.000000	 42.000293 
847.000000	 41.990423 
846.000000	 41.967344 
845.000000	 41.933679 
844.000000	 41.893076 
843.000000	 41.849946 
842.000000	 41.808748 
841.000000	 41.773581 
840.000000	 41.747617 
839.000000	 41.733121 
838.000000	 41.730403 
837.000000	 41.738438 
836.000000	 41.754341 
835.000000	 41.774201 
834.000000	 41.793441 
833.000000	 41.807651 
832.000000	 41.813421 
831.000000	 41.808772 
830.000000	 41.793632 
829.000000	 41.769671 
828.000000	 41.739678 
827.000000	 41.707134 
826.000000	 41.675138 
825.000000	 41.645765 
824.000000	 41.619992 
823.000000	 41.597580 
822.000000	 41.577768 
821.000000	 41.559767 
820.000000	 41.542887 
819.000000	 41.527080 
818.000000	 41.513037 
817.000000	 41.501998 
816.000000	 41.494894 
815.000000	 41.492152 
814.000000	 41.493558 
813.000000	 41.498112 
812.000000	 41.504216 
811.000000	 41.509771 
810.000000	 41.512942 
809.000000	 41.512060 
808.000000	 41.505980 
807.000000	 41.494083 
806.000000	 41.476511 
805.000000	 41.453814 
804.000000	 41.426801 
803.000000	 41.396498 
802.000000	 41.364216 
801.000000	 41.330933 
800.000000	 41.297554 
799.000000	 41.264581 
798.000000	 41.232180 
797.000000	 41.200089 
796.000000	 41.167759 
795.000000	 41.134214 
794.000000	 41.098237 
793.000000	 41.058921 
792.000000	 41.016125 
791.000000	 40.970563 
790.000000	 40.923666 
789.000000	 40.877795 
788.000000	 40.835094 
787.000000	 40.797257 
786.000000	 40.764904 
785.000000	 40.737247 
784.000000	 40.712332 
783.000000	 40.687894 
782.000000	 40.662050 
781.000000	 40.633630 
780.000000	 40.602779 
779.000000	 40.570449 
778.000000	 40.538430 
777.000000	 40.508103 
776.000000	 40.480661 
775.000000	 40.456151 
774.000000	 40.434145 
773.000000	 40.413618 
772.000000	 40.394186 
771.000000	 40.376114 
770.000000	 40.360856 
769.000000	 40.350580 
768.000000	 40.347576 
767.000000	 40.353393 
766.000000	 40.368247 
765.000000	 40.390419 
764.000000	 40.416193 
763.000000	 40.440225 
762.000000	 40.456962 
761.000000	 40.461301 
760.000000	 40.449213 
759.000000	 40.418553 
758.000000	 40.369582 
757.000000	 40.305209 
756.000000	 40.230345 
755.000000	 40.151381 
754.000000	 40.075731 
753.000000	 40.010237 
752.000000	 39.960455 
751.000000	 39.929461 
750.000000	 39.917635 
749.000000	 39.922213 
748.000000	 39.938044 
747.000000	 39.958381 
746.000000	 39.976143 
745.000000	 39.985537 
744.000000	 39.982843 
743.000000	 39.967370 
742.000000	 39.941120 
741.000000	 39.908552 
740.000000	 39.875411 
739.000000	 39.847421 
738.000000	 39.828872 
737.000000	 39.822244 
736.000000	 39.827394 
735.000000	 39.842176 
734.000000	 39.862561 
733.000000	 39.883804 
732.000000	 39.900970 
731.000000	 39.909934 
730.000000	 39.907884 
729.000000	 39.893817 
728.000000	 39.868712 
727.000000	 39.834785 
726.000000	 39.795422 
725.000000	 39.754486 
724.000000	 39.715981 
723.000000	 39.683318 
722.000000	 39.659070 
721.000000	 39.644742 
720.000000	 39.640378 
719.000000	 39.644694 
718.000000	 39.654994 
717.000000	 39.667606 
716.000000	 39.678049 
715.000000	 39.681649 
714.000000	 39.674878 
713.000000	 39.655995 
712.000000	 39.625144 
711.000000	 39.584517 
710.000000	 39.538025 
709.000000	 39.490032 
708.000000	 39.444708 
707.000000	 39.404582 
706.000000	 39.370393 
705.000000	 39.340400 
704.000000	 39.311456 
703.000000	 39.279341 
702.000000	 39.240407 
701.000000	 39.192128 
700.000000	 39.134168 
699.000000	 39.068365 
698.000000	 38.998150 
697.000000	 38.928055 
696.000000	 38.862609 
695.000000	 38.805365 
694.000000	 38.758015 
693.000000	 38.720393 
692.000000	 38.690686 
691.000000	 38.665843 
690.000000	 38.642358 
689.000000	 38.616991 
688.000000	 38.587355 
687.000000	 38.552474 
686.000000	 38.512802 
685.000000	 38.469791 
684.000000	 38.425326 
683.000000	 38.381338 
682.000000	 38.339233 
681.000000	 38.299489 
680.000000	 38.262414 
679.000000	 38.227868 
678.000000	 38.196587 
677.000000	 38.169717 
676.000000	 38.149642 
675.000000	 38.138985 
674.000000	 38.140630 
673.000000	 38.156461 
672.000000	 38.187074 
671.000000	 38.231015 
670.000000	 38.284897 
669.000000	 38.343763 
668.000000	 38.401269 
667.000000	 38.450551 
666.000000	 38.485193 
665.000000	 38.500666 
664.000000	 38.494277 
663.000000	 38.465905 
662.000000	 38.417911 
661.000000	 38.354945 
660.000000	 38.282847 
659.000000	 38.207817 
658.000000	 38.135766 
657.000000	 38.071250 
656.000000	 38.017106 
655.000000	 37.974143 
654.000000	 37.941598 
653.000000	 37.917375 
652.000000	 37.898325 
651.000000	 37.881183 
650.000000	 37.862873 
649.000000	 37.841296 
648.000000	 37.815093 
647.000000	 37.784361 
646.000000	 37.750029 
645.000000	 37.714505 
644.000000	 37.680578 
643.000000	 37.651300 
642.000000	 37.629318 
641.000000	 37.615919 
640.000000	 37.610983 
639.000000	 37.612247 
638.000000	 37.615847 
637.000000	 37.617039 
636.000000	 37.611317 
635.000000	 37.595343 
634.000000	 37.567925 
633.000000	 37.530255 
632.000000	 37.485766 
631.000000	 37.439489 
630.000000	 37.396764 
629.000000	 37.362241 
628.000000	 37.338852 
627.000000	 37.327384 
626.000000	 37.326383 
625.000000	 37.332844 
624.000000	 37.343382 
623.000000	 37.354540 
622.000000	 37.364530 
621.000000	 37.373018 
620.000000	 37.381529 
619.000000	 37.392187 
618.000000	 37.406992 
617.000000	 37.426853 
616.000000	 37.450981 
615.000000	 37.476730 
614.000000	 37.500309 
613.000000	 37.517571 
612.000000	 37.525486 
611.000000	 37.523150 
610.000000	 37.511992 
609.000000	 37.495350 
608.000000	 37.477874 
607.000000	 37.464118 
606.000000	 37.456655 
605.000000	 37.455201 
604.000000	 37.456345 
603.000000	 37.453937 
602.000000	 37.440681 
601.000000	 37.409472 
600.000000	 37.355542 
599.000000	 37.277317 
598.000000	 37.176918 
597.000000	 37.060070 
596.000000	 36.934590 
595.000000	 36.809229 
594.000000	 36.692667 
593.000000	 36.591696 
592.000000	 36.510109 
591.000000	 36.449122 
590.000000	 36.407852 
589.000000	 36.384153 
588.000000	 36.373829 
587.000000	 36.373972 
586.000000	 36.382699 
585.000000	 36.400008 
584.000000	 36.425876 
583.000000	 36.461353 
582.000000	 36.506843 
581.000000	 36.561274 
580.000000	 36.621356 
579.000000	 36.681723 
578.000000	 36.735415 
577.000000	 36.775183 
576.000000	 36.794996 
575.000000	 36.791253 
574.000000	 36.763215 
573.000000	 36.714649 
572.000000	 36.651349 
571.000000	 36.580491 
570.000000	 36.507487 
569.000000	 36.436820 
568.000000	 36.368703 
567.000000	 36.300611 
566.000000	 36.226391 
565.000000	 36.140203 
564.000000	 36.036348 
563.000000	 35.911273 
562.000000	 35.764789 
561.000000	 35.600543 
560.000000	 35.425901 
559.000000	 35.250687 
558.000000	 35.086178 
557.000000	 34.942507 
556.000000	 34.828042 
555.000000	 34.747767 
554.000000	 34.702539 
553.000000	 34.689116 
552.000000	 34.701490 
551.000000	 34.732532 
550.000000	 34.774446 
549.000000	 34.820866 
548.000000	 34.867262 
547.000000	 34.912157 
546.000000	 34.955430 
545.000000	 34.998488 
544.000000	 35.043573 
543.000000	 35.092258 
542.000000	 35.144853 
541.000000	 35.198807 
540.000000	 35.250234 
539.000000	 35.292816 
538.000000	 35.320448 
537.000000	 35.327291 
536.000000	 35.309743 
535.000000	 35.267090 
534.000000	 35.202598 
533.000000	 35.122108 
532.000000	 35.033440 
531.000000	 34.944605 
530.000000	 34.862637 
529.000000	 34.791946 
528.000000	 34.734272 
527.000000	 34.688639 
526.000000	 34.652280 
525.000000	 34.622025 
524.000000	 34.595179 
523.000000	 34.570407 
522.000000	 34.547281 
521.000000	 34.525871 
520.000000	 34.505724 
519.000000	 34.484386 
518.000000	 34.457492 
517.000000	 34.420204 
516.000000	 34.367871 
515.000000	 34.296917 
514.000000	 34.206128 
513.000000	 34.097695 
512.000000	 33.976936 
511.000000	 33.851289 
510.000000	 33.729219 
509.000000	 33.619356 
508.000000	 33.527421 
507.000000	 33.456015 
506.000000	 33.402466 
505.000000	 33.360099 
504.000000	 33.318424 
503.000000	 33.265781 
502.000000	 33.191967 
501.000000	 33.090758 
500.000000	 32.962298 
499.000000	 32.813501 
498.000000	 32.656335 
497.000000	 32.504606 
496.000000	 32.371830 
495.000000	 32.267284 
494.000000	 32.192492 
493.000000	 32.141184 
492.000000	 32.101321 
491.000000	 32.058763 
490.000000	 32.000970 
489.000000	 31.921219 
488.000000	 31.820344 
487.000000	 31.706809 
486.000000	 31.593418 
485.000000	 31.494116 
484.000000	 31.418824 
483.000000	 31.371355 
482.000000	 31.347656 
481.000000	 31.337833 
480.000000	 31.328773 
479.000000	 31.308603 
478.000000	 31.269860 
477.000000	 31.212496 
476.000000	 31.143665 
475.000000	 31.075882 
474.000000	 31.023025 
473.000000	 30.997848 
472.000000	 31.008434 
471.000000	 31.058931 
470.000000	 31.148529 
469.000000	 31.272673 
468.000000	 31.423163 
467.000000	 31.588935 
466.000000	 31.756782 
465.000000	 31.912541 
464.000000	 32.042455 
463.000000	 32.134580 
462.000000	 32.180380 
461.000000	 32.178354 
460.000000	 32.131528 
459.000000	 32.048535 
458.000000	 31.939387 
457.000000	 31.815052 
456.000000	 31.684398 
455.000000	 31.554818 
454.000000	 31.431293 
453.000000	 31.316661 
452.000000	 31.214475 
451.000000	 31.131243 
450.000000	 31.073045 
449.000000	 31.044864 
448.000000	 31.046485 
447.000000	 31.071734 
446.000000	 31.105661 
445.000000	 31.127095 
444.000000	 31.113076 
443.000000	 31.045365 
442.000000	 30.915498 
441.000000	 30.729222 
440.000000	 30.507302 
439.000000	 30.281901 
438.000000	 30.089759 
437.000000	 29.962825 
436.000000	 29.922103 
435.000000	 29.970169 
434.000000	 30.089259 
433.000000	 30.244469 
432.000000	 30.398869 
431.000000	 30.512857 
430.000000	 30.556178 
429.000000	 30.506396 
428.000000	 30.348348 
427.000000	 30.079412 
426.000000	 29.713892 
425.000000	 29.273343 
424.000000	 28.775930 
423.000000	 28.252315 
422.000000	 27.750301 
421.000000	 27.311277 
420.000000	 26.963424 
419.000000	 26.721000 
418.000000	 26.582312 
417.000000	 26.535892 
416.000000	 26.565790 
415.000000	 26.645088 
414.000000	 26.744461 
413.000000	 26.847672 
412.000000	 26.944828 
411.000000	 27.043175 
410.000000	 27.142286 
409.000000	 27.212762 
408.000000	 27.202391 
407.000000	 27.030873 
406.000000	 26.636481 
405.000000	 25.986051 
404.000000	 25.126886 
403.000000	 24.178481 
402.000000	 23.344373 
401.000000	 22.839236 
400.000000	 22.899842 
399.000000	 23.676490 
398.000000	 25.297355 
397.000000	 27.843713 
396.000000	 31.310820 
395.000000	 35.620021 
394.000000	 40.473890 
393.000000	 45.377063 
392.000000	 49.661755 
391.000000	 52.616786 
390.000000	 53.695940 
389.000000	 52.656555 
388.000000	 49.729013 
387.000000	 45.552277 
386.000000	 40.951299 
385.000000	 36.773705 
384.000000	 33.629107 
383.000000	 31.844139 
382.000000	 31.529641 
381.000000	 32.548260 
380.000000	 34.762144 
379.000000	 37.886404 
378.000000	 41.475582 
377.000000	 44.998812 
376.000000	 47.830915 
375.000000	 49.465036 
374.000000	 49.532413 
373.000000	 48.010683 
372.000000	 45.318150 
371.000000	 42.083024 
370.000000	 38.975501 

