PE IR       SPECTRUM    SPECTRUM    ASCII       PEDS        1.60        
  -1
C-1CEF~1.ASC
17/03/27
19:09:55.00
17/03/27
19:09:55.00
tln
$C-4040-8_t0057$<tbV0>[10.4,0.0,8.0,0.0,27,1,0]
370.000000
64









2002,4.07    
MIRTGS : RIGHTBACK : INTERNAL 2
MIR : ON : INTERNAL 2
OPTKBR

0.200000
8
8.000000
FILLER
RATIO
SPECTRUM
UNLOCKED 256

DOUBLE
64
COMBINED
1
0
0


1.000000
RATIO


1
0
TRUE
51149
0
LEFT NOT FITTED RIGHT NOT FITTED 0
NONE
NONE
15600
12.000000
4.427000
51148
TRUE
1 0 8 72 0 0 0 0 

15798.010000






#HDR
-1
-1
#GR
CM-1
%T
0.00002384185791015625
0.0
5000.000000
-1.000000
4631
8
85.567307
19.030427
#DATA
5000.000000	65.159749 
4999.000000	65.172004 
4998.000000	65.159630 
4997.000000	65.119791 
4996.000000	65.055465 
4995.000000	64.975047 
4994.000000	64.891743 
4993.000000	64.821219 
4992.000000	64.777302 
4991.000000	64.769148 
4990.000000	64.797973 
4989.000000	64.856719 
4988.000000	64.931654 
4987.000000	65.006279 
4986.000000	65.064167 
4985.000000	65.092754 
4984.000000	65.085959 
4983.000000	65.045571 
4982.000000	64.979910 
4981.000000	64.902305 
4980.000000	64.828562 
4979.000000	64.773988 
4978.000000	64.751601 
4977.000000	64.769220 
4976.000000	64.828944 
4975.000000	64.926123 
4974.000000	65.051078 
4973.000000	65.189909 
4972.000000	65.326642 
4971.000000	65.446567 
4970.000000	65.537834 
4969.000000	65.594315 
4968.000000	65.615844 
4967.000000	65.607881 
4966.000000	65.580177 
4965.000000	65.543246 
4964.000000	65.506601 
4963.000000	65.475726 
4962.000000	65.451979 
4961.000000	65.432572 
4960.000000	65.412950 
4959.000000	65.388751 
4958.000000	65.358281 
4957.000000	65.322160 
4956.000000	65.283632 
4955.000000	65.246582 
4954.000000	65.214538 
4953.000000	65.189218 
4952.000000	65.170645 
4951.000000	65.156722 
4950.000000	65.145277 
4949.000000	65.135240 
4948.000000	65.127968 
4947.000000	65.127325 
4946.000000	65.138792 
4945.000000	65.168070 
4944.000000	65.218353 
4943.000000	65.288496 
4942.000000	65.371680 
4941.000000	65.457224 
4940.000000	65.531206 
4939.000000	65.579605 
4938.000000	65.591406 
4937.000000	65.561103 
4936.000000	65.490937 
4935.000000	65.390348 
4934.000000	65.275239 
4933.000000	65.164828 
4932.000000	65.078234 
4931.000000	65.030741 
4930.000000	65.030193 
4929.000000	65.075373 
4928.000000	65.156364 
4927.000000	65.256857 
4926.000000	65.357494 
4925.000000	65.440130 
4924.000000	65.491104 
4923.000000	65.503668 
4922.000000	65.478539 
4921.000000	65.422487 
4920.000000	65.345382 
4919.000000	65.257549 
4918.000000	65.167593 
4917.000000	65.081000 
4916.000000	64.999938 
4915.000000	64.924907 
4914.000000	64.856886 
4913.000000	64.798021 
4912.000000	64.752745 
4911.000000	64.726567 
4910.000000	64.724111 
4909.000000	64.747619 
4908.000000	64.794445 
4907.000000	64.858365 
4906.000000	64.929866 
4905.000000	64.998912 
4904.000000	65.056872 
4903.000000	65.098381 
4902.000000	65.121841 
4901.000000	65.129399 
4900.000000	65.125179 
4899.000000	65.112972 
4898.000000	65.094280 
4897.000000	65.068173 
4896.000000	65.030741 
4895.000000	64.976692 
4894.000000	64.900779 
4893.000000	64.800643 
4892.000000	64.678072 
4891.000000	64.539170 
4890.000000	64.394545 
4889.000000	64.256501 
4888.000000	64.138174 
4887.000000	64.049983 
4886.000000	63.999080 
4885.000000	63.988113 
4884.000000	64.015197 
4883.000000	64.073610 
4882.000000	64.154171 
4881.000000	64.246177 
4880.000000	64.339470 
4879.000000	64.425134 
4878.000000	64.496588 
4877.000000	64.549422 
4876.000000	64.581799 
4875.000000	64.594221 
4874.000000	64.588999 
4873.000000	64.569997 
4872.000000	64.543342 
4871.000000	64.516401 
4870.000000	64.497256 
4869.000000	64.492917 
4868.000000	64.507770 
4867.000000	64.542460 
4866.000000	64.593482 
4865.000000	64.654016 
4864.000000	64.714598 
4863.000000	64.766645 
4862.000000	64.804005 
4861.000000	64.825701 
4860.000000	64.835596 
4859.000000	64.842152 
4858.000000	64.856171 
4857.000000	64.887189 
4856.000000	64.940500 
4855.000000	65.014934 
4854.000000	65.103101 
4853.000000	65.192222 
4852.000000	65.267682 
4851.000000	65.315747 
4850.000000	65.327501 
4849.000000	65.299916 
4848.000000	65.236997 
4847.000000	65.147972 
4846.000000	65.045404 
4845.000000	64.942908 
4844.000000	64.852762 
4843.000000	64.784455 
4842.000000	64.743208 
4841.000000	64.730477 
4840.000000	64.743947 
4839.000000	64.778590 
4838.000000	64.827775 
4837.000000	64.883923 
4836.000000	64.940023 
4835.000000	64.989328 
4834.000000	65.027165 
4833.000000	65.050673 
4832.000000	65.059018 
4831.000000	65.053081 
4830.000000	65.035080 
4829.000000	65.008378 
4828.000000	64.976501 
4827.000000	64.942741 
4826.000000	64.910197 
4825.000000	64.881873 
4824.000000	64.860582 
4823.000000	64.849019 
4822.000000	64.849090 
4821.000000	64.861583 
4820.000000	64.885401 
4819.000000	64.917516 
4818.000000	64.953041 
4817.000000	64.986228 
4816.000000	65.011310 
4815.000000	65.024018 
4814.000000	65.022230 
4813.000000	65.006828 
4812.000000	64.981818 
4811.000000	64.953064 
4810.000000	64.927148 
4809.000000	64.909386 
4808.000000	64.902710 
4807.000000	64.906716 
4806.000000	64.918327 
4805.000000	64.931893 
4804.000000	64.940690 
4803.000000	64.939236 
4802.000000	64.924407 
4801.000000	64.896678 
4800.000000	64.859676 
4799.000000	64.819955 
4798.000000	64.785170 
4797.000000	64.762759 
4796.000000	64.758110 
4795.000000	64.773631 
4794.000000	64.808154 
4793.000000	64.857268 
4792.000000	64.914321 
4791.000000	64.971542 
4790.000000	65.021467 
4789.000000	65.058279 
4788.000000	65.078711 
4787.000000	65.082502 
4786.000000	65.071916 
4785.000000	65.051245 
4784.000000	65.025019 
4783.000000	64.997673 
4782.000000	64.971423 
4781.000000	64.946722 
4780.000000	64.921879 
4779.000000	64.894461 
4778.000000	64.862227 
4777.000000	64.824199 
4776.000000	64.781689 
4775.000000	64.738464 
4774.000000	64.699983 
4773.000000	64.671945 
4772.000000	64.659094 
4771.000000	64.663863 
4770.000000	64.685463 
4769.000000	64.719533 
4768.000000	64.759445 
4767.000000	64.797806 
4766.000000	64.828133 
4765.000000	64.846515 
4764.000000	64.852118 
4763.000000	64.847016 
4762.000000	64.835739 
4761.000000	64.823293 
4760.000000	64.814352 
4759.000000	64.811110 
4758.000000	64.813566 
4757.000000	64.818429 
4756.000000	64.820575 
4755.000000	64.813828 
4754.000000	64.793467 
4753.000000	64.757037 
4752.000000	64.705133 
4751.000000	64.641666 
4750.000000	64.573264 
4749.000000	64.507365 
4748.000000	64.450287 
4747.000000	64.405918 
4746.000000	64.374828 
4745.000000	64.354610 
4744.000000	64.340543 
4743.000000	64.327740 
4742.000000	64.312815 
4741.000000	64.295101 
4740.000000	64.276957 
4739.000000	64.263105 
4738.000000	64.259076 
4737.000000	64.268970 
4736.000000	64.294457 
4735.000000	64.333105 
4734.000000	64.379596 
4733.000000	64.426946 
4732.000000	64.468860 
4731.000000	64.501380 
4730.000000	64.524221 
4729.000000	64.540433 
4728.000000	64.555549 
4727.000000	64.575386 
4726.000000	64.603948 
4725.000000	64.641928 
4724.000000	64.686346 
4723.000000	64.731431 
4722.000000	64.770245 
4721.000000	64.796900 
4720.000000	64.808440 
4719.000000	64.805984 
4718.000000	64.794158 
4717.000000	64.779591 
4716.000000	64.769101 
4715.000000	64.767932 
4714.000000	64.778161 
4713.000000	64.798092 
4712.000000	64.823532 
4711.000000	64.848947 
4710.000000	64.868950 
4709.000000	64.879798 
4708.000000	64.879918 
4707.000000	64.870047 
4706.000000	64.852404 
4705.000000	64.830017 
4704.000000	64.805245 
4703.000000	64.779782 
4702.000000	64.755177 
4701.000000	64.732670 
4700.000000	64.713358 
4699.000000	64.698457 
4698.000000	64.689850 
4697.000000	64.689064 
4696.000000	64.696645 
4695.000000	64.712023 
4694.000000	64.733242 
4693.000000	64.757776 
4692.000000	64.782500 
4691.000000	64.805173 
4690.000000	64.824652 
4689.000000	64.841318 
4688.000000	64.856672 
4687.000000	64.873313 
4686.000000	64.893817 
4685.000000	64.920067 
4684.000000	64.952588 
4683.000000	64.990520 
4682.000000	65.031385 
4681.000000	65.072131 
4680.000000	65.108704 
4679.000000	65.137004 
4678.000000	65.152478 
4677.000000	65.151619 
4676.000000	65.131616 
4675.000000	65.090799 
4674.000000	65.029168 
4673.000000	64.949440 
4672.000000	64.856719 
4671.000000	64.758229 
4670.000000	64.662623 
4669.000000	64.579367 
4668.000000	64.516758 
4667.000000	64.480400 
4666.000000	64.472222 
4665.000000	64.489841 
4664.000000	64.527487 
4663.000000	64.577102 
4662.000000	64.629483 
4661.000000	64.675831 
4660.000000	64.709138 
4659.000000	64.725160 
4658.000000	64.722609 
4657.000000	64.703154 
4656.000000	64.671635 
4655.000000	64.635181 
4654.000000	64.601993 
4653.000000	64.579963 
4652.000000	64.575672 
4651.000000	64.592933 
4650.000000	64.632177 
4649.000000	64.690566 
4648.000000	64.762926 
4647.000000	64.842939 
4646.000000	64.924383 
4645.000000	65.002441 
4644.000000	65.074753 
4643.000000	65.140485 
4642.000000	65.200304 
4641.000000	65.253710 
4640.000000	65.298175 
4639.000000	65.329074 
4638.000000	65.340971 
4637.000000	65.328860 
4636.000000	65.290307 
4635.000000	65.227460 
4634.000000	65.147924 
4633.000000	65.062546 
4632.000000	64.983129 
4631.000000	64.919400 
4630.000000	64.876914 
4629.000000	64.855623 
4628.000000	64.850425 
4627.000000	64.852881 
4626.000000	64.853692 
4625.000000	64.845800 
4624.000000	64.825773 
4623.000000	64.794158 
4622.000000	64.754199 
4621.000000	64.709901 
4620.000000	64.664840 
4619.000000	64.619565 
4618.000000	64.573431 
4617.000000	64.524841 
4616.000000	64.473438 
4615.000000	64.421439 
4614.000000	64.373826 
4613.000000	64.337635 
4612.000000	64.320516 
4611.000000	64.327883 
4610.000000	64.362668 
4609.000000	64.423418 
4608.000000	64.505314 
4607.000000	64.600682 
4606.000000	64.700841 
4605.000000	64.797186 
4604.000000	64.882659 
4603.000000	64.952039 
4602.000000	65.001797 
4601.000000	65.029835 
4600.000000	65.035200 
4599.000000	65.018010 
4598.000000	64.979434 
4597.000000	64.921617 
4596.000000	64.848971 
4595.000000	64.767599 
4594.000000	64.685273 
4593.000000	64.610719 
4592.000000	64.551901 
4591.000000	64.515733 
4590.000000	64.506483 
4589.000000	64.525842 
4588.000000	64.572381 
4587.000000	64.642286 
4586.000000	64.729237 
4585.000000	64.825963 
4584.000000	64.924645 
4583.000000	65.018153 
4582.000000	65.100502 
4581.000000	65.167522 
4580.000000	65.216612 
4579.000000	65.247058 
4578.000000	65.259671 
4577.000000	65.256237 
4576.000000	65.239095 
4575.000000	65.211224 
4574.000000	65.175485 
4573.000000	65.134668 
4572.000000	65.090775 
4571.000000	65.045094 
4570.000000	64.998054 
4569.000000	64.949798 
4568.000000	64.900779 
4567.000000	64.852094 
4566.000000	64.805889 
4565.000000	64.765214 
4564.000000	64.733648 
4563.000000	64.713835 
4562.000000	64.707469 
4561.000000	64.714288 
4560.000000	64.732170 
4559.000000	64.757418 
4558.000000	64.785575 
4557.000000	64.812135 
4556.000000	64.833211 
4555.000000	64.846110 
4554.000000	64.849162 
4553.000000	64.841508 
4552.000000	64.823246 
4551.000000	64.795470 
4550.000000	64.760136 
4549.000000	64.720463 
4548.000000	64.682173 
4547.000000	64.652752 
4546.000000	64.640522 
4545.000000	64.652562 
4544.000000	64.692783 
4543.000000	64.760327 
4542.000000	64.848756 
4541.000000	64.947319 
4540.000000	65.042757 
4539.000000	65.122580 
4538.000000	65.178012 
4537.000000	65.205574 
4536.000000	65.207171 
4535.000000	65.189456 
4534.000000	65.161561 
4533.000000	65.132999 
4532.000000	65.111160 
4531.000000	65.100359 
4530.000000	65.102076 
4529.000000	65.114855 
4528.000000	65.136265 
4527.000000	65.162873 
4526.000000	65.191841 
4525.000000	65.219283 
4524.000000	65.241050 
4523.000000	65.251803 
4522.000000	65.245890 
4521.000000	65.218877 
4520.000000	65.168976 
4519.000000	65.098738 
4518.000000	65.015268 
4517.000000	64.928865 
4516.000000	64.851403 
4515.000000	64.793777 
4514.000000	64.763736 
4513.000000	64.763808 
4512.000000	64.791369 
4511.000000	64.839172 
4510.000000	64.897394 
4509.000000	64.955902 
4508.000000	65.006518 
4507.000000	65.043616 
4506.000000	65.065741 
4505.000000	65.074920 
4504.000000	65.075612 
4503.000000	65.072512 
4502.000000	65.069603 
4501.000000	65.069198 
4500.000000	65.071606 
4499.000000	65.075778 
4498.000000	65.079402 
4497.000000	65.080356 
4496.000000	65.077185 
4495.000000	65.070080 
4494.000000	65.061259 
4493.000000	65.054965 
4492.000000	65.056347 
4491.000000	65.070414 
4490.000000	65.100288 
4489.000000	65.146470 
4488.000000	65.206503 
4487.000000	65.274977 
4486.000000	65.344882 
4485.000000	65.408325 
4484.000000	65.459012 
4483.000000	65.491890 
4482.000000	65.503525 
4481.000000	65.492296 
4480.000000	65.458488 
4479.000000	65.404343 
4478.000000	65.334081 
4477.000000	65.253615 
4476.000000	65.170526 
4475.000000	65.092849 
4474.000000	65.028357 
4473.000000	64.982628 
4472.000000	64.958524 
4471.000000	64.955043 
4470.000000	64.967942 
4469.000000	64.990234 
4468.000000	65.014100 
4467.000000	65.032577 
4466.000000	65.041494 
4465.000000	65.039849 
4464.000000	65.030503 
4463.000000	65.018653 
4462.000000	65.010976 
4461.000000	65.013289 
4460.000000	65.029573 
4459.000000	65.060901 
4458.000000	65.105485 
4457.000000	65.159726 
4456.000000	65.218687 
4455.000000	65.277838 
4454.000000	65.333557 
4453.000000	65.383124 
4452.000000	65.425467 
4451.000000	65.460491 
4450.000000	65.488672 
4449.000000	65.510439 
4448.000000	65.525913 
4447.000000	65.534877 
4446.000000	65.537333 
4445.000000	65.534210 
4444.000000	65.527153 
4443.000000	65.518617 
4442.000000	65.511679 
4441.000000	65.509581 
4440.000000	65.514469 
4439.000000	65.527057 
4438.000000	65.546321 
4437.000000	65.570235 
4436.000000	65.596413 
4435.000000	65.623211 
4434.000000	65.650320 
4433.000000	65.678501 
4432.000000	65.709519 
4431.000000	65.744304 
4430.000000	65.782141 
4429.000000	65.819931 
4428.000000	65.853357 
4427.000000	65.876579 
4426.000000	65.884017 
4425.000000	65.871548 
4424.000000	65.838241 
4423.000000	65.786767 
4422.000000	65.722632 
4421.000000	65.654611 
4420.000000	65.593218 
4419.000000	65.548443 
4418.000000	65.527749 
4417.000000	65.533375 
4416.000000	65.562009 
4415.000000	65.605378 
4414.000000	65.652680 
4413.000000	65.694618 
4412.000000	65.725708 
4411.000000	65.746760 
4410.000000	65.763330 
4409.000000	65.782213 
4408.000000	65.808415 
4407.000000	65.842437 
4406.000000	65.879249 
4405.000000	65.910458 
4404.000000	65.925240 
4403.000000	65.914678 
4402.000000	65.872669 
4401.000000	65.800023 
4400.000000	65.701961 
4399.000000	65.583753 
4398.000000	65.454030 
4397.000000	65.327620 
4396.000000	65.216565 
4395.000000	65.123486 
4394.000000	65.051031 
4393.000000	65.003228 
4392.000000	64.984989 
4391.000000	65.003204 
4390.000000	65.055823 
4389.000000	65.131449 
4388.000000	65.212535 
4387.000000	65.279936 
4386.000000	65.328979 
4385.000000	65.368390 
4384.000000	65.417838 
4383.000000	65.497970 
4382.000000	65.617346 
4381.000000	65.769600 
4380.000000	65.924859 
4379.000000	66.044950 
4378.000000	66.107058 
4377.000000	66.094732 
4376.000000	66.038560 
4375.000000	65.952014 
4374.000000	65.829658 
4373.000000	65.613842 
4372.000000	65.200901 
4371.000000	64.468073 
4370.000000	63.300752 
4369.000000	61.664843 
4368.000000	59.633398 
4367.000000	57.408428 
4366.000000	55.288171 
4365.000000	53.611993 
4364.000000	52.678751 
4363.000000	52.664017 
4362.000000	53.564929 
4361.000000	55.180644 
4360.000000	57.150769 
4359.000000	59.020543 
4358.000000	60.355687 
4357.000000	60.829162 
4356.000000	60.318517 
4355.000000	58.926439 
4354.000000	56.970548 
4353.000000	54.891204 
4352.000000	53.157281 
4351.000000	52.142381 
4350.000000	52.055382 
4349.000000	52.901554 
4348.000000	54.507064 
4347.000000	56.596946 
4346.000000	58.856797 
4345.000000	61.028838 
4344.000000	62.935638 
4343.000000	64.487957 
4342.000000	65.678954 
4341.000000	66.529035 
4340.000000	67.088222 
4339.000000	67.398190 
4338.000000	67.505478 
4337.000000	67.463016 
4336.000000	67.316818 
4335.000000	67.110657 
4334.000000	66.881823 
4333.000000	66.662001 
4332.000000	66.465115 
4331.000000	66.290473 
4330.000000	66.129183 
4329.000000	65.969586 
4328.000000	65.805816 
4327.000000	65.640497 
4326.000000	65.480875 
4325.000000	65.339684 
4324.000000	65.232396 
4323.000000	65.171217 
4322.000000	65.156984 
4321.000000	65.181493 
4320.000000	65.223765 
4319.000000	65.261602 
4318.000000	65.279936 
4317.000000	65.271687 
4316.000000	65.241241 
4315.000000	65.197658 
4314.000000	65.144371 
4313.000000	65.088295 
4312.000000	65.039777 
4311.000000	65.005707 
4310.000000	64.987826 
4309.000000	64.986085 
4308.000000	64.999747 
4307.000000	65.025210 
4306.000000	65.057778 
4305.000000	65.093588 
4304.000000	65.130925 
4303.000000	65.171170 
4302.000000	65.217900 
4301.000000	65.274238 
4300.000000	65.341114 
4299.000000	65.416836 
4298.000000	65.496158 
4297.000000	65.570354 
4296.000000	65.629720 
4295.000000	65.666055 
4294.000000	65.675067 
4293.000000	65.657877 
4292.000000	65.621018 
4291.000000	65.575528 
4290.000000	65.533995 
4289.000000	65.507793 
4288.000000	65.503954 
4287.000000	65.523672 
4286.000000	65.563130 
4285.000000	65.615415 
4284.000000	65.672540 
4283.000000	65.727829 
4282.000000	65.777158 
4281.000000	65.819478 
4280.000000	65.855407 
4279.000000	65.886211 
4278.000000	65.912389 
4277.000000	65.932965 
4276.000000	65.945982 
4275.000000	65.948772 
4274.000000	65.939998 
4273.000000	65.919375 
4272.000000	65.889334 
4271.000000	65.852808 
4270.000000	65.813589 
4269.000000	65.773487 
4268.000000	65.732169 
4267.000000	65.686798 
4266.000000	65.633249 
4265.000000	65.567374 
4264.000000	65.487122 
4263.000000	65.393567 
4262.000000	65.291452 
4261.000000	65.188336 
4260.000000	65.092945 
4259.000000	65.012907 
4258.000000	64.952778 
4257.000000	64.913344 
4256.000000	64.891338 
4255.000000	64.881014 
4254.000000	64.875698 
4253.000000	64.869809 
4252.000000	64.860463 
4251.000000	64.848184 
4250.000000	64.836454 
4249.000000	64.829730 
4248.000000	64.832305 
4247.000000	64.846301 
4246.000000	64.871335 
4245.000000	64.903974 
4244.000000	64.938974 
4243.000000	64.970636 
4242.000000	64.994382 
4241.000000	65.008020 
4240.000000	65.012454 
4239.000000	65.010356 
4238.000000	65.006470 
4237.000000	65.005970 
4236.000000	65.013194 
4235.000000	65.030384 
4234.000000	65.057778 
4233.000000	65.093922 
4232.000000	65.135812 
4231.000000	65.179944 
4230.000000	65.222835 
4229.000000	65.262007 
4228.000000	65.295910 
4227.000000	65.323877 
4226.000000	65.346384 
4225.000000	65.364336 
4224.000000	65.378928 
4223.000000	65.390849 
4222.000000	65.400648 
4221.000000	65.408062 
4220.000000	65.411949 
4219.000000	65.410399 
4218.000000	65.400934 
4217.000000	65.381908 
4216.000000	65.353631 
4215.000000	65.318870 
4214.000000	65.282058 
4213.000000	65.249371 
4212.000000	65.227651 
4211.000000	65.222549 
4210.000000	65.236759 
4209.000000	65.269398 
4208.000000	65.316438 
4207.000000	65.370631 
4206.000000	65.423083 
4205.000000	65.464591 
4204.000000	65.487527 
4203.000000	65.487241 
4202.000000	65.462732 
4201.000000	65.417480 
4200.000000	65.358805 
4199.000000	65.296864 
4198.000000	65.242481 
4197.000000	65.206217 
4196.000000	65.195322 
4195.000000	65.212798 
4194.000000	65.255212 
4193.000000	65.312790 
4192.000000	65.370559 
4191.000000	65.411019 
4190.000000	65.417861 
4189.000000	65.379595 
4188.000000	65.292382 
4187.000000	65.161442 
4186.000000	64.999580 
4185.000000	64.824509 
4184.000000	64.654994 
4183.000000	64.507031 
4182.000000	64.391040 
4181.000000	64.310503 
4180.000000	64.262890 
4179.000000	64.241933 
4178.000000	64.239621 
4177.000000	64.248800 
4176.000000	64.264345 
4175.000000	64.283394 
4174.000000	64.304590 
4173.000000	64.326810 
4172.000000	64.348340 
4171.000000	64.366579 
4170.000000	64.378952 
4169.000000	64.383673 
4168.000000	64.381599 
4167.000000	64.375925 
4166.000000	64.371776 
4165.000000	64.374470 
4164.000000	64.387965 
4163.000000	64.413523 
4162.000000	64.448976 
4161.000000	64.489173 
4160.000000	64.527487 
4159.000000	64.557933 
4158.000000	64.576959 
4157.000000	64.584779 
4156.000000	64.585566 
4155.000000	64.586162 
4154.000000	64.593410 
4153.000000	64.613199 
4152.000000	64.648437 
4151.000000	64.698386 
4150.000000	64.758729 
4149.000000	64.823484 
4148.000000	64.886903 
4147.000000	64.944648 
4146.000000	64.994645 
4145.000000	65.036869 
4144.000000	65.072655 
4143.000000	65.103864 
4142.000000	65.131616 
4141.000000	65.155506 
4140.000000	65.173292 
4139.000000	65.181756 
4138.000000	65.177655 
4137.000000	65.159058 
4136.000000	65.126371 
4135.000000	65.082859 
4134.000000	65.034341 
4133.000000	64.988398 
4132.000000	64.952707 
4131.000000	64.933490 
4130.000000	64.934062 
4129.000000	64.954304 
4128.000000	64.990639 
4127.000000	65.036892 
4126.000000	65.085625 
4125.000000	65.129733 
4124.000000	65.163636 
4123.000000	65.184283 
4122.000000	65.190958 
4121.000000	65.184617 
4120.000000	65.166902 
4119.000000	65.139222 
4118.000000	65.102100 
4117.000000	65.055394 
4116.000000	64.998888 
4115.000000	64.933466 
4114.000000	64.861631 
4113.000000	64.788293 
4112.000000	64.720678 
4111.000000	64.666986 
4110.000000	64.634394 
4109.000000	64.627766 
4108.000000	64.647507 
4107.000000	64.690184 
4106.000000	64.747881 
4105.000000	64.811539 
4104.000000	64.872527 
4103.000000	64.924979 
4102.000000	64.966630 
4101.000000	64.998579 
4100.000000	65.023922 
4099.000000	65.046072 
4098.000000	65.066885 
4097.000000	65.086412 
4096.000000	65.102934 
4095.000000	65.114188 
4094.000000	65.118646 
4093.000000	65.116667 
4092.000000	65.111088 
4091.000000	65.106630 
4090.000000	65.108442 
4089.000000	65.120124 
4088.000000	65.142536 
4087.000000	65.173101 
4086.000000	65.206456 
4085.000000	65.235972 
4084.000000	65.255236 
4083.000000	65.260648 
4082.000000	65.251135 
4081.000000	65.228295 
4080.000000	65.195274 
4079.000000	65.155935 
4078.000000	65.113735 
4077.000000	65.071272 
4076.000000	65.030097 
4075.000000	64.991331 
4074.000000	64.955592 
4073.000000	64.923691 
4072.000000	64.896011 
4071.000000	64.872407 
4070.000000	64.852356 
4069.000000	64.835023 
4068.000000	64.819693 
4067.000000	64.805817 
4066.000000	64.793682 
4065.000000	64.784502 
4064.000000	64.780235 
4063.000000	64.782810 
4062.000000	64.793372 
4061.000000	64.811778 
4060.000000	64.835762 
4059.000000	64.861845 
4058.000000	64.886260 
4057.000000	64.906215 
4056.000000	64.920878 
4055.000000	64.931416 
4054.000000	64.940690 
4053.000000	64.951992 
4052.000000	64.967823 
4051.000000	64.988517 
4050.000000	65.012025 
4049.000000	65.033960 
4048.000000	65.049529 
4047.000000	65.054202 
4046.000000	65.045261 
4045.000000	65.022945 
4044.000000	64.990806 
4043.000000	64.954805 
4042.000000	64.922094 
4041.000000	64.899206 
4040.000000	64.890456 
4039.000000	64.896941 
4038.000000	64.916324 
4037.000000	64.943480 
4036.000000	64.971804 
4035.000000	64.994716 
4034.000000	65.007138 
4033.000000	65.006303 
4032.000000	64.992356 
4031.000000	64.967656 
4030.000000	64.936733 
4029.000000	64.904522 
4028.000000	64.876055 
4027.000000	64.855575 
4026.000000	64.846444 
4025.000000	64.850664 
4024.000000	64.869189 
4023.000000	64.901876 
4022.000000	64.947295 
4021.000000	65.002846 
4020.000000	65.064406 
4019.000000	65.126466 
4018.000000	65.182471 
4017.000000	65.225529 
4016.000000	65.249776 
4015.000000	65.251541 
4014.000000	65.230226 
4013.000000	65.188503 
4012.000000	65.131807 
4011.000000	65.067386 
4010.000000	65.003252 
4009.000000	64.946675 
4008.000000	64.903354 
4007.000000	64.876461 
4006.000000	64.866781 
4005.000000	64.872646 
4004.000000	64.890551 
4003.000000	64.916110 
4002.000000	64.944052 
4001.000000	64.970111 
4000.000000	64.991164 
3999.000000	65.006160 
3998.000000	65.015625 
3997.000000	65.021514 
3996.000000	65.026140 
3995.000000	65.031337 
3994.000000	65.037918 
3993.000000	65.044569 
3992.000000	65.048265 
3991.000000	65.044951 
3990.000000	65.030884 
3989.000000	65.004229 
3988.000000	64.966201 
3987.000000	64.921069 
3986.000000	64.875698 
3985.000000	64.837694 
3984.000000	64.813399 
3983.000000	64.806056 
3982.000000	64.814853 
3981.000000	64.835119 
3980.000000	64.859509 
3979.000000	64.880084 
3978.000000	64.890313 
3977.000000	64.886331 
3976.000000	64.867830 
3975.000000	64.837455 
3974.000000	64.800381 
3973.000000	64.762187 
3972.000000	64.728379 
3971.000000	64.702701 
3970.000000	64.687442 
3969.000000	64.683341 
3968.000000	64.690041 
3967.000000	64.706993 
3966.000000	64.733242 
3965.000000	64.767575 
3964.000000	64.808440 
3963.000000	64.853501 
3962.000000	64.900064 
3961.000000	64.944839 
3960.000000	64.984917 
3959.000000	65.017986 
3958.000000	65.042901 
3957.000000	65.059900 
3956.000000	65.070199 
3955.000000	65.075540 
3954.000000	65.077400 
3953.000000	65.076565 
3952.000000	65.073084 
3951.000000	65.066432 
3950.000000	65.055847 
3949.000000	65.040969 
3948.000000	65.022706 
3947.000000	65.003275 
3946.000000	64.986038 
3945.000000	64.974880 
3944.000000	64.973187 
3943.000000	64.983296 
3942.000000	65.005207 
3941.000000	65.037178 
3940.000000	65.075635 
3939.000000	65.116190 
3938.000000	65.154528 
3937.000000	65.186929 
3936.000000	65.210843 
3935.000000	65.224766 
3934.000000	65.228271 
3933.000000	65.221166 
3932.000000	65.203070 
3931.000000	65.173745 
3930.000000	65.133666 
3929.000000	65.084218 
3928.000000	65.028238 
3927.000000	64.970374 
3926.000000	64.916515 
3925.000000	64.873075 
3924.000000	64.845848 
3923.000000	64.838624 
3922.000000	64.852595 
3921.000000	64.885711 
3920.000000	64.933633 
3919.000000	64.989972 
3918.000000	65.048193 
3917.000000	65.102791 
3916.000000	65.149950 
3915.000000	65.187883 
3914.000000	65.216279 
3913.000000	65.235829 
3912.000000	65.246677 
3911.000000	65.248346 
3910.000000	65.239119 
3909.000000	65.216970 
3908.000000	65.179896 
3907.000000	65.127229 
3906.000000	65.060353 
3905.000000	64.983582 
3904.000000	64.903426 
3903.000000	64.827966 
3902.000000	64.765143 
3901.000000	64.721393 
3900.000000	64.700078 
3899.000000	64.701247 
3898.000000	64.721560 
3897.000000	64.755582 
3896.000000	64.797186 
3895.000000	64.841127 
3894.000000	64.883875 
3893.000000	64.924192 
3892.000000	64.961957 
3891.000000	64.997792 
3890.000000	65.031552 
3889.000000	65.062284 
3888.000000	65.087509 
3887.000000	65.104365 
3886.000000	65.110349 
3885.000000	65.104913 
3884.000000	65.090298 
3883.000000	65.071392 
3882.000000	65.054869 
3881.000000	65.047502 
3880.000000	65.054798 
3879.000000	65.078949 
3878.000000	65.118217 
3877.000000	65.167307 
3876.000000	65.218520 
3875.000000	65.263605 
3874.000000	65.295886 
3873.000000	65.311241 
3872.000000	65.308904 
3871.000000	65.291547 
3870.000000	65.264511 
3869.000000	65.234088 
3868.000000	65.206575 
3867.000000	65.187120 
3866.000000	65.179085 
3865.000000	65.184450 
3864.000000	65.203142 
3863.000000	65.233969 
3862.000000	65.274167 
3861.000000	65.320181 
3860.000000	65.367293 
3859.000000	65.410232 
3858.000000	65.443110 
3857.000000	65.460801 
3856.000000	65.459012 
3855.000000	65.435600 
3854.000000	65.390896 
3853.000000	65.328097 
3852.000000	65.252733 
3851.000000	65.172100 
3850.000000	65.094351 
3849.000000	65.027356 
3848.000000	64.977622 
3847.000000	64.949584 
3846.000000	64.944648 
3845.000000	64.961504 
3844.000000	64.996147 
3843.000000	65.042638 
3842.000000	65.093755 
3841.000000	65.142440 
3840.000000	65.182209 
3839.000000	65.208721 
3838.000000	65.219831 
3837.000000	65.216374 
3836.000000	65.201497 
3835.000000	65.180087 
3834.000000	65.157508 
3833.000000	65.138196 
3832.000000	65.125250 
3831.000000	65.118861 
3830.000000	65.117311 
3829.000000	65.116357 
3828.000000	65.111398 
3827.000000	65.097975 
3826.000000	65.073227 
3825.000000	65.037012 
3824.000000	64.991974 
3823.000000	64.943742 
3822.000000	64.899897 
3821.000000	64.868831 
3820.000000	64.857935 
3819.000000	64.872360 
3818.000000	64.913654 
3817.000000	64.979457 
3816.000000	65.063738 
3815.000000	65.157842 
3814.000000	65.251636 
3813.000000	65.335226 
3812.000000	65.400648 
3811.000000	65.442633 
3810.000000	65.459561 
3809.000000	65.453124 
3808.000000	65.427947 
3807.000000	65.390896 
3806.000000	65.349578 
3805.000000	65.311646 
3804.000000	65.282988 
3803.000000	65.267872 
3802.000000	65.267777 
3801.000000	65.282058 
3800.000000	65.307664 
3799.000000	65.340328 
3798.000000	65.375018 
3797.000000	65.406990 
3796.000000	65.432071 
3795.000000	65.447378 
3794.000000	65.451383 
3793.000000	65.443825 
3792.000000	65.425539 
3791.000000	65.398144 
3790.000000	65.363907 
3789.000000	65.325522 
3788.000000	65.286111 
3787.000000	65.249133 
3786.000000	65.218114 
3785.000000	65.195941 
3784.000000	65.185022 
3783.000000	65.186285 
3782.000000	65.198612 
3781.000000	65.219140 
3780.000000	65.243554 
3779.000000	65.266847 
3778.000000	65.283894 
3777.000000	65.290832 
3776.000000	65.285634 
3775.000000	65.268826 
3774.000000	65.243172 
3773.000000	65.213251 
3772.000000	65.184068 
3771.000000	65.160417 
3770.000000	65.145587 
3769.000000	65.140628 
3768.000000	65.144348 
3767.000000	65.153717 
3766.000000	65.164542 
3765.000000	65.172481 
3764.000000	65.174102 
3763.000000	65.167427 
3762.000000	65.152502 
3761.000000	65.130925 
3760.000000	65.105628 
3759.000000	65.080070 
3758.000000	65.057301 
3757.000000	65.039491 
3756.000000	65.027403 
3755.000000	65.020823 
3754.000000	65.018725 
3753.000000	65.019679 
3752.000000	65.022587 
3751.000000	65.026831 
3750.000000	65.032720 
3749.000000	65.040826 
3748.000000	65.052127 
3747.000000	65.066766 
3746.000000	65.084266 
3745.000000	65.103340 
3744.000000	65.121936 
3743.000000	65.137839 
3742.000000	65.149450 
3741.000000	65.155959 
3740.000000	65.157961 
3739.000000	65.157270 
3738.000000	65.156221 
3737.000000	65.157008 
3736.000000	65.161013 
3735.000000	65.168285 
3734.000000	65.177583 
3733.000000	65.186643 
3732.000000	65.193128 
3731.000000	65.195274 
3730.000000	65.192532 
3729.000000	65.185618 
3728.000000	65.176725 
3727.000000	65.168428 
3726.000000	65.162992 
3725.000000	65.161299 
3724.000000	65.162920 
3723.000000	65.165758 
3722.000000	65.166783 
3721.000000	65.162920 
3720.000000	65.152192 
3719.000000	65.134263 
3718.000000	65.110707 
3717.000000	65.084719 
3716.000000	65.060281 
3715.000000	65.040874 
3714.000000	65.028715 
3713.000000	65.023899 
3712.000000	65.024495 
3711.000000	65.027260 
3710.000000	65.028619 
3709.000000	65.025615 
3708.000000	65.016937 
3707.000000	65.003013 
3706.000000	64.986228 
3705.000000	64.969992 
3704.000000	64.957928 
3703.000000	64.952945 
3702.000000	64.956450 
3701.000000	64.968371 
3700.000000	64.987015 
3699.000000	65.009784 
3698.000000	65.033984 
3697.000000	65.057158 
3696.000000	65.077996 
3695.000000	65.096569 
3694.000000	65.113949 
3693.000000	65.131711 
3692.000000	65.151286 
3691.000000	65.173172 
3690.000000	65.196514 
3689.000000	65.219283 
3688.000000	65.238451 
3687.000000	65.250730 
3686.000000	65.253567 
3685.000000	65.245723 
3684.000000	65.227484 
3683.000000	65.200829 
3682.000000	65.169143 
3681.000000	65.136861 
3680.000000	65.108561 
3679.000000	65.088176 
3678.000000	65.078639 
3677.000000	65.080976 
3676.000000	65.094375 
3675.000000	65.116119 
3674.000000	65.142154 
3673.000000	65.167522 
3672.000000	65.187406 
3671.000000	65.197801 
3670.000000	65.196323 
3669.000000	65.182662 
3668.000000	65.158152 
3667.000000	65.125799 
3666.000000	65.089559 
3665.000000	65.053439 
3664.000000	65.020966 
3663.000000	64.994692 
3662.000000	64.975714 
3661.000000	64.964199 
3660.000000	64.959645 
3659.000000	64.961123 
3658.000000	64.967465 
3657.000000	64.977455 
3656.000000	64.989972 
3655.000000	65.003585 
3654.000000	65.016746 
3653.000000	65.027713 
3652.000000	65.034890 
3651.000000	65.036797 
3650.000000	65.032935 
3649.000000	65.023517 
3648.000000	65.009880 
3647.000000	64.994382 
3646.000000	64.980220 
3645.000000	64.970684 
3644.000000	64.968729 
3643.000000	64.976668 
3642.000000	64.995527 
3641.000000	65.024995 
3640.000000	65.062975 
3639.000000	65.106153 
3638.000000	65.149903 
3637.000000	65.189099 
3636.000000	65.218544 
3635.000000	65.234088 
3634.000000	65.233302 
3633.000000	65.216040 
3632.000000	65.184688 
3631.000000	65.143728 
3630.000000	65.098929 
3629.000000	65.055990 
3628.000000	65.019869 
3627.000000	64.993500 
3626.000000	64.977836 
3625.000000	64.971899 
3624.000000	64.973187 
3623.000000	64.978885 
3622.000000	64.986705 
3621.000000	64.995837 
3620.000000	65.006256 
3619.000000	65.019416 
3618.000000	65.036702 
3617.000000	65.059542 
3616.000000	65.087938 
3615.000000	65.120649 
3614.000000	65.155386 
3613.000000	65.188813 
3612.000000	65.217709 
3611.000000	65.238833 
3610.000000	65.249848 
3609.000000	65.249419 
3608.000000	65.237617 
3607.000000	65.215826 
3606.000000	65.186810 
3605.000000	65.154194 
3604.000000	65.122079 
3603.000000	65.094399 
3602.000000	65.074229 
3601.000000	65.063381 
3600.000000	65.061855 
3599.000000	65.067863 
3598.000000	65.078258 
3597.000000	65.089249 
3596.000000	65.097212 
3595.000000	65.099525 
3594.000000	65.095210 
3593.000000	65.084838 
3592.000000	65.070295 
3591.000000	65.053868 
3590.000000	65.037870 
3589.000000	65.023684 
3588.000000	65.012311 
3587.000000	65.004444 
3586.000000	65.000724 
3585.000000	65.002059 
3584.000000	65.009450 
3583.000000	65.023875 
3582.000000	65.045642 
3581.000000	65.073871 
3580.000000	65.106582 
3579.000000	65.140867 
3578.000000	65.173387 
3577.000000	65.200901 
3576.000000	65.220856 
3575.000000	65.231847 
3574.000000	65.233778 
3573.000000	65.227699 
3572.000000	65.215086 
3571.000000	65.197849 
3570.000000	65.177965 
3569.000000	65.157365 
3568.000000	65.138387 
3567.000000	65.123248 
3566.000000	65.114402 
3565.000000	65.113568 
3564.000000	65.121650 
3563.000000	65.137767 
3562.000000	65.159130 
3561.000000	65.181756 
3560.000000	65.200996 
3559.000000	65.212941 
3558.000000	65.215206 
3557.000000	65.207624 
3556.000000	65.192246 
3555.000000	65.172815 
3554.000000	65.153789 
3553.000000	65.139245 
3552.000000	65.131735 
3551.000000	65.131831 
3550.000000	65.138101 
3549.000000	65.147590 
3548.000000	65.156769 
3547.000000	65.162587 
3546.000000	65.162992 
3545.000000	65.157580 
3544.000000	65.147519 
3543.000000	65.134859 
3542.000000	65.121889 
3541.000000	65.110278 
3540.000000	65.100765 
3539.000000	65.093111 
3538.000000	65.086102 
3537.000000	65.078067 
3536.000000	65.067481 
3535.000000	65.053677 
3534.000000	65.037155 
3533.000000	65.019559 
3532.000000	65.003609 
3531.000000	64.992237 
3530.000000	64.988064 
3529.000000	64.992713 
3528.000000	65.006303 
3527.000000	65.027117 
3526.000000	65.052151 
3525.000000	65.077710 
3524.000000	65.099906 
3523.000000	65.115523 
3522.000000	65.122461 
3521.000000	65.120244 
3520.000000	65.109968 
3519.000000	65.094208 
3518.000000	65.076518 
3517.000000	65.060853 
3516.000000	65.050959 
3515.000000	65.049648 
3514.000000	65.058302 
3513.000000	65.076589 
3512.000000	65.102672 
3511.000000	65.133285 
3510.000000	65.164661 
3509.000000	65.192961 
3508.000000	65.215063 
3507.000000	65.228986 
3506.000000	65.233993 
3505.000000	65.230298 
3504.000000	65.219259 
3503.000000	65.202379 
3502.000000	65.181112 
3501.000000	65.156602 
3500.000000	65.129971 
3499.000000	65.101790 
3498.000000	65.072607 
3497.000000	65.043354 
3496.000000	65.015363 
3495.000000	64.990305 
3494.000000	64.970159 
3493.000000	64.956545 
3492.000000	64.950704 
3491.000000	64.953112 
3490.000000	64.963316 
3489.000000	64.980149 
3488.000000	65.001678 
3487.000000	65.025329 
3486.000000	65.048789 
3485.000000	65.069556 
3484.000000	65.086102 
3483.000000	65.097689 
3482.000000	65.104579 
3481.000000	65.107512 
3480.000000	65.107965 
3479.000000	65.107560 
3478.000000	65.108084 
3477.000000	65.110850 
3476.000000	65.117263 
3475.000000	65.128755 
3474.000000	65.146565 
3473.000000	65.171623 
3472.000000	65.203881 
3471.000000	65.242052 
3470.000000	65.283417 
3469.000000	65.324139 
3468.000000	65.359854 
3467.000000	65.386486 
3466.000000	65.401434 
3465.000000	65.404272 
3464.000000	65.396857 
3463.000000	65.382862 
3462.000000	65.367293 
3461.000000	65.354633 
3460.000000	65.348172 
3459.000000	65.348410 
3458.000000	65.353560 
3457.000000	65.359425 
3456.000000	65.361118 
3455.000000	65.353631 
3454.000000	65.333795 
3453.000000	65.300798 
3452.000000	65.256667 
3451.000000	65.205788 
3450.000000	65.153646 
3449.000000	65.106058 
3448.000000	65.067815 
3447.000000	65.041923 
3446.000000	65.029168 
3445.000000	65.028214 
3444.000000	65.036106 
3443.000000	65.048980 
3442.000000	65.063023 
3441.000000	65.074992 
3440.000000	65.082859 
3439.000000	65.085458 
3438.000000	65.082812 
3437.000000	65.075469 
3436.000000	65.064620 
3435.000000	65.051364 
3434.000000	65.037059 
3433.000000	65.023231 
3432.000000	65.011668 
3431.000000	65.004396 
3430.000000	65.003132 
3429.000000	65.009045 
3428.000000	65.022063 
3427.000000	65.041160 
3426.000000	65.063810 
3425.000000	65.086579 
3424.000000	65.105581 
3423.000000	65.117478 
3422.000000	65.120267 
3421.000000	65.113830 
3420.000000	65.100169 
3419.000000	65.082931 
3418.000000	65.066599 
3417.000000	65.055322 
3416.000000	65.052151 
3415.000000	65.058302 
3414.000000	65.072989 
3413.000000	65.093660 
3412.000000	65.116763 
3411.000000	65.138435 
3410.000000	65.155124 
3409.000000	65.164566 
3408.000000	65.165543 
3407.000000	65.158724 
3406.000000	65.146017 
3405.000000	65.130519 
3404.000000	65.115904 
3403.000000	65.105605 
3402.000000	65.102553 
3401.000000	65.108299 
3400.000000	65.123200 
3399.000000	65.146017 
3398.000000	65.174555 
3397.000000	65.205764 
3396.000000	65.236711 
3395.000000	65.264558 
3394.000000	65.287280 
3393.000000	65.303516 
3392.000000	65.312600 
3391.000000	65.314435 
3390.000000	65.309357 
3389.000000	65.297937 
3388.000000	65.281057 
3387.000000	65.260338 
3386.000000	65.238070 
3385.000000	65.217113 
3384.000000	65.200376 
3383.000000	65.190434 
3382.000000	65.188789 
3381.000000	65.195202 
3380.000000	65.207886 
3379.000000	65.223646 
3378.000000	65.238642 
3377.000000	65.249252 
3376.000000	65.253162 
3375.000000	65.249681 
3374.000000	65.240335 
3373.000000	65.228247 
3372.000000	65.217661 
3371.000000	65.212583 
3370.000000	65.216135 
3369.000000	65.229701 
3368.000000	65.252518 
3367.000000	65.281939 
3366.000000	65.313839 
3365.000000	65.343308 
3364.000000	65.365433 
3363.000000	65.376186 
3362.000000	65.372657 
3361.000000	65.353655 
3360.000000	65.319800 
3359.000000	65.273475 
3358.000000	65.218687 
3357.000000	65.160179 
3356.000000	65.103173 
3355.000000	65.052390 
3354.000000	65.011787 
3353.000000	64.984035 
3352.000000	64.970207 
3351.000000	64.969897 
3350.000000	64.981460 
3349.000000	65.002608 
3348.000000	65.030431 
3347.000000	65.062379 
3346.000000	65.095829 
3345.000000	65.128707 
3344.000000	65.159058 
3343.000000	65.185379 
3342.000000	65.206265 
3341.000000	65.220665 
3340.000000	65.227961 
3339.000000	65.228056 
3338.000000	65.221524 
3337.000000	65.209341 
3336.000000	65.192890 
3335.000000	65.173625 
3334.000000	65.153026 
3333.000000	65.132451 
3332.000000	65.113353 
3331.000000	65.096974 
3330.000000	65.084648 
3329.000000	65.077638 
3328.000000	65.077209 
3327.000000	65.084338 
3326.000000	65.099596 
3325.000000	65.122699 
3324.000000	65.152406 
3323.000000	65.186643 
3322.000000	65.222883 
3321.000000	65.258193 
3320.000000	65.289783 
3319.000000	65.315389 
3318.000000	65.333461 
3317.000000	65.343332 
3316.000000	65.345215 
3315.000000	65.339875 
3314.000000	65.328669 
3313.000000	65.313506 
3312.000000	65.296363 
3311.000000	65.279078 
3310.000000	65.263080 
3309.000000	65.249109 
3308.000000	65.236949 
3307.000000	65.225696 
3306.000000	65.213918 
3305.000000	65.200090 
3304.000000	65.183210 
3303.000000	65.163111 
3302.000000	65.140509 
3301.000000	65.117096 
3300.000000	65.095233 
3299.000000	65.077424 
3298.000000	65.065622 
3297.000000	65.060615 
3296.000000	65.062046 
3295.000000	65.068268 
3294.000000	65.076756 
3293.000000	65.084695 
3292.000000	65.089559 
3291.000000	65.089702 
3290.000000	65.084409 
3289.000000	65.074205 
3288.000000	65.060305 
3287.000000	65.044593 
3286.000000	65.029168 
3285.000000	65.015792 
3284.000000	65.005660 
3283.000000	64.999127 
3282.000000	64.995956 
3281.000000	64.995479 
3280.000000	64.996886 
3279.000000	64.999938 
3278.000000	65.005159 
3277.000000	65.013694 
3276.000000	65.027236 
3275.000000	65.047168 
3274.000000	65.074133 
3273.000000	65.107321 
3272.000000	65.144562 
3271.000000	65.182352 
3270.000000	65.216851 
3269.000000	65.244436 
3268.000000	65.263128 
3267.000000	65.272808 
3266.000000	65.275573 
3265.000000	65.275335 
3264.000000	65.276360 
3263.000000	65.282273 
3262.000000	65.294504 
3261.000000	65.312480 
3260.000000	65.332913 
3259.000000	65.350890 
3258.000000	65.360975 
3257.000000	65.358901 
3256.000000	65.342426 
3255.000000	65.312170 
3254.000000	65.271282 
3253.000000	65.224790 
3252.000000	65.178585 
3251.000000	65.138101 
3250.000000	65.107393 
3249.000000	65.088176 
3248.000000	65.079855 
3247.000000	65.079760 
3246.000000	65.083932 
3245.000000	65.088248 
3244.000000	65.089130 
3243.000000	65.084624 
3242.000000	65.074038 
3241.000000	65.058994 
3240.000000	65.042138 
3239.000000	65.027427 
3238.000000	65.018630 
3237.000000	65.019202 
3236.000000	65.031552 
3235.000000	65.056180 
3234.000000	65.091681 
3233.000000	65.134119 
3232.000000	65.177989 
3231.000000	65.216374 
3230.000000	65.242385 
3229.000000	65.250468 
3228.000000	65.237426 
3227.000000	65.203595 
3226.000000	65.152788 
3225.000000	65.092277 
3224.000000	65.031051 
3223.000000	64.978575 
3222.000000	64.942502 
3221.000000	64.927196 
3220.000000	64.932799 
3219.000000	64.955687 
3218.000000	64.989662 
3217.000000	65.027642 
3216.000000	65.063428 
3215.000000	65.093183 
3214.000000	65.115737 
3213.000000	65.132164 
3212.000000	65.144753 
3211.000000	65.155601 
3210.000000	65.165615 
3209.000000	65.173983 
3208.000000	65.178704 
3207.000000	65.177512 
3206.000000	65.168857 
3205.000000	65.153002 
3204.000000	65.131950 
3203.000000	65.109419 
3202.000000	65.089344 
3201.000000	65.074849 
3200.000000	65.067100 
3199.000000	65.064978 
3198.000000	65.065789 
3197.000000	65.066123 
3196.000000	65.063071 
3195.000000	65.055155 
3194.000000	65.042638 
3193.000000	65.027332 
3192.000000	65.011739 
3191.000000	64.998579 
3190.000000	64.989471 
3189.000000	64.985466 
3188.000000	64.986443 
3187.000000	64.992070 
3186.000000	65.002226 
3185.000000	65.017032 
3184.000000	65.037012 
3183.000000	65.062403 
3182.000000	65.093040 
3181.000000	65.127635 
3180.000000	65.163350 
3179.000000	65.197110 
3178.000000	65.225911 
3177.000000	65.247964 
3176.000000	65.263152 
3175.000000	65.272831 
3174.000000	65.279674 
3173.000000	65.286421 
3172.000000	65.295124 
3171.000000	65.306425 
3170.000000	65.319108 
3169.000000	65.330910 
3168.000000	65.339088 
3167.000000	65.340900 
3166.000000	65.334677 
3165.000000	65.320420 
3164.000000	65.299749 
3163.000000	65.275716 
3162.000000	65.251731 
3161.000000	65.231084 
3160.000000	65.215921 
3159.000000	65.206980 
3158.000000	65.203046 
3157.000000	65.201663 
3156.000000	65.199470 
3155.000000	65.193343 
3154.000000	65.180659 
3153.000000	65.159821 
3152.000000	65.130782 
3151.000000	65.095257 
3150.000000	65.056085 
3149.000000	65.016579 
3148.000000	64.980340 
3147.000000	64.950633 
3146.000000	64.929819 
3145.000000	64.919281 
3144.000000	64.919757 
3143.000000	64.931464 
3142.000000	64.954066 
3141.000000	64.986801 
3140.000000	65.028381 
3139.000000	65.076994 
3138.000000	65.130186 
3137.000000	65.184926 
3136.000000	65.237832 
3135.000000	65.285301 
3134.000000	65.324234 
3133.000000	65.351939 
3132.000000	65.366482 
3131.000000	65.366387 
3130.000000	65.351581 
3129.000000	65.322351 
3128.000000	65.280008 
3127.000000	65.226387 
3126.000000	65.164637 
3125.000000	65.098714 
3124.000000	65.033268 
3123.000000	64.973211 
3122.000000	64.923238 
3121.000000	64.886665 
3120.000000	64.864945 
3119.000000	64.857172 
3118.000000	64.860653 
3117.000000	64.871335 
3116.000000	64.885187 
3115.000000	64.898824 
3114.000000	64.910531 
3113.000000	64.920425 
3112.000000	64.930152 
3111.000000	64.941859 
3110.000000	64.957404 
3109.000000	64.977669 
3108.000000	65.001940 
3107.000000	65.028095 
3106.000000	65.053081 
3105.000000	65.073728 
3104.000000	65.087866 
3103.000000	65.094637 
3102.000000	65.094995 
3101.000000	65.091300 
3100.000000	65.087032 
3099.000000	65.085816 
3098.000000	65.090847 
3097.000000	65.104103 
3096.000000	65.126228 
3095.000000	65.156483 
3094.000000	65.192317 
3093.000000	65.229773 
3092.000000	65.264153 
3091.000000	65.290665 
3090.000000	65.305066 
3089.000000	65.304470 
3088.000000	65.287971 
3087.000000	65.256738 
3086.000000	65.214037 
3085.000000	65.164566 
3084.000000	65.113830 
3083.000000	65.067148 
3082.000000	65.029072 
3081.000000	65.002751 
3080.000000	64.989423 
3079.000000	64.988732 
3078.000000	64.999103 
3077.000000	65.018296 
3076.000000	65.043449 
3075.000000	65.072178 
3074.000000	65.102386 
3073.000000	65.132737 
3072.000000	65.162038 
3071.000000	65.189766 
3070.000000	65.215635 
3069.000000	65.239548 
3068.000000	65.261387 
3067.000000	65.280437 
3066.000000	65.295553 
3065.000000	65.305233 
3064.000000	65.307950 
3063.000000	65.302491 
3062.000000	65.288543 
3061.000000	65.267062 
3060.000000	65.240168 
3059.000000	65.210914 
3058.000000	65.182733 
3057.000000	65.158963 
3056.000000	65.142130 
3055.000000	65.133380 
3054.000000	65.132284 
3053.000000	65.137410 
3052.000000	65.146470 
3051.000000	65.156555 
3050.000000	65.164875 
3049.000000	65.169286 
3048.000000	65.168452 
3047.000000	65.161776 
3046.000000	65.149855 
3045.000000	65.133738 
3044.000000	65.115737 
3043.000000	65.098929 
3042.000000	65.086817 
3041.000000	65.082550 
3040.000000	65.088248 
3039.000000	65.104722 
3038.000000	65.130639 
3037.000000	65.162754 
3036.000000	65.196871 
3035.000000	65.228652 
3034.000000	65.254569 
3033.000000	65.272545 
3032.000000	65.282511 
3031.000000	65.286040 
3030.000000	65.285825 
3029.000000	65.284681 
3028.000000	65.284824 
3027.000000	65.286970 
3026.000000	65.290832 
3025.000000	65.295076 
3024.000000	65.298080 
3023.000000	65.298271 
3022.000000	65.294981 
3021.000000	65.288400 
3020.000000	65.279388 
3019.000000	65.269112 
3018.000000	65.258574 
3017.000000	65.248608 
3016.000000	65.239810 
3015.000000	65.232419 
3014.000000	65.226459 
3013.000000	65.221595 
3012.000000	65.217113 
3011.000000	65.211868 
3010.000000	65.204381 
3009.000000	65.193462 
3008.000000	65.178394 
3007.000000	65.159511 
3006.000000	65.138411 
3005.000000	65.117907 
3004.000000	65.101742 
3003.000000	65.093493 
3002.000000	65.095901 
3001.000000	65.110158 
3000.000000	65.135335 
2999.000000	65.168380 
2998.000000	65.204834 
2997.000000	65.239739 
2996.000000	65.268778 
2995.000000	65.288996 
2994.000000	65.299463 
2993.000000	65.301156 
2992.000000	65.296411 
2991.000000	65.288066 
2990.000000	65.278577 
2989.000000	65.269541 
2988.000000	65.261411 
2987.000000	65.253710 
2986.000000	65.245437 
2985.000000	65.235567 
2984.000000	65.223693 
2983.000000	65.210342 
2982.000000	65.196847 
2981.000000	65.185308 
2980.000000	65.177917 
2979.000000	65.176701 
2978.000000	65.183281 
2977.000000	65.198397 
2976.000000	65.221977 
2975.000000	65.252780 
2974.000000	65.288853 
2973.000000	65.327072 
2972.000000	65.363860 
2971.000000	65.395331 
2970.000000	65.417528 
2969.000000	65.427327 
2968.000000	65.422606 
2967.000000	65.403056 
2966.000000	65.370559 
2965.000000	65.328645 
2964.000000	65.282130 
2963.000000	65.236282 
2962.000000	65.196132 
2961.000000	65.165209 
2960.000000	65.145206 
2959.000000	65.135979 
2958.000000	65.135860 
2957.000000	65.142250 
2956.000000	65.152263 
2955.000000	65.163254 
2954.000000	65.173268 
2953.000000	65.181040 
2952.000000	65.185999 
2951.000000	65.188312 
2950.000000	65.188574 
2949.000000	65.187621 
2948.000000	65.186309 
2947.000000	65.185499 
2946.000000	65.185642 
2945.000000	65.187144 
2944.000000	65.189552 
2943.000000	65.192174 
2942.000000	65.193510 
2941.000000	65.192031 
2940.000000	65.186119 
2939.000000	65.174460 
2938.000000	65.156269 
2937.000000	65.131783 
2936.000000	65.101933 
2935.000000	65.068101 
2934.000000	65.032172 
2933.000000	64.996051 
2932.000000	64.961600 
2931.000000	64.930295 
2930.000000	64.903211 
2929.000000	64.881157 
2928.000000	64.864182 
2927.000000	64.851880 
2926.000000	64.843201 
2925.000000	64.837121 
2924.000000	64.832425 
2923.000000	64.828491 
2922.000000	64.825153 
2921.000000	64.823079 
2920.000000	64.823341 
2919.000000	64.827919 
2918.000000	64.838337 
2917.000000	64.856266 
2916.000000	64.882230 
2915.000000	64.916014 
2914.000000	64.956378 
2913.000000	65.001082 
2912.000000	65.047311 
2911.000000	65.091776 
2910.000000	65.131425 
2909.000000	65.163445 
2908.000000	65.185713 
2907.000000	65.196919 
2906.000000	65.196800 
2905.000000	65.186095 
2904.000000	65.166521 
2903.000000	65.140938 
2902.000000	65.113019 
2901.000000	65.086746 
2900.000000	65.065956 
2899.000000	65.053987 
2898.000000	65.053033 
2897.000000	65.063786 
2896.000000	65.085244 
2895.000000	65.114974 
2894.000000	65.149402 
2893.000000	65.184569 
2892.000000	65.216803 
2891.000000	65.243148 
2890.000000	65.261650 
2889.000000	65.271878 
2888.000000	65.274381 
2887.000000	65.270495 
2886.000000	65.261650 
2885.000000	65.249252 
2884.000000	65.234184 
2883.000000	65.216946 
2882.000000	65.197706 
2881.000000	65.176653 
2880.000000	65.154123 
2879.000000	65.130782 
2878.000000	65.107774 
2877.000000	65.086698 
2876.000000	65.069055 
2875.000000	65.056228 
2874.000000	65.049123 
2873.000000	65.048074 
2872.000000	65.052628 
2871.000000	65.061879 
2870.000000	65.074181 
2869.000000	65.087580 
2868.000000	65.100002 
2867.000000	65.109443 
2866.000000	65.114283 
2865.000000	65.113401 
2864.000000	65.106391 
2863.000000	65.093684 
2862.000000	65.076780 
2861.000000	65.058088 
2860.000000	65.040302 
2859.000000	65.026116 
2858.000000	65.017843 
2857.000000	65.016841 
2856.000000	65.023207 
2855.000000	65.035772 
2854.000000	65.052199 
2853.000000	65.069770 
2852.000000	65.085816 
2851.000000	65.098309 
2850.000000	65.106129 
2849.000000	65.109181 
2848.000000	65.108537 
2847.000000	65.105962 
2846.000000	65.103125 
2845.000000	65.101623 
2844.000000	65.102410 
2843.000000	65.105438 
2842.000000	65.109992 
2841.000000	65.114831 
2840.000000	65.118503 
2839.000000	65.119838 
2838.000000	65.117883 
2837.000000	65.112376 
2836.000000	65.103316 
2835.000000	65.091133 
2834.000000	65.076351 
2833.000000	65.059399 
2832.000000	65.041089 
2831.000000	65.022206 
2830.000000	65.004086 
2829.000000	64.988517 
2828.000000	64.977836 
2827.000000	64.974617 
2826.000000	64.981436 
2825.000000	64.999747 
2824.000000	65.029954 
2823.000000	65.070581 
2822.000000	65.118432 
2821.000000	65.168786 
2820.000000	65.216374 
2819.000000	65.256285 
2818.000000	65.284800 
2817.000000	65.300011 
2816.000000	65.302276 
2815.000000	65.293931 
2814.000000	65.278792 
2813.000000	65.260982 
2812.000000	65.244364 
2811.000000	65.231490 
2810.000000	65.223789 
2809.000000	65.221142 
2808.000000	65.222525 
2807.000000	65.226507 
2806.000000	65.231752 
2805.000000	65.237283 
2804.000000	65.242671 
2803.000000	65.247797 
2802.000000	65.252661 
2801.000000	65.257072 
2800.000000	65.260744 
2799.000000	65.263009 
2798.000000	65.263271 
2797.000000	65.260887 
2796.000000	65.255546 
2795.000000	65.247130 
2794.000000	65.235948 
2793.000000	65.222477 
2792.000000	65.207290 
2791.000000	65.190935 
2790.000000	65.173721 
2789.000000	65.156030 
2788.000000	65.138387 
2787.000000	65.121388 
2786.000000	65.105891 
2785.000000	65.093255 
2784.000000	65.084886 
2783.000000	65.082073 
2782.000000	65.085530 
2781.000000	65.095067 
2780.000000	65.109395 
2779.000000	65.126347 
2778.000000	65.143060 
2777.000000	65.156507 
2776.000000	65.164184 
2775.000000	65.164637 
2774.000000	65.158009 
2773.000000	65.145802 
2772.000000	65.130853 
2771.000000	65.116500 
2770.000000	65.105962 
2769.000000	65.101337 
2768.000000	65.103268 
2767.000000	65.110874 
2766.000000	65.121960 
2765.000000	65.133595 
2764.000000	65.142750 
2763.000000	65.147042 
2762.000000	65.145039 
2761.000000	65.136742 
2760.000000	65.123200 
2759.000000	65.106344 
2758.000000	65.088462 
2757.000000	65.071964 
2756.000000	65.058779 
2755.000000	65.050458 
2754.000000	65.047550 
2753.000000	65.050029 
2752.000000	65.057253 
2751.000000	65.068221 
2750.000000	65.081763 
2749.000000	65.096616 
2748.000000	65.111589 
2747.000000	65.125894 
2746.000000	65.139245 
2745.000000	65.151667 
2744.000000	65.163397 
2743.000000	65.174698 
2742.000000	65.185546 
2741.000000	65.195703 
2740.000000	65.204405 
2739.000000	65.210509 
2738.000000	65.212583 
2737.000000	65.209341 
2736.000000	65.200042 
2735.000000	65.184497 
2734.000000	65.163445 
2733.000000	65.138292 
2732.000000	65.111327 
2731.000000	65.085315 
2730.000000	65.063095 
2729.000000	65.047168 
2728.000000	65.039229 
2727.000000	65.039825 
2726.000000	65.048146 
2725.000000	65.062236 
2724.000000	65.079021 
2723.000000	65.095019 
2722.000000	65.107154 
2721.000000	65.112924 
2720.000000	65.111589 
2719.000000	65.103888 
2718.000000	65.092396 
2717.000000	65.080523 
2716.000000	65.072011 
2715.000000	65.070056 
2714.000000	65.076470 
2713.000000	65.091228 
2712.000000	65.112543 
2711.000000	65.137171 
2710.000000	65.161252 
2709.000000	65.181112 
2708.000000	65.193843 
2707.000000	65.197825 
2706.000000	65.193152 
2705.000000	65.181207 
2704.000000	65.164208 
2703.000000	65.144777 
2702.000000	65.125489 
2701.000000	65.108132 
2700.000000	65.093803 
2699.000000	65.082478 
2698.000000	65.073752 
2697.000000	65.066671 
2696.000000	65.060186 
2695.000000	65.053439 
2694.000000	65.046048 
2693.000000	65.038108 
2692.000000	65.030264 
2691.000000	65.023589 
2690.000000	65.019202 
2689.000000	65.018248 
2688.000000	65.021562 
2687.000000	65.029430 
2686.000000	65.041685 
2685.000000	65.057587 
2684.000000	65.076184 
2683.000000	65.096449 
2682.000000	65.117430 
2681.000000	65.138506 
2680.000000	65.159201 
2679.000000	65.179157 
2678.000000	65.197992 
2677.000000	65.215325 
2676.000000	65.230488 
2675.000000	65.242695 
2674.000000	65.251159 
2673.000000	65.255451 
2672.000000	65.255713 
2671.000000	65.252828 
2670.000000	65.248370 
2669.000000	65.244483 
2668.000000	65.243291 
2667.000000	65.246725 
2666.000000	65.255856 
2665.000000	65.270757 
2664.000000	65.290403 
2663.000000	65.312838 
2662.000000	65.335464 
2661.000000	65.355682 
2660.000000	65.371298 
2659.000000	65.380978 
2658.000000	65.384531 
2657.000000	65.382695 
2656.000000	65.377044 
2655.000000	65.369319 
2654.000000	65.361094 
2653.000000	65.353250 
2652.000000	65.346002 
2651.000000	65.338563 
2650.000000	65.330076 
2649.000000	65.319490 
2648.000000	65.306138 
2647.000000	65.290117 
2646.000000	65.272164 
2645.000000	65.253663 
2644.000000	65.236258 
2643.000000	65.221548 
2642.000000	65.210604 
2641.000000	65.203976 
2640.000000	65.201520 
2639.000000	65.202736 
2638.000000	65.206885 
2637.000000	65.213203 
2636.000000	65.221071 
2635.000000	65.229940 
2634.000000	65.239214 
2633.000000	65.248060 
2632.000000	65.255331 
2631.000000	65.260124 
2630.000000	65.261793 
2629.000000	65.260052 
2628.000000	65.255165 
2627.000000	65.247941 
2626.000000	65.239620 
2625.000000	65.231323 
2624.000000	65.224099 
2623.000000	65.218544 
2622.000000	65.215134 
2621.000000	65.213894 
2620.000000	65.215110 
2619.000000	65.219116 
2618.000000	65.226578 
2617.000000	65.238308 
2616.000000	65.255022 
2615.000000	65.277075 
2614.000000	65.304040 
2613.000000	65.334510 
2612.000000	65.366268 
2611.000000	65.396475 
2610.000000	65.422081 
2609.000000	65.440464 
2608.000000	65.449595 
2607.000000	65.448427 
2606.000000	65.437150 
2605.000000	65.417003 
2604.000000	65.390443 
2603.000000	65.360522 
2602.000000	65.330696 
2601.000000	65.304088 
2600.000000	65.283131 
2599.000000	65.268969 
2598.000000	65.261363 
2597.000000	65.258955 
2596.000000	65.259599 
2595.000000	65.261149 
2594.000000	65.261673 
2593.000000	65.260195 
2592.000000	65.256452 
2591.000000	65.251207 
2590.000000	65.245556 
2589.000000	65.240716 
2588.000000	65.237569 
2587.000000	65.236330 
2586.000000	65.236711 
2585.000000	65.238094 
2584.000000	65.239882 
2583.000000	65.241599 
2582.000000	65.243172 
2581.000000	65.244841 
2580.000000	65.247178 
2579.000000	65.250396 
2578.000000	65.254402 
2577.000000	65.258908 
2576.000000	65.263366 
2575.000000	65.267229 
2574.000000	65.269994 
2573.000000	65.271329 
2572.000000	65.270972 
2571.000000	65.268874 
2570.000000	65.265035 
2569.000000	65.259671 
2568.000000	65.253043 
2567.000000	65.245699 
2566.000000	65.238404 
2565.000000	65.232205 
2564.000000	65.228509 
2563.000000	65.228605 
2562.000000	65.233540 
2561.000000	65.244078 
2560.000000	65.260195 
2559.000000	65.281105 
2558.000000	65.305018 
2557.000000	65.329670 
2556.000000	65.352416 
2555.000000	65.370798 
2554.000000	65.382838 
2553.000000	65.387535 
2552.000000	65.385031 
2551.000000	65.376663 
2550.000000	65.364599 
2549.000000	65.351390 
2548.000000	65.339732 
2547.000000	65.331530 
2546.000000	65.327668 
2545.000000	65.327501 
2544.000000	65.329313 
2543.000000	65.330648 
2542.000000	65.328955 
2541.000000	65.322232 
2540.000000	65.309715 
2539.000000	65.291857 
2538.000000	65.270113 
2537.000000	65.246415 
2536.000000	65.222477 
2535.000000	65.199422 
2534.000000	65.177583 
2533.000000	65.156483 
2532.000000	65.134882 
2531.000000	65.111708 
2530.000000	65.086650 
2529.000000	65.060520 
2528.000000	65.035247 
2527.000000	65.014171 
2526.000000	65.001249 
2525.000000	65.000367 
2524.000000	65.014243 
2523.000000	65.043568 
2522.000000	65.086770 
2521.000000	65.139842 
2520.000000	65.197420 
2519.000000	65.253424 
2518.000000	65.302610 
2517.000000	65.341615 
2516.000000	65.369367 
2515.000000	65.387034 
2514.000000	65.396904 
2513.000000	65.402269 
2512.000000	65.405297 
2511.000000	65.406751 
2510.000000	65.405058 
2509.000000	65.397620 
2508.000000	65.380620 
2507.000000	65.350914 
2506.000000	65.306878 
2505.000000	65.249490 
2504.000000	65.182614 
2503.000000	65.112352 
2502.000000	65.046215 
2501.000000	64.991641 
2500.000000	64.954590 
2499.000000	64.938569 
2498.000000	64.944005 
2497.000000	64.968323 
2496.000000	65.006685 
2495.000000	65.053129 
2494.000000	65.101432 
2493.000000	65.146517 
2492.000000	65.185022 
2491.000000	65.215635 
2490.000000	65.238618 
2489.000000	65.255403 
2488.000000	65.268015 
2487.000000	65.278339 
2486.000000	65.287637 
2485.000000	65.296220 
2484.000000	65.303730 
2483.000000	65.309238 
2482.000000	65.311956 
2481.000000	65.311217 
2480.000000	65.306973 
2479.000000	65.299654 
2478.000000	65.290307 
2477.000000	65.280199 
2476.000000	65.270423 
2475.000000	65.261769 
2474.000000	65.254592 
2473.000000	65.248608 
2472.000000	65.243053 
2471.000000	65.236926 
2470.000000	65.229463 
2469.000000	65.220046 
2468.000000	65.208554 
2467.000000	65.195393 
2466.000000	65.181517 
2465.000000	65.168309 
2464.000000	65.157389 
2463.000000	65.150094 
2462.000000	65.147686 
2461.000000	65.151047 
2460.000000	65.160465 
2459.000000	65.175628 
2458.000000	65.195536 
2457.000000	65.218520 
2456.000000	65.242552 
2455.000000	65.265464 
2454.000000	65.285134 
2453.000000	65.299916 
2452.000000	65.308952 
2451.000000	65.312218 
2450.000000	65.310668 
2449.000000	65.306162 
2448.000000	65.300846 
2447.000000	65.296816 
2446.000000	65.295457 
2445.000000	65.297269 
2444.000000	65.301728 
2443.000000	65.307331 
2442.000000	65.312147 
2441.000000	65.314197 
2440.000000	65.312314 
2439.000000	65.306425 
2438.000000	65.297555 
2437.000000	65.287709 
2436.000000	65.279269 
2435.000000	65.274786 
2434.000000	65.275955 
2433.000000	65.283584 
2432.000000	65.297555 
2431.000000	65.316677 
2430.000000	65.339469 
2429.000000	65.364027 
2428.000000	65.388655 
2427.000000	65.411376 
2426.000000	65.430283 
2425.000000	65.443110 
2424.000000	65.447473 
2423.000000	65.440845 
2422.000000	65.421199 
2421.000000	65.387773 
2420.000000	65.341329 
2419.000000	65.285062 
2418.000000	65.224313 
2417.000000	65.165925 
2416.000000	65.117168 
2415.000000	65.084195 
2414.000000	65.070652 
2413.000000	65.076994 
2412.000000	65.100502 
2411.000000	65.136075 
2410.000000	65.177536 
2409.000000	65.218853 
2408.000000	65.255522 
2407.000000	65.284729 
2406.000000	65.305948 
2405.000000	65.319848 
2404.000000	65.328001 
2403.000000	65.332102 
2402.000000	65.333533 
2401.000000	65.333294 
2400.000000	65.331625 
2399.000000	65.328812 
2398.000000	65.324640 
2397.000000	65.319275 
2396.000000	65.312623 
2395.000000	65.304708 
2394.000000	65.295553 
2393.000000	65.284991 
2392.000000	65.273022 
2391.000000	65.259766 
2390.000000	65.245723 
2389.000000	65.231800 
2388.000000	65.218877 
2387.000000	65.207743 
2386.000000	65.198755 
2385.000000	65.191888 
2384.000000	65.186524 
2383.000000	65.181684 
2382.000000	65.176439 
2381.000000	65.170168 
2380.000000	65.162777 
2379.000000	65.154600 
2378.000000	65.146255 
2377.000000	65.138459 
2376.000000	65.131735 
2375.000000	65.126562 
2374.000000	65.122699 
2373.000000	65.119934 
2372.000000	65.117788 
2371.000000	65.116000 
2370.000000	65.114760 
2369.000000	65.114450 
2368.000000	65.115714 
2367.000000	65.119099 
2366.000000	65.124917 
2365.000000	65.132951 
2364.000000	65.142536 
2363.000000	65.152716 
2362.000000	65.162515 
2361.000000	65.171074 
2360.000000	65.177845 
2359.000000	65.182709 
2358.000000	65.185928 
2357.000000	65.187883 
2356.000000	65.188717 
2355.000000	65.188360 
2354.000000	65.186452 
2353.000000	65.182447 
2352.000000	65.176033 
2351.000000	65.167212 
2350.000000	65.156555 
2349.000000	65.145230 
2348.000000	65.134954 
2347.000000	65.127348 
2346.000000	65.123724 
2345.000000	65.124654 
2344.000000	65.129852 
2343.000000	65.138173 
2342.000000	65.148186 
2341.000000	65.158319 
2340.000000	65.167665 
2339.000000	65.176057 
2338.000000	65.184092 
2337.000000	65.192723 
2336.000000	65.202999 
2335.000000	65.215587 
2334.000000	65.230584 
2333.000000	65.247035 
2332.000000	65.263462 
2331.000000	65.278005 
2330.000000	65.288662 
2329.000000	65.293812 
2328.000000	65.292429 
2327.000000	65.284204 
2326.000000	65.269589 
2325.000000	65.249490 
2324.000000	65.225291 
2323.000000	65.198421 
2322.000000	65.170431 
2321.000000	65.142655 
2320.000000	65.116143 
2319.000000	65.091991 
2318.000000	65.070891 
2317.000000	65.053558 
2316.000000	65.040540 
2315.000000	65.032553 
2314.000000	65.030479 
2313.000000	65.035200 
2312.000000	65.047216 
2311.000000	65.066671 
2310.000000	65.092945 
2309.000000	65.124559 
2308.000000	65.159058 
2307.000000	65.193533 
2306.000000	65.225028 
2305.000000	65.250968 
2304.000000	65.269446 
2303.000000	65.279603 
2302.000000	65.281677 
2301.000000	65.276908 
2300.000000	65.266823 
2299.000000	65.253329 
2298.000000	65.238142 
2297.000000	65.222740 
2296.000000	65.208339 
2295.000000	65.195846 
2294.000000	65.186023 
2293.000000	65.179800 
2292.000000	65.177702 
2291.000000	65.179967 
2290.000000	65.186214 
2289.000000	65.195584 
2288.000000	65.206575 
2287.000000	65.217185 
2286.000000	65.225553 
2285.000000	65.230083 
2284.000000	65.229916 
2283.000000	65.225005 
2282.000000	65.216040 
2281.000000	65.204358 
2280.000000	65.191531 
2279.000000	65.179133 
2278.000000	65.168166 
2277.000000	65.159273 
2276.000000	65.152502 
2275.000000	65.147471 
2274.000000	65.143609 
2273.000000	65.140318 
2272.000000	65.137314 
2271.000000	65.135049 
2270.000000	65.133929 
2269.000000	65.134978 
2268.000000	65.139007 
2267.000000	65.146851 
2266.000000	65.158724 
2265.000000	65.174627 
2264.000000	65.193939 
2263.000000	65.215778 
2262.000000	65.238904 
2261.000000	65.261936 
2260.000000	65.283536 
2259.000000	65.302467 
2258.000000	65.317869 
2257.000000	65.329337 
2256.000000	65.337109 
2255.000000	65.342116 
2254.000000	65.345549 
2253.000000	65.348958 
2252.000000	65.353584 
2251.000000	65.360212 
2250.000000	65.368819 
2249.000000	65.378594 
2248.000000	65.387845 
2247.000000	65.394711 
2246.000000	65.397381 
2245.000000	65.394783 
2244.000000	65.386724 
2243.000000	65.373969 
2242.000000	65.357947 
2241.000000	65.340566 
2240.000000	65.323543 
2239.000000	65.307879 
2238.000000	65.294241 
2237.000000	65.282893 
2236.000000	65.274000 
2235.000000	65.267753 
2234.000000	65.264534 
2233.000000	65.264892 
2232.000000	65.269351 
2231.000000	65.277862 
2230.000000	65.289831 
2229.000000	65.303874 
2228.000000	65.318202 
2227.000000	65.330743 
2226.000000	65.339875 
2225.000000	65.344572 
2224.000000	65.345048 
2223.000000	65.342235 
2222.000000	65.337872 
2221.000000	65.333724 
2220.000000	65.331220 
2219.000000	65.330791 
2218.000000	65.331912 
2217.000000	65.332937 
2216.000000	65.331649 
2215.000000	65.325665 
2214.000000	65.313029 
2213.000000	65.292906 
2212.000000	65.265607 
2211.000000	65.232920 
2210.000000	65.197539 
2209.000000	65.163040 
2208.000000	65.133047 
2207.000000	65.110874 
2206.000000	65.098714 
2205.000000	65.097689 
2204.000000	65.107631 
2203.000000	65.127301 
2202.000000	65.154886 
2201.000000	65.188074 
2200.000000	65.224432 
2199.000000	65.261721 
2198.000000	65.297961 
2197.000000	65.331506 
2196.000000	65.360879 
2195.000000	65.384674 
2194.000000	65.401577 
2193.000000	65.410780 
2192.000000	65.411782 
2191.000000	65.404796 
2190.000000	65.390658 
2189.000000	65.371060 
2188.000000	65.348315 
2187.000000	65.325212 
2186.000000	65.304446 
2185.000000	65.288543 
2184.000000	65.278887 
2183.000000	65.276074 
2182.000000	65.279436 
2181.000000	65.287494 
2180.000000	65.297985 
2179.000000	65.308380 
2178.000000	65.316200 
2177.000000	65.319395 
2176.000000	65.316605 
2175.000000	65.307378 
2174.000000	65.292239 
2173.000000	65.272521 
2172.000000	65.250635 
2171.000000	65.229701 
2170.000000	65.213370 
2169.000000	65.205216 
2168.000000	65.208411 
2167.000000	65.224647 
2166.000000	65.253901 
2165.000000	65.293598 
2164.000000	65.339064 
2163.000000	65.383958 
2162.000000	65.421223 
2161.000000	65.444803 
2160.000000	65.450668 
2159.000000	65.438270 
2158.000000	65.410542 
2157.000000	65.373539 
2156.000000	65.334963 
2155.000000	65.302181 
2154.000000	65.281033 
2153.000000	65.273427 
2152.000000	65.277481 
2151.000000	65.287685 
2150.000000	65.296840 
2149.000000	65.297698 
2148.000000	65.285372 
2147.000000	65.258622 
2146.000000	65.220379 
2145.000000	65.177226 
2144.000000	65.137529 
2143.000000	65.109372 
2142.000000	65.098571 
2141.000000	65.107154 
2140.000000	65.133142 
2139.000000	65.171217 
2138.000000	65.213990 
2137.000000	65.254163 
2136.000000	65.286040 
2135.000000	65.306615 
2134.000000	65.315961 
2133.000000	65.316557 
2132.000000	65.312528 
2131.000000	65.307784 
2130.000000	65.305399 
2129.000000	65.307068 
2128.000000	65.312814 
2127.000000	65.321731 
2126.000000	65.332269 
2125.000000	65.343165 
2124.000000	65.353608 
2123.000000	65.363621 
2122.000000	65.373754 
2121.000000	65.384483 
2120.000000	65.396022 
2119.000000	65.408134 
2118.000000	65.419888 
2117.000000	65.429878 
2116.000000	65.436697 
2115.000000	65.439176 
2114.000000	65.436649 
2113.000000	65.429091 
2112.000000	65.417146 
2111.000000	65.402007 
2110.000000	65.385055 
2109.000000	65.367603 
2108.000000	65.350794 
2107.000000	65.335512 
2106.000000	65.322756 
2105.000000	65.313148 
2104.000000	65.307021 
2103.000000	65.304279 
2102.000000	65.304684 
2101.000000	65.307641 
2100.000000	65.312099 
2099.000000	65.316915 
2098.000000	65.320992 
2097.000000	65.323853 
2096.000000	65.325450 
2095.000000	65.326523 
2094.000000	65.328311 
2093.000000	65.332436 
2092.000000	65.340256 
2091.000000	65.352606 
2090.000000	65.369606 
2089.000000	65.390443 
2088.000000	65.413427 
2087.000000	65.436506 
2086.000000	65.457463 
2085.000000	65.474462 
2084.000000	65.486264 
2083.000000	65.492653 
2082.000000	65.493893 
2081.000000	65.490984 
2080.000000	65.484595 
2079.000000	65.475320 
2078.000000	65.462779 
2077.000000	65.446519 
2076.000000	65.425562 
2075.000000	65.399432 
2074.000000	65.368151 
2073.000000	65.332937 
2072.000000	65.296006 
2071.000000	65.260314 
2070.000000	65.229201 
2069.000000	65.205526 
2068.000000	65.191268 
2067.000000	65.186953 
2066.000000	65.191745 
2065.000000	65.203523 
2064.000000	65.219354 
2063.000000	65.236210 
2062.000000	65.251374 
2061.000000	65.262913 
2060.000000	65.269851 
2059.000000	65.272164 
2058.000000	65.270280 
2057.000000	65.265059 
2056.000000	65.257620 
2055.000000	65.248918 
2054.000000	65.239644 
2053.000000	65.230226 
2052.000000	65.221071 
2051.000000	65.212225 
2050.000000	65.203595 
2049.000000	65.195083 
2048.000000	65.186524 
2047.000000	65.177965 
2046.000000	65.169596 
2045.000000	65.161800 
2044.000000	65.155267 
2043.000000	65.150928 
2042.000000	65.150070 
2041.000000	65.153884 
2040.000000	65.163278 
2039.000000	65.178751 
2038.000000	65.200281 
2037.000000	65.226960 
2036.000000	65.257048 
2035.000000	65.288233 
2034.000000	65.317869 
2033.000000	65.343165 
2032.000000	65.361666 
2031.000000	65.371584 
2030.000000	65.371823 
2029.000000	65.362691 
2028.000000	65.345168 
2027.000000	65.321207 
2026.000000	65.292882 
2025.000000	65.262103 
2024.000000	65.230298 
2023.000000	65.198493 
2022.000000	65.167474 
2021.000000	65.137958 
2020.000000	65.111088 
2019.000000	65.088510 
2018.000000	65.072226 
2017.000000	65.064096 
2016.000000	65.065431 
2015.000000	65.076375 
2014.000000	65.095949 
2013.000000	65.121984 
2012.000000	65.151572 
2011.000000	65.181612 
2010.000000	65.209650 
2009.000000	65.234184 
2008.000000	65.254640 
2007.000000	65.271162 
2006.000000	65.283966 
2005.000000	65.292859 
2004.000000	65.296792 
2003.000000	65.294551 
2002.000000	65.285038 
2001.000000	65.268111 
2000.000000	65.245127 
1999.000000	65.219068 
1998.000000	65.194225 
1997.000000	65.175127 
1996.000000	65.165925 
1995.000000	65.169072 
1994.000000	65.184879 
1993.000000	65.211462 
1992.000000	65.245246 
1991.000000	65.281653 
1990.000000	65.316009 
1989.000000	65.344500 
1988.000000	65.364766 
1987.000000	65.375947 
1986.000000	65.378451 
1985.000000	65.373611 
1984.000000	65.363216 
1983.000000	65.349268 
1982.000000	65.333533 
1981.000000	65.317654 
1980.000000	65.302968 
1979.000000	65.290737 
1978.000000	65.282034 
1977.000000	65.277457 
1976.000000	65.276980 
1975.000000	65.280151 
1974.000000	65.285873 
1973.000000	65.292501 
1972.000000	65.298557 
1971.000000	65.302681 
1970.000000	65.304207 
1969.000000	65.303182 
1968.000000	65.300416 
1967.000000	65.296983 
1966.000000	65.294241 
1965.000000	65.293312 
1964.000000	65.294885 
1963.000000	65.299201 
1962.000000	65.306115 
1961.000000	65.315127 
1960.000000	65.325474 
1959.000000	65.336394 
1958.000000	65.346813 
1957.000000	65.355443 
1956.000000	65.361118 
1955.000000	65.362858 
1954.000000	65.359997 
1953.000000	65.352320 
1952.000000	65.340137 
1951.000000	65.324306 
1950.000000	65.306186 
1949.000000	65.287542 
1948.000000	65.270233 
1947.000000	65.255928 
1946.000000	65.246009 
1945.000000	65.241241 
1944.000000	65.241479 
1943.000000	65.246224 
1942.000000	65.254163 
1941.000000	65.263962 
1940.000000	65.274214 
1939.000000	65.283966 
1938.000000	65.292716 
1937.000000	65.300321 
1936.000000	65.306949 
1935.000000	65.312743 
1934.000000	65.317678 
1933.000000	65.321278 
1932.000000	65.322828 
1931.000000	65.321493 
1930.000000	65.316724 
1929.000000	65.308642 
1928.000000	65.298128 
1927.000000	65.286874 
1926.000000	65.277147 
1925.000000	65.271067 
1924.000000	65.270137 
1923.000000	65.274882 
1922.000000	65.284514 
1921.000000	65.297150 
1920.000000	65.310096 
1919.000000	65.320777 
1918.000000	65.327262 
1917.000000	65.328693 
1916.000000	65.325331 
1915.000000	65.318632 
1914.000000	65.310573 
1913.000000	65.303111 
1912.000000	65.297532 
1911.000000	65.294313 
1910.000000	65.292930 
1909.000000	65.292310 
1908.000000	65.290999 
1907.000000	65.287804 
1906.000000	65.282011 
1905.000000	65.273809 
1904.000000	65.263795 
1903.000000	65.253067 
1902.000000	65.242910 
1901.000000	65.234637 
1900.000000	65.229129 
1899.000000	65.227031 
1898.000000	65.228676 
1897.000000	65.233898 
1896.000000	65.242338 
1895.000000	65.253281 
1894.000000	65.265464 
1893.000000	65.277576 
1892.000000	65.287899 
1891.000000	65.295028 
1890.000000	65.298032 
1889.000000	65.296840 
1888.000000	65.292048 
1887.000000	65.285086 
1886.000000	65.277814 
1885.000000	65.271973 
1884.000000	65.268826 
1883.000000	65.268659 
1882.000000	65.270757 
1881.000000	65.273737 
1880.000000	65.275859 
1879.000000	65.275669 
1878.000000	65.272068 
1877.000000	65.265011 
1876.000000	65.255379 
1875.000000	65.244555 
1874.000000	65.234231 
1873.000000	65.225791 
1872.000000	65.220069 
1871.000000	65.217161 
1870.000000	65.216445 
1869.000000	65.216970 
1868.000000	65.217542 
1867.000000	65.217113 
1866.000000	65.214586 
1865.000000	65.209341 
1864.000000	65.200996 
1863.000000	65.189361 
1862.000000	65.174674 
1861.000000	65.157318 
1860.000000	65.138411 
1859.000000	65.119361 
1858.000000	65.102243 
1857.000000	65.089249 
1856.000000	65.082502 
1855.000000	65.083789 
1854.000000	65.093874 
1853.000000	65.112471 
1852.000000	65.138101 
1851.000000	65.168190 
1850.000000	65.199589 
1849.000000	65.229034 
1848.000000	65.253639 
1847.000000	65.271425 
1846.000000	65.281414 
1845.000000	65.283799 
1844.000000	65.279841 
1843.000000	65.271520 
1842.000000	65.261220 
1841.000000	65.251469 
1840.000000	65.244555 
1839.000000	65.242218 
1838.000000	65.245676 
1837.000000	65.255045 
1836.000000	65.269899 
1835.000000	65.288567 
1834.000000	65.308880 
1833.000000	65.327858 
1832.000000	65.342593 
1831.000000	65.350389 
1830.000000	65.349411 
1829.000000	65.339231 
1828.000000	65.320992 
1827.000000	65.297293 
1826.000000	65.271782 
1825.000000	65.248322 
1824.000000	65.230035 
1823.000000	65.218734 
1822.000000	65.214371 
1821.000000	65.215277 
1820.000000	65.218472 
1819.000000	65.220403 
1818.000000	65.217995 
1817.000000	65.209484 
1816.000000	65.194892 
1815.000000	65.175771 
1814.000000	65.154957 
1813.000000	65.135931 
1812.000000	65.122008 
1811.000000	65.115618 
1810.000000	65.117692 
1809.000000	65.127778 
1808.000000	65.144085 
1807.000000	65.164017 
1806.000000	65.184640 
1805.000000	65.203118 
1804.000000	65.217232 
1803.000000	65.225505 
1802.000000	65.227675 
1801.000000	65.224337 
1800.000000	65.217018 
1799.000000	65.207815 
1798.000000	65.199136 
1797.000000	65.193104 
1796.000000	65.191364 
1795.000000	65.194678 
1794.000000	65.202593 
1793.000000	65.213584 
1792.000000	65.225362 
1791.000000	65.235328 
1790.000000	65.241193 
1789.000000	65.241479 
1788.000000	65.235781 
1787.000000	65.224957 
1786.000000	65.210795 
1785.000000	65.195775 
1784.000000	65.182209 
1783.000000	65.172123 
1782.000000	65.166735 
1781.000000	65.166473 
1780.000000	65.170979 
1779.000000	65.179276 
1778.000000	65.189909 
1777.000000	65.201306 
1776.000000	65.211987 
1775.000000	65.220880 
1774.000000	65.227317 
1773.000000	65.231180 
1772.000000	65.232753 
1771.000000	65.232539 
1770.000000	65.231156 
1769.000000	65.228986 
1768.000000	65.226149 
1767.000000	65.222501 
1766.000000	65.217685 
1765.000000	65.211296 
1764.000000	65.203189 
1763.000000	65.193557 
1762.000000	65.182900 
1761.000000	65.171980 
1760.000000	65.161633 
1759.000000	65.152621 
1758.000000	65.145349 
1757.000000	65.139603 
1756.000000	65.134859 
1755.000000	65.130472 
1754.000000	65.125989 
1753.000000	65.121150 
1752.000000	65.116310 
1751.000000	65.112257 
1750.000000	65.110039 
1749.000000	65.110588 
1748.000000	65.114283 
1747.000000	65.121006 
1746.000000	65.129709 
1745.000000	65.138721 
1744.000000	65.145802 
1743.000000	65.148806 
1742.000000	65.146231 
1741.000000	65.137600 
1740.000000	65.123772 
1739.000000	65.106844 
1738.000000	65.089917 
1737.000000	65.076279 
1736.000000	65.068554 
1735.000000	65.067791 
1734.000000	65.073561 
1733.000000	65.083742 
1732.000000	65.095019 
1731.000000	65.103626 
1730.000000	65.106415 
1729.000000	65.101385 
1728.000000	65.088152 
1727.000000	65.067696 
1726.000000	65.042209 
1725.000000	65.014195 
1724.000000	64.985847 
1723.000000	64.958596 
1722.000000	64.933037 
1721.000000	64.909100 
1720.000000	64.886665 
1719.000000	64.865922 
1718.000000	64.847588 
1717.000000	64.833211 
1716.000000	64.824676 
1715.000000	64.823794 
1714.000000	64.831900 
1713.000000	64.849519 
1712.000000	64.876341 
1711.000000	64.911222 
1710.000000	64.952468 
1709.000000	64.998054 
1708.000000	65.045928 
1707.000000	65.094137 
1706.000000	65.140771 
1705.000000	65.183877 
1704.000000	65.221428 
1703.000000	65.251779 
1702.000000	65.273499 
1701.000000	65.285968 
1700.000000	65.288949 
1699.000000	65.283608 
1698.000000	65.271306 
1697.000000	65.254068 
1696.000000	65.233635 
1695.000000	65.211558 
1694.000000	65.188789 
1693.000000	65.165781 
1692.000000	65.142869 
1691.000000	65.120530 
1690.000000	65.099596 
1689.000000	65.081381 
1688.000000	65.067529 
1687.000000	65.059614 
1686.000000	65.058732 
1685.000000	65.065026 
1684.000000	65.077495 
1683.000000	65.094327 
1682.000000	65.113210 
1681.000000	65.132093 
1680.000000	65.149402 
1679.000000	65.164279 
1678.000000	65.176939 
1677.000000	65.188241 
1676.000000	65.199089 
1675.000000	65.210151 
1674.000000	65.221905 
1673.000000	65.234041 
1672.000000	65.245962 
1671.000000	65.256547 
1670.000000	65.264844 
1669.000000	65.269994 
1668.000000	65.271425 
1667.000000	65.268969 
1666.000000	65.262794 
1665.000000	65.253496 
1664.000000	65.242028 
1663.000000	65.229535 
1662.000000	65.217232 
1661.000000	65.206503 
1660.000000	65.198516 
1659.000000	65.194058 
1658.000000	65.193104 
1657.000000	65.194916 
1656.000000	65.198278 
1655.000000	65.201616 
1654.000000	65.203332 
1653.000000	65.202450 
1652.000000	65.198731 
1651.000000	65.192818 
1650.000000	65.185952 
1649.000000	65.179657 
1648.000000	65.175247 
1647.000000	65.173602 
1646.000000	65.174722 
1645.000000	65.177750 
1644.000000	65.180897 
1643.000000	65.182232 
1642.000000	65.179944 
1641.000000	65.172743 
1640.000000	65.160489 
1639.000000	65.144062 
1638.000000	65.125513 
1637.000000	65.107393 
1636.000000	65.092515 
1635.000000	65.083265 
1634.000000	65.081143 
1633.000000	65.086531 
1632.000000	65.098524 
1631.000000	65.115404 
1630.000000	65.134882 
1629.000000	65.154790 
1628.000000	65.173292 
1627.000000	65.189433 
1626.000000	65.203094 
1625.000000	65.214538 
1624.000000	65.224409 
1623.000000	65.232968 
1622.000000	65.240097 
1621.000000	65.244841 
1620.000000	65.245771 
1619.000000	65.241193 
1618.000000	65.230011 
1617.000000	65.212059 
1616.000000	65.188503 
1615.000000	65.161728 
1614.000000	65.135169 
1613.000000	65.112328 
1612.000000	65.096044 
1611.000000	65.087652 
1610.000000	65.086793 
1609.000000	65.091252 
1608.000000	65.097832 
1607.000000	65.103006 
1606.000000	65.103960 
1605.000000	65.099263 
1604.000000	65.089082 
1603.000000	65.075182 
1602.000000	65.060281 
1601.000000	65.047025 
1600.000000	65.037536 
1599.000000	65.032625 
1598.000000	65.032052 
1597.000000	65.034866 
1596.000000	65.040063 
1595.000000	65.046691 
1594.000000	65.054368 
1593.000000	65.063261 
1592.000000	65.073728 
1591.000000	65.085840 
1590.000000	65.099072 
1589.000000	65.112376 
1588.000000	65.124368 
1587.000000	65.133643 
1586.000000	65.139174 
1585.000000	65.140700 
1584.000000	65.138697 
1583.000000	65.134525 
1582.000000	65.129804 
1581.000000	65.125989 
1580.000000	65.124225 
1579.000000	65.125012 
1578.000000	65.128421 
1577.000000	65.134143 
1576.000000	65.141844 
1575.000000	65.151071 
1574.000000	65.161275 
1573.000000	65.171480 
1572.000000	65.180349 
1571.000000	65.185952 
1570.000000	65.186119 
1569.000000	65.178918 
1568.000000	65.163040 
1567.000000	65.138363 
1566.000000	65.106248 
1565.000000	65.069413 
1564.000000	65.031552 
1563.000000	64.996838 
1562.000000	64.969158 
1561.000000	64.951372 
1560.000000	64.944672 
1559.000000	64.948534 
1558.000000	64.961004 
1557.000000	64.978957 
1556.000000	64.998579 
1555.000000	65.016484 
1554.000000	65.030193 
1553.000000	65.038514 
1552.000000	65.041637 
1551.000000	65.041136 
1550.000000	65.039348 
1549.000000	65.039110 
1548.000000	65.042829 
1547.000000	65.052199 
1546.000000	65.067529 
1545.000000	65.087866 
1544.000000	65.110850 
1543.000000	65.133094 
1542.000000	65.150833 
1541.000000	65.160822 
1540.000000	65.161061 
1539.000000	65.151214 
1538.000000	65.132832 
1537.000000	65.109038 
1536.000000	65.083670 
1535.000000	65.060448 
1534.000000	65.041971 
1533.000000	65.029382 
1532.000000	65.022349 
1531.000000	65.019178 
1530.000000	65.017986 
1529.000000	65.017247 
1528.000000	65.016508 
1527.000000	65.016222 
1526.000000	65.017533 
1525.000000	65.021634 
1524.000000	65.029072 
1523.000000	65.039300 
1522.000000	65.050458 
1521.000000	65.059947 
1520.000000	65.065145 
1519.000000	65.064477 
1518.000000	65.057969 
1517.000000	65.047407 
1516.000000	65.035891 
1515.000000	65.026926 
1514.000000	65.023374 
1513.000000	65.026664 
1512.000000	65.036416 
1511.000000	65.050625 
1510.000000	65.066123 
1509.000000	65.079689 
1508.000000	65.088939 
1507.000000	65.093111 
1506.000000	65.093111 
1505.000000	65.091395 
1504.000000	65.091466 
1503.000000	65.096688 
1502.000000	65.109372 
1501.000000	65.129899 
1500.000000	65.156483 
1499.000000	65.185379 
1498.000000	65.212011 
1497.000000	65.232062 
1496.000000	65.242362 
1495.000000	65.241861 
1494.000000	65.231704 
1493.000000	65.214586 
1492.000000	65.194153 
1491.000000	65.173840 
1490.000000	65.156292 
1489.000000	65.143299 
1488.000000	65.135169 
1487.000000	65.131759 
1486.000000	65.131855 
1485.000000	65.134525 
1484.000000	65.138268 
1483.000000	65.141749 
1482.000000	65.143299 
1481.000000	65.141105 
1480.000000	65.133380 
1479.000000	65.118694 
1478.000000	65.096426 
1477.000000	65.067148 
1476.000000	65.032768 
1475.000000	64.996385 
1474.000000	64.961624 
1473.000000	64.931988 
1472.000000	64.910101 
1471.000000	64.897346 
1470.000000	64.893460 
1469.000000	64.896869 
1468.000000	64.905095 
1467.000000	64.915299 
1466.000000	64.924931 
1465.000000	64.932012 
1464.000000	64.934778 
1463.000000	64.932274 
1462.000000	64.923739 
1461.000000	64.909338 
1460.000000	64.889502 
1459.000000	64.865708 
1458.000000	64.840245 
1457.000000	64.816331 
1456.000000	64.797878 
1455.000000	64.788675 
1454.000000	64.791631 
1453.000000	64.808225 
1452.000000	64.837694 
1451.000000	64.877343 
1450.000000	64.922809 
1449.000000	64.969182 
1448.000000	65.011858 
1447.000000	65.047645 
1446.000000	65.074896 
1445.000000	65.094041 
1444.000000	65.106916 
1443.000000	65.115809 
1442.000000	65.122461 
1441.000000	65.127658 
1440.000000	65.130734 
1439.000000	65.129852 
1438.000000	65.122413 
1437.000000	65.106439 
1436.000000	65.081167 
1435.000000	65.047597 
1434.000000	65.008616 
1433.000000	64.968609 
1432.000000	64.932441 
1431.000000	64.904379 
1430.000000	64.887166 
1429.000000	64.881372 
1428.000000	64.885377 
1427.000000	64.895868 
1426.000000	64.908790 
1425.000000	64.920163 
1424.000000	64.927363 
1423.000000	64.929437 
1422.000000	64.927577 
1421.000000	64.924120 
1420.000000	64.922332 
1419.000000	64.925360 
1418.000000	64.935302 
1417.000000	64.952564 
1416.000000	64.975810 
1415.000000	65.002322 
1414.000000	65.028619 
1413.000000	65.051293 
1412.000000	65.068030 
1411.000000	65.078067 
1410.000000	65.082359 
1409.000000	65.083193 
1408.000000	65.083312 
1407.000000	65.085220 
1406.000000	65.090465 
1405.000000	65.098786 
1404.000000	65.108346 
1403.000000	65.116071 
1402.000000	65.118741 
1401.000000	65.113425 
1400.000000	65.098524 
1399.000000	65.074110 
1398.000000	65.042257 
1397.000000	65.006399 
1396.000000	64.970541 
1395.000000	64.938616 
1394.000000	64.913654 
1393.000000	64.897751 
1392.000000	64.891934 
1391.000000	64.896225 
1390.000000	64.909672 
1389.000000	64.930701 
1388.000000	64.957141 
1387.000000	64.986395 
1386.000000	65.015625 
1385.000000	65.042066 
1384.000000	65.063500 
1383.000000	65.078282 
1382.000000	65.085673 
1381.000000	65.086102 
1380.000000	65.080761 
1379.000000	65.071368 
1378.000000	65.059852 
1377.000000	65.048456 
1376.000000	65.038895 
1375.000000	65.032601 
1374.000000	65.030145 
1373.000000	65.031647 
1372.000000	65.036344 
1371.000000	65.043020 
1370.000000	65.050053 
1369.000000	65.055632 
1368.000000	65.058159 
1367.000000	65.056467 
1366.000000	65.050268 
1365.000000	65.039968 
1364.000000	65.026926 
1363.000000	65.013217 
1362.000000	65.000963 
1361.000000	64.991903 
1360.000000	64.987206 
1359.000000	64.986872 
1358.000000	64.989995 
1357.000000	64.994835 
1356.000000	64.999079 
1355.000000	65.000414 
1354.000000	64.996933 
1353.000000	64.987421 
1352.000000	64.971566 
1351.000000	64.950060 
1350.000000	64.924478 
1349.000000	64.896988 
1348.000000	64.870023 
1347.000000	64.846134 
1346.000000	64.827275 
1345.000000	64.814591 
1344.000000	64.808583 
1343.000000	64.808678 
1342.000000	64.813423 
1341.000000	64.820957 
1340.000000	64.829349 
1339.000000	64.837145 
1338.000000	64.843821 
1337.000000	64.849686 
1336.000000	64.855718 
1335.000000	64.863133 
1334.000000	64.872741 
1333.000000	64.884686 
1332.000000	64.898180 
1331.000000	64.911794 
1330.000000	64.923977 
1329.000000	64.933443 
1328.000000	64.939641 
1327.000000	64.942741 
1326.000000	64.943528 
1325.000000	64.943242 
1324.000000	64.943051 
1323.000000	64.943861 
1322.000000	64.946055 
1321.000000	64.949750 
1320.000000	64.954805 
1319.000000	64.961194 
1318.000000	64.968872 
1317.000000	64.978241 
1316.000000	64.989352 
1315.000000	65.001893 
1314.000000	65.014863 
1313.000000	65.026688 
1312.000000	65.035438 
1311.000000	65.039110 
1310.000000	65.036320 
1309.000000	65.026569 
1308.000000	65.010428 
1307.000000	64.989614 
1306.000000	64.966392 
1305.000000	64.943337 
1304.000000	64.922881 
1303.000000	64.907073 
1302.000000	64.897155 
1301.000000	64.893698 
1300.000000	64.896535 
1299.000000	64.904999 
1298.000000	64.917850 
1297.000000	64.933681 
1296.000000	64.950895 
1295.000000	64.968156 
1294.000000	64.983940 
1293.000000	64.997363 
1292.000000	65.008044 
1291.000000	65.016198 
1290.000000	65.022468 
1289.000000	65.027475 
1288.000000	65.031671 
1287.000000	65.034866 
1286.000000	65.036439 
1285.000000	65.035247 
1284.000000	65.030312 
1283.000000	65.020990 
1282.000000	65.007424 
1281.000000	64.990425 
1280.000000	64.971446 
1279.000000	64.952254 
1278.000000	64.934420 
1277.000000	64.919281 
1276.000000	64.907670 
1275.000000	64.899849 
1274.000000	64.895796 
1273.000000	64.895105 
1272.000000	64.897298 
1271.000000	64.901804 
1270.000000	64.907956 
1269.000000	64.914608 
1268.000000	64.920639 
1267.000000	64.924597 
1266.000000	64.925336 
1265.000000	64.922118 
1264.000000	64.915108 
1263.000000	64.905214 
1262.000000	64.894056 
1261.000000	64.883542 
1260.000000	64.875507 
1259.000000	64.871001 
1258.000000	64.870309 
1257.000000	64.872980 
1256.000000	64.878010 
1255.000000	64.884185 
1254.000000	64.890384 
1253.000000	64.895820 
1252.000000	64.900255 
1251.000000	64.903759 
1250.000000	64.906620 
1249.000000	64.909172 
1248.000000	64.911580 
1247.000000	64.913940 
1246.000000	64.915990 
1245.000000	64.917540 
1244.000000	64.918541 
1243.000000	64.919257 
1242.000000	64.920186 
1241.000000	64.922022 
1240.000000	64.925336 
1239.000000	64.930248 
1238.000000	64.936280 
1237.000000	64.942169 
1236.000000	64.946413 
1235.000000	64.947462 
1234.000000	64.944338 
1233.000000	64.936971 
1232.000000	64.926385 
1231.000000	64.914250 
1230.000000	64.902734 
1229.000000	64.893794 
1228.000000	64.888691 
1227.000000	64.887905 
1226.000000	64.890933 
1225.000000	64.896774 
1224.000000	64.904093 
1223.000000	64.911770 
1222.000000	64.919018 
1221.000000	64.925336 
1220.000000	64.930629 
1219.000000	64.934515 
1218.000000	64.936542 
1217.000000	64.935779 
1216.000000	64.931607 
1215.000000	64.923977 
1214.000000	64.913725 
1213.000000	64.902615 
1212.000000	64.893054 
1211.000000	64.887785 
1210.000000	64.888668 
1209.000000	64.896321 
1208.000000	64.909768 
1207.000000	64.926552 
1206.000000	64.943242 
1205.000000	64.955997 
1204.000000	64.961767 
1203.000000	64.958882 
1202.000000	64.947271 
1201.000000	64.928698 
1200.000000	64.906239 
1199.000000	64.883756 
1198.000000	64.865112 
1197.000000	64.853382 
1196.000000	64.850616 
1195.000000	64.857077 
1194.000000	64.872002 
1193.000000	64.892983 
1192.000000	64.916586 
1191.000000	64.938831 
1190.000000	64.955711 
1189.000000	64.964222 
1188.000000	64.962935 
1187.000000	64.952158 
1186.000000	64.934110 
1185.000000	64.911961 
1184.000000	64.888811 
1183.000000	64.866971 
1182.000000	64.847397 
1181.000000	64.829802 
1180.000000	64.813065 
1179.000000	64.795994 
1178.000000	64.778184 
1177.000000	64.760208 
1176.000000	64.743685 
1175.000000	64.730668 
1174.000000	64.723110 
1173.000000	64.722251 
1172.000000	64.728188 
1171.000000	64.739704 
1170.000000	64.754652 
1169.000000	64.770698 
1168.000000	64.785885 
1167.000000	64.798998 
1166.000000	64.810156 
1165.000000	64.820504 
1164.000000	64.832043 
1163.000000	64.846301 
1162.000000	64.864206 
1161.000000	64.885425 
1160.000000	64.908218 
1159.000000	64.930057 
1158.000000	64.947795 
1157.000000	64.958786 
1156.000000	64.961409 
1155.000000	64.955520 
1154.000000	64.942359 
1153.000000	64.924454 
1152.000000	64.905095 
1151.000000	64.887690 
1150.000000	64.874887 
1149.000000	64.868259 
1148.000000	64.868211 
1147.000000	64.873981 
1146.000000	64.884233 
1145.000000	64.897227 
1144.000000	64.910888 
1143.000000	64.922833 
1142.000000	64.930319 
1141.000000	64.930438 
1140.000000	64.920210 
1139.000000	64.897465 
1138.000000	64.861607 
1137.000000	64.814162 
1136.000000	64.759063 
1135.000000	64.702129 
1134.000000	64.650440 
1133.000000	64.610385 
1132.000000	64.586353 
1131.000000	64.579772 
1130.000000	64.588499 
1129.000000	64.607858 
1128.000000	64.631438 
1127.000000	64.653491 
1126.000000	64.670133 
1125.000000	64.680504 
1124.000000	64.686441 
1123.000000	64.690923 
1122.000000	64.696478 
1121.000000	64.703893 
1120.000000	64.711451 
1119.000000	64.714956 
1118.000000	64.709138 
1117.000000	64.689946 
1116.000000	64.656162 
1115.000000	64.610433 
1114.000000	64.558863 
1113.000000	64.509868 
1112.000000	64.471769 
1111.000000	64.450716 
1110.000000	64.448857 
1109.000000	64.463639 
1108.000000	64.488601 
1107.000000	64.515233 
1106.000000	64.535403 
1105.000000	64.543509 
1104.000000	64.537811 
1103.000000	64.519929 
1102.000000	64.495158 
1101.000000	64.469599 
1100.000000	64.450216 
1099.000000	64.442300 
1098.000000	64.449620 
1097.000000	64.473700 
1096.000000	64.514636 
1095.000000	64.571332 
1094.000000	64.641857 
1093.000000	64.723634 
1092.000000	64.813375 
1091.000000	64.906620 
1090.000000	64.997959 
1089.000000	65.080881 
1088.000000	65.148496 
1087.000000	65.194010 
1086.000000	65.212345 
1085.000000	65.200901 
1084.000000	65.160632 
1083.000000	65.095710 
1082.000000	65.014147 
1081.000000	64.925789 
1080.000000	64.841175 
1079.000000	64.769244 
1078.000000	64.716815 
1077.000000	64.686298 
1076.000000	64.676713 
1075.000000	64.682912 
1074.000000	64.697313 
1073.000000	64.711689 
1072.000000	64.718961 
1071.000000	64.715218 
1070.000000	64.699602 
1069.000000	64.675450 
1068.000000	64.648842 
1067.000000	64.627027 
1066.000000	64.616346 
1065.000000	64.620780 
1064.000000	64.640569 
1063.000000	64.672064 
1062.000000	64.708590 
1061.000000	64.742302 
1060.000000	64.766335 
1059.000000	64.776206 
1058.000000	64.771246 
1057.000000	64.755034 
1056.000000	64.733862 
1055.000000	64.715003 
1054.000000	64.704012 
1053.000000	64.702916 
1052.000000	64.709353 
1051.000000	64.717555 
1050.000000	64.720296 
1049.000000	64.711403 
1048.000000	64.688038 
1047.000000	64.652419 
1046.000000	64.610528 
1045.000000	64.570569 
1044.000000	64.540481 
1043.000000	64.525413 
1042.000000	64.526486 
1041.000000	64.540338 
1040.000000	64.560985 
1039.000000	64.581465 
1038.000000	64.596223 
1037.000000	64.602661 
1036.000000	64.601159 
1035.000000	64.595031 
1034.000000	64.588308 
1033.000000	64.584708 
1032.000000	64.586043 
1031.000000	64.592242 
1030.000000	64.601802 
1029.000000	64.612507 
1028.000000	64.623117 
1027.000000	64.632821 
1026.000000	64.642381 
1025.000000	64.652276 
1024.000000	64.662408 
1023.000000	64.671611 
1022.000000	64.677071 
1021.000000	64.676356 
1020.000000	64.667654 
1019.000000	64.652132 
1018.000000	64.634203 
1017.000000	64.621019 
1016.000000	64.620995 
1015.000000	64.640808 
1014.000000	64.683365 
1013.000000	64.745855 
1012.000000	64.819836 
1011.000000	64.893221 
1010.000000	64.953207 
1009.000000	64.989995 
1008.000000	64.999341 
1007.000000	64.983797 
1006.000000	64.951610 
1005.000000	64.914178 
1004.000000	64.882659 
1003.000000	64.864611 
1002.000000	64.861798 
1001.000000	64.870309 
1000.000000	64.881682 
999.000000	 64.886713 
998.000000	 64.877772 
997.000000	 64.852046 
996.000000	 64.811873 
995.000000	 64.764451 
994.000000	 64.719176 
993.000000	 64.684724 
992.000000	 64.666748 
991.000000	 64.665961 
990.000000	 64.678382 
989.000000	 64.696598 
988.000000	 64.711833 
987.000000	 64.716625 
986.000000	 64.706730 
985.000000	 64.682126 
984.000000	 64.646863 
983.000000	 64.607739 
982.000000	 64.572310 
981.000000	 64.546990 
980.000000	 64.535689 
979.000000	 64.538884 
978.000000	 64.553856 
977.000000	 64.575338 
976.000000	 64.596796 
975.000000	 64.612150 
974.000000	 64.616584 
973.000000	 64.608120 
972.000000	 64.587402 
971.000000	 64.557981 
970.000000	 64.525151 
969.000000	 64.494967 
968.000000	 64.472556 
967.000000	 64.461255 
966.000000	 64.461874 
965.000000	 64.472723 
964.000000	 64.490222 
963.000000	 64.510250 
962.000000	 64.529347 
961.000000	 64.545130 
960.000000	 64.556908 
959.000000	 64.565587 
958.000000	 64.573144 
957.000000	 64.581656 
956.000000	 64.592361 
955.000000	 64.605307 
954.000000	 64.619135 
953.000000	 64.631557 
952.000000	 64.639735 
951.000000	 64.641857 
950.000000	 64.636945 
949.000000	 64.625239 
948.000000	 64.607667 
947.000000	 64.585828 
946.000000	 64.560961 
945.000000	 64.534020 
944.000000	 64.505076 
943.000000	 64.473557 
942.000000	 64.438724 
941.000000	 64.400529 
940.000000	 64.360070 
939.000000	 64.319610 
938.000000	 64.282751 
937.000000	 64.253616 
936.000000	 64.236235 
935.000000	 64.233469 
934.000000	 64.246416 
933.000000	 64.273905 
932.000000	 64.312696 
931.000000	 64.357852 
930.000000	 64.403724 
929.000000	 64.445257 
928.000000	 64.478826 
927.000000	 64.502954 
926.000000	 64.518713 
925.000000	 64.529013 
924.000000	 64.538025 
923.000000	 64.549303 
922.000000	 64.564919 
921.000000	 64.584350 
920.000000	 64.604544 
919.000000	 64.620375 
918.000000	 64.626121 
917.000000	 64.616918 
916.000000	 64.590716 
915.000000	 64.548969 
914.000000	 64.496612 
913.000000	 64.441299 
912.000000	 64.391636 
911.000000	 64.355039 
910.000000	 64.336013 
909.000000	 64.335107 
908.000000	 64.348793 
907.000000	 64.371037 
906.000000	 64.395284 
905.000000	 64.416050 
904.000000	 64.430212 
903.000000	 64.437556 
902.000000	 64.440107 
901.000000	 64.440965 
900.000000	 64.442992 
899.000000	 64.447855 
898.000000	 64.455556 
897.000000	 64.464616 
896.000000	 64.472746 
895.000000	 64.477920 
894.000000	 64.478945 
893.000000	 64.476275 
892.000000	 64.471364 
891.000000	 64.466643 
890.000000	 64.463901 
889.000000	 64.464354 
888.000000	 64.466953 
887.000000	 64.469313 
886.000000	 64.466953 
885.000000	 64.455389 
884.000000	 64.429855 
883.000000	 64.386987 
882.000000	 64.325642 
881.000000	 64.247369 
880.000000	 64.156842 
879.000000	 64.061212 
878.000000	 63.969492 
877.000000	 63.890933 
876.000000	 63.833665 
875.000000	 63.803195 
874.000000	 63.801240 
873.000000	 63.825821 
872.000000	 63.871669 
871.000000	 63.931417 
870.000000	 63.996934 
869.000000	 64.061021 
868.000000	 64.118003 
867.000000	 64.164638 
866.000000	 64.199471 
865.000000	 64.222908 
864.000000	 64.236521 
863.000000	 64.242243 
862.000000	 64.242053 
861.000000	 64.237523 
860.000000	 64.230370 
859.000000	 64.221954 
858.000000	 64.214205 
857.000000	 64.208555 
856.000000	 64.206051 
855.000000	 64.207029 
854.000000	 64.210963 
853.000000	 64.216375 
852.000000	 64.221072 
851.000000	 64.223027 
850.000000	 64.220976 
849.000000	 64.215278 
848.000000	 64.208102 
847.000000	 64.203286 
846.000000	 64.205479 
845.000000	 64.218616 
844.000000	 64.244341 
843.000000	 64.281821 
842.000000	 64.326620 
841.000000	 64.372158 
840.000000	 64.410233 
839.000000	 64.432907 
838.000000	 64.434218 
837.000000	 64.411640 
836.000000	 64.366626 
835.000000	 64.304018 
834.000000	 64.231824 
833.000000	 64.159846 
832.000000	 64.097833 
831.000000	 64.053893 
830.000000	 64.033031 
829.000000	 64.036488 
828.000000	 64.061355 
827.000000	 64.101672 
826.000000	 64.149212 
825.000000	 64.195227 
824.000000	 64.232182 
823.000000	 64.254975 
822.000000	 64.262247 
821.000000	 64.256334 
820.000000	 64.242339 
819.000000	 64.226627 
818.000000	 64.215397 
817.000000	 64.212918 
816.000000	 64.220547 
815.000000	 64.236211 
814.000000	 64.255619 
813.000000	 64.272904 
812.000000	 64.282679 
811.000000	 64.280915 
810.000000	 64.265918 
809.000000	 64.238524 
808.000000	 64.201402 
807.000000	 64.159011 
806.000000	 64.115858 
805.000000	 64.076471 
804.000000	 64.044332 
803.000000	 64.022040 
802.000000	 64.011144 
801.000000	 64.012074 
800.000000	 64.024496 
799.000000	 64.046454 
798.000000	 64.074468 
797.000000	 64.103507 
796.000000	 64.127683 
795.000000	 64.141321 
794.000000	 64.140152 
793.000000	 64.122033 
792.000000	 64.087343 
791.000000	 64.039182 
790.000000	 63.982915 
789.000000	 63.924384 
788.000000	 63.869667 
787.000000	 63.824200 
786.000000	 63.792252 
785.000000	 63.776373 
784.000000	 63.777446 
783.000000	 63.794565 
782.000000	 63.825392 
781.000000	 63.866114 
780.000000	 63.912129 
779.000000	 63.957881 
778.000000	 63.998150 
777.000000	 64.028310 
776.000000	 64.045453 
775.000000	 64.048600 
774.000000	 64.038944 
773.000000	 64.019489 
772.000000	 63.993859 
771.000000	 63.965606 
770.000000	 63.937377 
769.000000	 63.910555 
768.000000	 63.885140 
767.000000	 63.859891 
766.000000	 63.833475 
765.000000	 63.804364 
764.000000	 63.771033 
763.000000	 63.732004 
762.000000	 63.685655 
761.000000	 63.631224 
760.000000	 63.568568 
759.000000	 63.499665 
758.000000	 63.428092 
757.000000	 63.359761 
756.000000	 63.302183 
755.000000	 63.262891 
754.000000	 63.247966 
753.000000	 63.259601 
752.000000	 63.295602 
751.000000	 63.348460 
750.000000	 63.406276 
749.000000	 63.455843 
748.000000	 63.484954 
747.000000	 63.486242 
746.000000	 63.458347 
745.000000	 63.407421 
744.000000	 63.345384 
743.000000	 63.287568 
742.000000	 63.248801 
741.000000	 63.240408 
740.000000	 63.267183 
739.000000	 63.327217 
738.000000	 63.411903 
737.000000	 63.508248 
736.000000	 63.601279 
735.000000	 63.678050 
734.000000	 63.729095 
733.000000	 63.749837 
732.000000	 63.740253 
731.000000	 63.704085 
730.000000	 63.647031 
729.000000	 63.575267 
728.000000	 63.494253 
727.000000	 63.408946 
726.000000	 63.323473 
725.000000	 63.241958 
724.000000	 63.168764 
723.000000	 63.109040 
722.000000	 63.067412 
721.000000	 63.047289 
720.000000	 63.049507 
719.000000	 63.071560 
718.000000	 63.108110 
717.000000	 63.151693 
716.000000	 63.194227 
715.000000	 63.228464 
714.000000	 63.250517 
713.000000	 63.260531 
712.000000	 63.262438 
711.000000	 63.262462 
710.000000	 63.267612 
709.000000	 63.283014 
708.000000	 63.310623 
707.000000	 63.347864 
706.000000	 63.388276 
705.000000	 63.422822 
704.000000	 63.442349 
703.000000	 63.439989 
702.000000	 63.413143 
701.000000	 63.364601 
700.000000	 63.301658 
699.000000	 63.234949 
698.000000	 63.175845 
697.000000	 63.134121 
696.000000	 63.115811 
695.000000	 63.121628 
694.000000	 63.147234 
693.000000	 63.184094 
692.000000	 63.222122 
691.000000	 63.250946 
690.000000	 63.262176 
689.000000	 63.250613 
688.000000	 63.214945 
687.000000	 63.157510 
686.000000	 63.083410 
685.000000	 62.999391 
684.000000	 62.912893 
683.000000	 62.831425 
682.000000	 62.761831 
681.000000	 62.709856 
680.000000	 62.679314 
679.000000	 62.672328 
678.000000	 62.688350 
677.000000	 62.723827 
676.000000	 62.772321 
675.000000	 62.825155 
674.000000	 62.872695 
673.000000	 62.905097 
672.000000	 62.915205 
671.000000	 62.899255 
670.000000	 62.858605 
669.000000	 62.799191 
668.000000	 62.730908 
667.000000	 62.665557 
666.000000	 62.614488 
665.000000	 62.586212 
664.000000	 62.584853 
663.000000	 62.609171 
662.000000	 62.653279 
661.000000	 62.708282 
660.000000	 62.764120 
659.000000	 62.811827 
658.000000	 62.845158 
657.000000	 62.861299 
656.000000	 62.860512 
655.000000	 62.845253 
654.000000	 62.818932 
653.000000	 62.784719 
652.000000	 62.744331 
651.000000	 62.698268 
650.000000	 62.647056 
649.000000	 62.591719 
648.000000	 62.535119 
647.000000	 62.481451 
646.000000	 62.436532 
645.000000	 62.405276 
644.000000	 62.390708 
643.000000	 62.391948 
642.000000	 62.403917 
641.000000	 62.418293 
640.000000	 62.425470 
639.000000	 62.417197 
638.000000	 62.388610 
637.000000	 62.340068 
636.000000	 62.277126 
635.000000	 62.209224 
634.000000	 62.147164 
633.000000	 62.100744 
632.000000	 62.076473 
631.000000	 62.075996 
630.000000	 62.096047 
629.000000	 62.130212 
628.000000	 62.170648 
627.000000	 62.210011 
626.000000	 62.243056 
625.000000	 62.267422 
624.000000	 62.283802 
623.000000	 62.294173 
622.000000	 62.301468 
621.000000	 62.307906 
620.000000	 62.314796 
619.000000	 62.322902 
618.000000	 62.331819 
617.000000	 62.340855 
616.000000	 62.349009 
615.000000	 62.355995 
614.000000	 62.360954 
613.000000	 62.363076 
612.000000	 62.360382 
611.000000	 62.350559 
610.000000	 62.330389 
609.000000	 62.296581 
608.000000	 62.246513 
607.000000	 62.179279 
606.000000	 62.096691 
605.000000	 62.003302 
604.000000	 61.905646 
603.000000	 61.811161 
602.000000	 61.726498 
601.000000	 61.656522 
600.000000	 61.602592 
599.000000	 61.563611 
598.000000	 61.536359 
597.000000	 61.517477 
596.000000	 61.504030 
595.000000	 61.495232 
594.000000	 61.492085 
593.000000	 61.497139 
592.000000	 61.512279 
591.000000	 61.538434 
590.000000	 61.573982 
589.000000	 61.615109 
588.000000	 61.655616 
587.000000	 61.688780 
586.000000	 61.709046 
585.000000	 61.713075 
584.000000	 61.700749 
583.000000	 61.674642 
582.000000	 61.639142 
581.000000	 61.598587 
580.000000	 61.555981 
579.000000	 61.511492 
578.000000	 61.462640 
577.000000	 61.405253 
576.000000	 61.335515 
575.000000	 61.251401 
574.000000	 61.154651 
573.000000	 61.051368 
572.000000	 60.951566 
571.000000	 60.866761 
570.000000	 60.807538 
569.000000	 60.781359 
568.000000	 60.789918 
567.000000	 60.827875 
566.000000	 60.884094 
565.000000	 60.943913 
564.000000	 60.992527 
563.000000	 61.018085 
562.000000	 61.014318 
561.000000	 60.981202 
560.000000	 60.924863 
559.000000	 60.854959 
558.000000	 60.782408 
557.000000	 60.716271 
556.000000	 60.662269 
555.000000	 60.621976 
554.000000	 60.593485 
553.000000	 60.572981 
552.000000	 60.556435 
551.000000	 60.541486 
550.000000	 60.526919 
549.000000	 60.513472 
548.000000	 60.502815 
547.000000	 60.497784 
546.000000	 60.500192 
545.000000	 60.511946 
544.000000	 60.534214 
543.000000	 60.568213 
542.000000	 60.615491 
541.000000	 60.676741 
540.000000	 60.751008 
539.000000	 60.834455 
538.000000	 60.920906 
537.000000	 61.001443 
536.000000	 61.065340 
535.000000	 61.103105 
534.000000	 61.108875 
533.000000	 61.082530 
532.000000	 61.030101 
531.000000	 60.962963 
530.000000	 60.895943 
529.000000	 60.841560 
528.000000	 60.806846 
527.000000	 60.790038 
526.000000	 60.781025 
525.000000	 60.762882 
524.000000	 60.716843 
523.000000	 60.627388 
522.000000	 60.487675 
521.000000	 60.302162 
520.000000	 60.087537 
519.000000	 59.868049 
518.000000	 59.671807 
517.000000	 59.524798 
516.000000	 59.445714 
515.000000	 59.440588 
514.000000	 59.503340 
513.000000	 59.617257 
512.000000	 59.760546 
511.000000	 59.908604 
510.000000	 60.043096 
509.000000	 60.154247 
508.000000	 60.243511 
507.000000	 60.318517 
506.000000	 60.392022 
505.000000	 60.476016 
504.000000	 60.576987 
503.000000	 60.692906 
502.000000	 60.813045 
501.000000	 60.920906 
500.000000	 60.998272 
499.000000	 61.030435 
498.000000	 61.009216 
497.000000	 60.934925 
496.000000	 60.816812 
495.000000	 60.669946 
494.000000	 60.510897 
493.000000	 60.353374 
492.000000	 60.206866 
491.000000	 60.074114 
490.000000	 59.952974 
489.000000	 59.836673 
488.000000	 59.719371 
487.000000	 59.595656 
486.000000	 59.462714 
485.000000	 59.319901 
484.000000	 59.168171 
483.000000	 59.009552 
482.000000	 58.845567 
481.000000	 58.678030 
480.000000	 58.506941 
479.000000	 58.334898 
478.000000	 58.167815 
477.000000	 58.014082 
476.000000	 57.882499 
475.000000	 57.781720 
474.000000	 57.718133 
473.000000	 57.693386 
472.000000	 57.703518 
471.000000	 57.741594 
470.000000	 57.799148 
469.000000	 57.868099 
468.000000	 57.942271 
467.000000	 58.017063 
466.000000	 58.089590 
465.000000	 58.157539 
464.000000	 58.218908 
463.000000	 58.270764 
462.000000	 58.309841 
461.000000	 58.334994 
460.000000	 58.345293 
459.000000	 58.341932 
458.000000	 58.324623 
457.000000	 58.294081 
456.000000	 58.247256 
455.000000	 58.179855 
454.000000	 58.084511 
453.000000	 57.953643 
452.000000	 57.782363 
451.000000	 57.572054 
450.000000	 57.331323 
449.000000	 57.076692 
448.000000	 56.827569 
447.000000	 56.602549 
446.000000	 56.416177 
445.000000	 56.276750 
444.000000	 56.186676 
443.000000	 56.143856 
442.000000	 56.143689 
441.000000	 56.181526 
440.000000	 56.251668 
439.000000	 56.348514 
438.000000	 56.468701 
437.000000	 56.608200 
436.000000	 56.755781 
435.000000	 56.895422 
434.000000	 57.011699 
433.000000	 57.087564 
432.000000	 57.111430 
431.000000	 57.072520 
430.000000	 56.964993 
429.000000	 56.785130 
428.000000	 56.530642 
427.000000	 56.206941 
426.000000	 55.829477 
425.000000	 55.425357 
424.000000	 55.030369 
423.000000	 54.687595 
422.000000	 54.440617 
421.000000	 54.322719 
420.000000	 54.348683 
419.000000	 54.505729 
418.000000	 54.758262 
417.000000	 55.037021 
416.000000	 55.263614 
415.000000	 55.387902 
414.000000	 55.411243 
413.000000	 55.392670 
412.000000	 55.438971 
411.000000	 55.683851 
410.000000	 56.235074 
409.000000	 57.154250 
408.000000	 58.408069 
407.000000	 59.827327 
406.000000	 61.172652 
405.000000	 62.208342 
404.000000	 62.762784 
403.000000	 62.766385 
402.000000	 62.290096 
401.000000	 61.543464 
400.000000	 60.797548 
399.000000	 60.327839 
398.000000	 60.301160 
397.000000	 60.721445 
396.000000	 61.440968 
395.000000	 62.202525 
394.000000	 62.759160 
393.000000	 62.959814 
392.000000	 62.858128 
391.000000	 62.712454 
390.000000	 62.942862 
389.000000	 63.992691 
388.000000	 66.187810 
387.000000	 69.570493 
386.000000	 73.883414 
385.000000	 78.508591 
384.000000	 82.615113 
383.000000	 85.252952 
382.000000	 85.567307 
381.000000	 82.977581 
380.000000	 77.327322 
379.000000	 68.967700 
378.000000	 58.693552 
377.000000	 47.650265 
376.000000	 37.116074 
375.000000	 28.295946 
374.000000	 22.105169 
373.000000	 19.030427 
372.000000	 19.070672 
371.000000	 21.800208 
370.000000	 26.490283 

