PE IR       SPECTRUM    SPECTRUM    ASCII       PEDS        1.60        
  -1
C-9C65~1.ASC
17/03/27
20:07:25.00
17/03/27
20:07:25.00
tln
$C-4040-8_t0068$<tbV0>[10.4,2.6,8.0,0.0,27,1,0]
370.000000
64









2002,4.07    
MIRTGS : RIGHTBACK : INTERNAL 2
MIR : ON : INTERNAL 2
OPTKBR

0.200000
8
8.000000
FILLER
RATIO
SPECTRUM
UNLOCKED 256

DOUBLE
64
COMBINED
1
0
0


1.000000
RATIO


1
0
TRUE
51149
0
LEFT NOT FITTED RIGHT NOT FITTED 0
NONE
NONE
15600
12.000000
4.427000
51148
TRUE
1 0 8 72 0 0 0 0 

15798.010000






#HDR
-1
-1
#GR
CM-1
%T
0.00002384185791015625
0.0
5000.000000
-1.000000
4631
8
94.337487
25.433468
#DATA
5000.000000	65.354990 
4999.000000	65.317058 
4998.000000	65.263295 
4997.000000	65.204620 
4996.000000	65.150809 
4995.000000	65.109300 
4994.000000	65.082859 
4993.000000	65.070271 
4992.000000	65.066576 
4991.000000	65.065193 
4990.000000	65.059947 
4989.000000	65.046668 
4988.000000	65.025115 
4987.000000	64.998936 
4986.000000	64.975094 
4985.000000	64.961647 
4984.000000	64.966559 
4983.000000	64.995527 
4982.000000	65.050959 
4981.000000	65.130877 
4980.000000	65.229916 
4979.000000	65.339231 
4978.000000	65.448427 
4977.000000	65.546083 
4976.000000	65.621185 
4975.000000	65.663695 
4974.000000	65.665817 
4973.000000	65.623307 
4972.000000	65.536785 
4971.000000	65.411758 
4970.000000	65.258741 
4969.000000	65.091538 
4968.000000	64.926481 
4967.000000	64.779186 
4966.000000	64.662456 
4965.000000	64.584136 
4964.000000	64.546370 
4963.000000	64.545631 
4962.000000	64.573884 
4961.000000	64.621114 
4960.000000	64.677095 
4959.000000	64.733886 
4958.000000	64.786362 
4957.000000	64.833164 
4956.000000	64.875555 
4955.000000	64.916515 
4954.000000	64.958786 
4953.000000	65.004372 
4952.000000	65.053033 
4951.000000	65.103006 
4950.000000	65.150523 
4949.000000	65.190839 
4948.000000	65.218281 
4947.000000	65.228104 
4946.000000	65.216326 
4945.000000	65.181016 
4944.000000	65.122032 
4943.000000	65.042161 
4942.000000	64.946246 
4941.000000	64.840888 
4940.000000	64.733552 
4939.000000	64.632415 
4938.000000	64.544749 
4937.000000	64.476013 
4936.000000	64.429306 
4935.000000	64.405322 
4934.000000	64.402365 
4933.000000	64.416360 
4932.000000	64.442110 
4931.000000	64.473819 
4930.000000	64.506387 
4929.000000	64.535927 
4928.000000	64.559602 
4927.000000	64.575982 
4926.000000	64.585614 
4925.000000	64.591050 
4924.000000	64.595127 
4923.000000	64.601111 
4922.000000	64.612460 
4921.000000	64.632129 
4920.000000	64.661955 
4919.000000	64.702296 
4918.000000	64.752697 
4917.000000	64.810895 
4916.000000	64.874219 
4915.000000	64.938306 
4914.000000	64.997553 
4913.000000	65.045595 
4912.000000	65.076828 
4911.000000	65.087032 
4910.000000	65.074014 
4909.000000	65.038990 
4908.000000	64.987349 
4907.000000	64.926648 
4906.000000	64.865350 
4905.000000	64.811110 
4904.000000	64.769244 
4903.000000	64.740991 
4902.000000	64.723467 
4901.000000	64.709949 
4900.000000	64.691495 
4899.000000	64.658546 
4898.000000	64.603662 
4897.000000	64.522790 
4896.000000	64.417386 
4895.000000	64.293885 
4894.000000	64.164113 
4893.000000	64.041781 
4892.000000	63.941693 
4891.000000	63.876652 
4890.000000	63.855814 
4889.000000	63.882374 
4888.000000	63.953828 
4887.000000	64.061927 
4886.000000	64.195227 
4885.000000	64.339756 
4884.000000	64.483070 
4883.000000	64.615416 
4882.000000	64.730811 
4881.000000	64.826416 
4880.000000	64.901399 
4879.000000	64.955472 
4878.000000	64.988064 
4877.000000	64.998173 
4876.000000	64.985728 
4875.000000	64.952588 
4874.000000	64.904236 
4873.000000	64.849591 
4872.000000	64.799261 
4871.000000	64.763116 
4870.000000	64.748120 
4869.000000	64.756107 
4868.000000	64.782309 
4867.000000	64.817118 
4866.000000	64.848828 
4865.000000	64.867091 
4864.000000	64.865803 
4863.000000	64.844918 
4862.000000	64.811110 
4861.000000	64.774847 
4860.000000	64.746689 
4859.000000	64.734077 
4858.000000	64.738607 
4857.000000	64.755988 
4856.000000	64.778041 
4855.000000	64.794945 
4854.000000	64.798641 
4853.000000	64.785075 
4852.000000	64.755821 
4851.000000	64.716076 
4850.000000	64.672732 
4849.000000	64.632606 
4848.000000	64.600443 
4847.000000	64.577794 
4846.000000	64.563393 
4845.000000	64.555430 
4844.000000	64.553022 
4843.000000	64.557504 
4842.000000	64.572572 
4841.000000	64.603185 
4840.000000	64.654135 
4839.000000	64.727544 
4838.000000	64.821696 
4837.000000	64.930415 
4836.000000	65.043711 
4835.000000	65.150165 
4834.000000	65.238213 
4833.000000	65.298819 
4832.000000	65.326237 
4831.000000	65.319466 
4830.000000	65.281724 
4829.000000	65.219640 
4828.000000	65.142321 
4827.000000	65.060043 
4826.000000	64.982390 
4825.000000	64.917540 
4824.000000	64.870619 
4823.000000	64.843678 
4822.000000	64.834833 
4821.000000	64.839124 
4820.000000	64.848875 
4819.000000	64.855957 
4818.000000	64.853262 
4817.000000	64.836883 
4816.000000	64.806890 
4815.000000	64.767861 
4814.000000	64.727115 
4813.000000	64.693617 
4812.000000	64.674901 
4811.000000	64.675855 
4810.000000	64.697360 
4809.000000	64.736318 
4808.000000	64.786338 
4807.000000	64.839529 
4806.000000	64.888358 
4805.000000	64.926981 
4804.000000	64.952111 
4803.000000	64.963483 
4802.000000	64.962697 
4801.000000	64.952850 
4800.000000	64.936947 
4799.000000	64.917588 
4798.000000	64.896416 
4797.000000	64.874553 
4796.000000	64.852881 
4795.000000	64.832186 
4794.000000	64.813446 
4793.000000	64.797949 
4792.000000	64.787316 
4791.000000	64.782810 
4790.000000	64.785361 
4789.000000	64.795446 
4788.000000	64.812994 
4787.000000	64.837098 
4786.000000	64.866423 
4785.000000	64.898777 
4784.000000	64.932155 
4783.000000	64.964485 
4782.000000	64.994668 
4781.000000	65.021991 
4780.000000	65.047097 
4779.000000	65.071606 
4778.000000	65.097737 
4777.000000	65.128016 
4776.000000	65.163993 
4775.000000	65.206122 
4774.000000	65.252327 
4773.000000	65.298533 
4772.000000	65.338516 
4771.000000	65.365624 
4770.000000	65.373921 
4769.000000	65.360116 
4768.000000	65.324831 
4767.000000	65.272998 
4766.000000	65.213847 
4765.000000	65.158820 
4764.000000	65.119624 
4763.000000	65.105056 
4762.000000	65.119385 
4761.000000	65.160584 
4760.000000	65.220642 
4759.000000	65.287017 
4758.000000	65.345358 
4757.000000	65.382814 
4756.000000	65.390896 
4755.000000	65.367460 
4754.000000	65.316653 
4753.000000	65.248131 
4752.000000	65.174198 
4751.000000	65.107226 
4750.000000	65.056872 
4749.000000	65.027785 
4748.000000	65.019750 
4747.000000	65.027713 
4746.000000	65.044236 
4745.000000	65.061187 
4744.000000	65.072321 
4743.000000	65.074300 
4742.000000	65.066862 
4741.000000	65.052890 
4740.000000	65.037035 
4739.000000	65.024232 
4738.000000	65.018463 
4737.000000	65.022230 
4736.000000	65.036010 
4735.000000	65.058660 
4734.000000	65.087747 
4733.000000	65.120124 
4732.000000	65.152382 
4731.000000	65.181398 
4730.000000	65.205121 
4729.000000	65.222573 
4728.000000	65.234541 
4727.000000	65.242862 
4726.000000	65.250492 
4725.000000	65.261054 
4724.000000	65.277361 
4723.000000	65.301370 
4722.000000	65.332365 
4721.000000	65.367150 
4720.000000	65.400385 
4719.000000	65.426158 
4718.000000	65.438938 
4717.000000	65.434932 
4716.000000	65.413355 
4715.000000	65.377044 
4714.000000	65.331482 
4713.000000	65.283751 
4712.000000	65.240621 
4711.000000	65.206980 
4710.000000	65.184950 
4709.000000	65.173578 
4708.000000	65.169644 
4707.000000	65.168786 
4706.000000	65.167117 
4705.000000	65.162467 
4704.000000	65.154194 
4703.000000	65.143847 
4702.000000	65.133810 
4701.000000	65.127205 
4700.000000	65.125823 
4699.000000	65.131163 
4698.000000	65.143632 
4697.000000	65.163564 
4696.000000	65.191388 
4695.000000	65.227699 
4694.000000	65.273427 
4693.000000	65.328764 
4692.000000	65.392494 
4691.000000	65.461564 
4690.000000	65.530991 
4689.000000	65.594601 
4688.000000	65.646052 
4687.000000	65.680670 
4686.000000	65.696287 
4685.000000	65.694165 
4684.000000	65.678572 
4683.000000	65.654802 
4682.000000	65.627694 
4681.000000	65.600442 
4680.000000	65.573954 
4679.000000	65.547156 
4678.000000	65.518236 
4677.000000	65.485930 
4676.000000	65.450811 
4675.000000	65.416526 
4674.000000	65.388727 
4673.000000	65.373706 
4672.000000	65.376424 
4671.000000	65.398645 
4670.000000	65.438008 
4669.000000	65.487790 
4668.000000	65.538454 
4667.000000	65.579724 
4666.000000	65.602946 
4665.000000	65.603208 
4664.000000	65.580534 
4663.000000	65.539574 
4662.000000	65.488886 
4661.000000	65.438675 
4660.000000	65.400099 
4659.000000	65.382599 
4658.000000	65.392923 
4657.000000	65.433168 
4656.000000	65.500473 
4655.000000	65.586447 
4654.000000	65.678501 
4653.000000	65.761470 
4652.000000	65.820097 
4651.000000	65.842318 
4650.000000	65.821075 
4649.000000	65.756821 
4648.000000	65.657281 
4647.000000	65.536642 
4646.000000	65.412616 
4645.000000	65.302896 
4644.000000	65.222072 
4643.000000	65.178680 
4642.000000	65.174102 
4641.000000	65.202999 
4640.000000	65.255689 
4639.000000	65.320396 
4638.000000	65.386056 
4637.000000	65.444588 
4636.000000	65.491771 
4635.000000	65.527009 
4634.000000	65.551686 
4633.000000	65.569329 
4632.000000	65.583729 
4631.000000	65.598273 
4630.000000	65.614748 
4629.000000	65.633559 
4628.000000	65.653300 
4627.000000	65.671682 
4626.000000	65.685510 
4625.000000	65.691375 
4624.000000	65.685892 
4623.000000	65.666794 
4622.000000	65.633153 
4621.000000	65.586113 
4620.000000	65.528607 
4619.000000	65.465021 
4618.000000	65.400576 
4617.000000	65.340614 
4616.000000	65.289449 
4615.000000	65.249896 
4614.000000	65.222620 
4613.000000	65.206217 
4612.000000	65.197277 
4611.000000	65.191793 
4610.000000	65.184688 
4609.000000	65.170884 
4608.000000	65.145802 
4607.000000	65.106201 
4606.000000	65.050864 
4605.000000	64.980983 
4604.000000	64.900374 
4603.000000	64.815402 
4602.000000	64.734435 
4601.000000	64.666581 
4600.000000	64.620089 
4599.000000	64.600729 
4598.000000	64.610624 
4597.000000	64.647579 
4596.000000	64.704990 
4595.000000	64.773225 
4594.000000	64.841341 
4593.000000	64.899063 
4592.000000	64.938354 
4591.000000	64.954996 
4590.000000	64.948105 
4589.000000	64.920711 
4588.000000	64.878010 
4587.000000	64.827156 
4586.000000	64.775300 
4585.000000	64.729881 
4584.000000	64.697432 
4583.000000	64.683771 
4582.000000	64.693164 
4581.000000	64.728164 
4580.000000	64.788889 
4579.000000	64.872074 
4578.000000	64.971160 
4577.000000	65.076327 
4576.000000	65.175867 
4575.000000	65.258026 
4574.000000	65.313172 
4573.000000	65.336132 
4572.000000	65.326833 
4571.000000	65.290141 
4570.000000	65.234518 
4569.000000	65.170764 
4568.000000	65.109252 
4567.000000	65.058517 
4566.000000	65.023040 
4565.000000	65.003800 
4564.000000	64.997482 
4563.000000	64.999008 
4562.000000	65.001916 
4561.000000	65.000557 
4560.000000	64.990997 
4559.000000	64.971470 
4558.000000	64.942836 
4557.000000	64.908123 
4556.000000	64.871335 
4555.000000	64.835882 
4554.000000	64.804220 
4553.000000	64.777183 
4552.000000	64.754319 
4551.000000	64.734387 
4550.000000	64.715957 
4549.000000	64.698457 
4548.000000	64.683175 
4547.000000	64.673328 
4546.000000	64.672827 
4545.000000	64.684653 
4544.000000	64.710235 
4543.000000	64.747381 
4542.000000	64.789724 
4541.000000	64.827466 
4540.000000	64.848804 
4539.000000	64.843821 
4538.000000	64.805984 
4537.000000	64.736843 
4536.000000	64.645361 
4535.000000	64.548802 
4534.000000	64.468669 
4533.000000	64.426684 
4532.000000	64.439415 
4531.000000	64.513683 
4530.000000	64.644789 
4529.000000	64.815807 
4528.000000	65.001487 
4527.000000	65.172767 
4526.000000	65.303087 
4525.000000	65.373134 
4524.000000	65.374445 
4523.000000	65.310335 
4522.000000	65.194129 
4521.000000	65.045309 
4520.000000	64.884948 
4519.000000	64.732050 
4518.000000	64.600181 
4517.000000	64.497303 
4516.000000	64.425086 
4515.000000	64.381456 
4514.000000	64.361596 
4513.000000	64.360284 
4512.000000	64.372849 
4511.000000	64.393711 
4510.000000	64.418673 
4509.000000	64.443850 
4508.000000	64.466834 
4507.000000	64.485049 
4506.000000	64.497303 
4505.000000	64.503216 
4504.000000	64.503479 
4503.000000	64.499592 
4502.000000	64.493489 
4501.000000	64.486861 
4500.000000	64.481067 
4499.000000	64.477038 
4498.000000	64.475226 
4497.000000	64.475846 
4496.000000	64.479184 
4495.000000	64.485597 
4494.000000	64.496421 
4493.000000	64.512848 
4492.000000	64.535784 
4491.000000	64.563918 
4490.000000	64.593458 
4489.000000	64.617037 
4488.000000	64.625930 
4487.000000	64.610457 
4486.000000	64.561939 
4485.000000	64.475393 
4484.000000	64.351868 
4483.000000	64.199090 
4482.000000	64.030671 
4481.000000	63.864564 
4480.000000	63.719272 
4479.000000	63.611245 
4478.000000	63.551378 
4477.000000	63.543343 
4476.000000	63.582682 
4475.000000	63.658595 
4474.000000	63.756132 
4473.000000	63.859677 
4472.000000	63.955688 
4471.000000	64.035272 
4470.000000	64.094829 
4469.000000	64.135599 
4468.000000	64.161872 
4467.000000	64.178609 
4466.000000	64.189577 
4465.000000	64.196300 
4464.000000	64.197850 
4463.000000	64.192843 
4462.000000	64.180183 
4461.000000	64.161014 
4460.000000	64.138340 
4459.000000	64.116811 
4458.000000	64.100980 
4457.000000	64.094018 
4456.000000	64.096689 
4455.000000	64.106726 
4454.000000	64.119744 
4453.000000	64.130282 
4452.000000	64.133644 
4451.000000	64.126610 
4450.000000	64.109492 
4449.000000	64.086127 
4448.000000	64.062738 
4447.000000	64.045977 
4446.000000	64.041781 
4445.000000	64.053511 
4444.000000	64.081883 
4443.000000	64.124631 
4442.000000	64.176368 
4441.000000	64.229273 
4440.000000	64.274072 
4439.000000	64.302134 
4438.000000	64.305400 
4437.000000	64.279651 
4436.000000	64.226937 
4435.000000	64.155077 
4434.000000	64.077568 
4433.000000	64.008545 
4432.000000	63.958930 
4431.000000	63.933682 
4430.000000	63.928651 
4429.000000	63.934803 
4428.000000	63.941907 
4427.000000	63.942694 
4426.000000	63.936877 
4425.000000	63.929557 
4424.000000	63.929796 
4423.000000	63.945674 
4422.000000	63.978576 
4421.000000	64.025330 
4420.000000	64.078474 
4419.000000	64.127683 
4418.000000	64.164757 
4417.000000	64.176607 
4416.000000	64.146542 
4415.000000	64.071106 
4414.000000	63.961577 
4413.000000	63.824176 
4412.000000	63.662075 
4411.000000	63.492178 
4410.000000	63.336229 
4409.000000	63.211441 
4408.000000	63.127255 
4407.000000	63.079833 
4406.000000	63.057541 
4405.000000	63.041329 
4404.000000	63.015198 
4403.000000	62.982606 
4402.000000	62.952375 
4401.000000	62.941145 
4400.000000	62.955045 
4399.000000	62.967061 
4398.000000	62.942719 
4397.000000	62.860178 
4396.000000	62.702465 
4395.000000	62.470912 
4394.000000	62.171673 
4393.000000	61.804294 
4392.000000	61.405539 
4391.000000	61.030101 
4390.000000	60.886812 
4389.000000	61.296463 
4388.000000	62.660694 
4387.000000	65.330028 
4386.000000	69.393444 
4385.000000	74.620127 
4384.000000	80.386972 
4383.000000	85.863137 
4382.000000	90.284228 
4381.000000	93.120861 
4380.000000	94.337487 
4379.000000	94.249582 
4378.000000	93.396568 
4377.000000	92.311382 
4376.000000	91.282176 
4375.000000	90.331888 
4374.000000	89.279103 
4373.000000	87.818741 
4372.000000	85.803580 
4371.000000	83.190679 
4370.000000	80.149674 
4369.000000	76.955151 
4368.000000	73.896718 
4367.000000	71.233534 
4366.000000	69.112873 
4365.000000	67.577147 
4364.000000	66.567182 
4363.000000	65.958213 
4362.000000	65.606307 
4361.000000	65.377378 
4360.000000	65.179133 
4359.000000	64.972233 
4358.000000	64.769649 
4357.000000	64.589333 
4356.000000	64.451098 
4355.000000	64.357733 
4354.000000	64.300704 
4353.000000	64.255571 
4352.000000	64.198064 
4351.000000	64.132690 
4350.000000	64.077401 
4349.000000	64.043068 
4348.000000	64.041256 
4347.000000	64.075088 
4346.000000	64.142227 
4345.000000	64.238762 
4344.000000	64.355540 
4343.000000	64.474987 
4342.000000	64.582324 
4341.000000	64.672780 
4340.000000	64.743947 
4339.000000	64.792156 
4338.000000	64.819264 
4337.000000	64.833784 
4336.000000	64.838242 
4335.000000	64.827084 
4334.000000	64.801549 
4333.000000	64.769458 
4332.000000	64.738345 
4331.000000	64.714455 
4330.000000	64.703154 
4329.000000	64.706420 
4328.000000	64.721035 
4327.000000	64.739394 
4326.000000	64.752435 
4325.000000	64.751458 
4324.000000	64.730095 
4323.000000	64.686703 
4322.000000	64.625382 
4321.000000	64.554595 
4320.000000	64.485335 
4319.000000	64.428019 
4318.000000	64.389538 
4317.000000	64.371871 
4316.000000	64.371538 
4315.000000	64.381861 
4314.000000	64.394903 
4313.000000	64.404845 
4312.000000	64.409828 
4311.000000	64.411997 
4310.000000	64.416337 
4309.000000	64.428234 
4308.000000	64.451026 
4307.000000	64.483666 
4306.000000	64.520549 
4305.000000	64.553403 
4304.000000	64.573717 
4303.000000	64.575958 
4302.000000	64.559292 
4301.000000	64.527869 
4300.000000	64.489603 
4299.000000	64.453697 
4298.000000	64.427947 
4297.000000	64.416551 
4296.000000	64.418959 
4295.000000	64.430594 
4294.000000	64.444303 
4293.000000	64.452767 
4292.000000	64.450883 
4291.000000	64.437413 
4290.000000	64.415884 
4289.000000	64.393019 
4288.000000	64.377593 
4287.000000	64.377570 
4286.000000	64.397740 
4285.000000	64.437890 
4284.000000	64.493012 
4283.000000	64.554405 
4282.000000	64.611721 
4281.000000	64.655447 
4280.000000	64.679074 
4279.000000	64.680409 
4278.000000	64.661693 
4277.000000	64.628863 
4276.000000	64.589428 
4275.000000	64.550495 
4274.000000	64.517068 
4273.000000	64.491200 
4272.000000	64.471817 
4271.000000	64.455914 
4270.000000	64.440298 
4269.000000	64.422917 
4268.000000	64.403724 
4267.000000	64.385032 
4266.000000	64.369988 
4265.000000	64.362692 
4264.000000	64.365911 
4263.000000	64.381384 
4262.000000	64.408707 
4261.000000	64.446139 
4260.000000	64.490914 
4259.000000	64.539742 
4258.000000	64.589333 
4257.000000	64.636301 
4256.000000	64.677691 
4255.000000	64.710521 
4254.000000	64.732146 
4253.000000	64.740467 
4252.000000	64.734148 
4251.000000	64.713358 
4250.000000	64.679837 
4249.000000	64.636850 
4248.000000	64.588713 
4247.000000	64.540076 
4246.000000	64.495110 
4245.000000	64.456915 
4244.000000	64.427423 
4243.000000	64.407062 
4242.000000	64.395713 
4241.000000	64.392948 
4240.000000	64.398741 
4239.000000	64.413309 
4238.000000	64.437317 
4237.000000	64.470863 
4236.000000	64.513516 
4235.000000	64.563488 
4234.000000	64.617872 
4233.000000	64.672732 
4232.000000	64.723515 
4231.000000	64.765977 
4230.000000	64.796638 
4229.000000	64.813232 
4228.000000	64.815449 
4227.000000	64.804935 
4226.000000	64.784693 
4225.000000	64.758563 
4224.000000	64.730834 
4223.000000	64.705634 
4222.000000	64.686775 
4221.000000	64.676904 
4220.000000	64.677476 
4219.000000	64.688324 
4218.000000	64.708232 
4217.000000	64.734673 
4216.000000	64.763784 
4215.000000	64.791631 
4214.000000	64.814329 
4213.000000	64.829635 
4212.000000	64.836835 
4211.000000	64.837503 
4210.000000	64.834618 
4209.000000	64.832186 
4208.000000	64.834880 
4207.000000	64.845585 
4206.000000	64.865326 
4205.000000	64.891171 
4204.000000	64.916825 
4203.000000	64.933943 
4202.000000	64.934206 
4201.000000	64.911794 
4200.000000	64.865422 
4199.000000	64.799189 
4198.000000	64.722204 
4197.000000	64.646434 
4196.000000	64.584493 
4195.000000	64.546251 
4194.000000	64.537644 
4193.000000	64.560103 
4192.000000	64.610815 
4191.000000	64.684462 
4190.000000	64.773249 
4189.000000	64.869070 
4188.000000	64.962863 
4187.000000	65.045475 
4186.000000	65.107631 
4185.000000	65.139961 
4184.000000	65.135550 
4183.000000	65.090298 
4182.000000	65.006756 
4181.000000	64.894366 
4180.000000	64.769887 
4179.000000	64.655184 
4178.000000	64.572525 
4177.000000	64.539790 
4176.000000	64.566063 
4175.000000	64.649581 
4174.000000	64.777374 
4173.000000	64.928197 
4172.000000	65.077280 
4171.000000	65.201640 
4170.000000	65.284180 
4169.000000	65.316843 
4168.000000	65.300536 
4167.000000	65.244054 
4166.000000	65.160822 
4165.000000	65.065860 
4164.000000	64.972996 
4163.000000	64.892292 
4162.000000	64.830231 
4161.000000	64.788722 
4160.000000	64.767527 
4159.000000	64.764142 
4158.000000	64.775419 
4157.000000	64.798021 
4156.000000	64.827632 
4155.000000	64.861488 
4154.000000	64.897370 
4153.000000	64.935183 
4152.000000	64.975500 
4151.000000	65.020203 
4150.000000	65.071129 
4149.000000	65.129280 
4148.000000	65.193986 
4147.000000	65.262389 
4146.000000	65.329575 
4145.000000	65.389537 
4144.000000	65.436053 
4143.000000	65.463709 
4142.000000	65.469050 
4141.000000	65.451121 
4140.000000	65.412068 
4139.000000	65.357255 
4138.000000	65.294241 
4137.000000	65.231871 
4136.000000	65.178370 
4135.000000	65.140128 
4134.000000	65.120410 
4133.000000	65.119886 
4132.000000	65.136027 
4131.000000	65.163898 
4130.000000	65.197491 
4129.000000	65.230727 
4128.000000	65.258431 
4127.000000	65.276956 
4126.000000	65.284371 
4125.000000	65.280103 
4124.000000	65.265107 
4123.000000	65.241193 
4122.000000	65.210652 
4121.000000	65.175843 
4120.000000	65.139079 
4119.000000	65.102601 
4118.000000	65.068221 
4117.000000	65.037608 
4116.000000	65.012097 
4115.000000	64.993190 
4114.000000	64.981985 
4113.000000	64.979577 
4112.000000	64.987111 
4111.000000	65.005588 
4110.000000	65.035462 
4109.000000	65.076136 
4108.000000	65.125322 
4107.000000	65.179491 
4106.000000	65.233540 
4105.000000	65.282201 
4104.000000	65.320491 
4103.000000	65.345001 
4102.000000	65.354704 
4101.000000	65.350890 
4100.000000	65.336799 
4099.000000	65.316605 
4098.000000	65.294528 
4097.000000	65.273904 
4096.000000	65.256762 
4095.000000	65.243697 
4094.000000	65.234494 
4093.000000	65.228509 
4092.000000	65.225338 
4091.000000	65.225124 
4090.000000	65.228557 
4089.000000	65.236330 
4088.000000	65.248727 
4087.000000	65.265226 
4086.000000	65.284299 
4085.000000	65.303778 
4084.000000	65.321040 
4083.000000	65.333938 
4082.000000	65.340662 
4081.000000	65.340352 
4080.000000	65.332698 
4079.000000	65.317797 
4078.000000	65.296030 
4077.000000	65.268063 
4076.000000	65.235114 
4075.000000	65.198683 
4074.000000	65.161156 
4073.000000	65.125870 
4072.000000	65.096545 
4071.000000	65.076899 
4070.000000	65.069699 
4069.000000	65.076041 
4068.000000	65.094923 
4067.000000	65.123224 
4066.000000	65.156388 
4065.000000	65.189099 
4064.000000	65.216493 
4063.000000	65.235018 
4062.000000	65.242815 
4061.000000	65.239882 
4060.000000	65.227627 
4059.000000	65.208315 
4058.000000	65.184402 
4057.000000	65.157866 
4056.000000	65.130496 
4055.000000	65.103459 
4054.000000	65.077662 
4053.000000	65.053892 
4052.000000	65.033292 
4051.000000	65.017318 
4050.000000	65.007376 
4049.000000	65.005111 
4048.000000	65.011620 
4047.000000	65.027737 
4046.000000	65.053248 
4045.000000	65.087032 
4044.000000	65.127348 
4043.000000	65.171337 
4042.000000	65.215349 
4041.000000	65.255403 
4040.000000	65.287494 
4039.000000	65.308380 
4038.000000	65.316247 
4037.000000	65.310978 
4036.000000	65.294241 
4035.000000	65.269756 
4034.000000	65.242481 
4033.000000	65.217685 
4032.000000	65.199971 
4031.000000	65.192484 
4030.000000	65.196561 
4029.000000	65.211224 
4028.000000	65.234041 
4027.000000	65.261650 
4026.000000	65.291070 
4025.000000	65.320086 
4024.000000	65.348148 
4023.000000	65.375852 
4022.000000	65.404939 
4021.000000	65.437436 
4020.000000	65.474677 
4019.000000	65.516829 
4018.000000	65.562081 
4017.000000	65.607357 
4016.000000	65.647959 
4015.000000	65.679001 
4014.000000	65.695643 
4013.000000	65.694499 
4012.000000	65.673756 
4011.000000	65.633988 
4010.000000	65.577769 
4009.000000	65.509533 
4008.000000	65.435099 
4007.000000	65.360832 
4006.000000	65.292716 
4005.000000	65.235257 
4004.000000	65.191268 
4003.000000	65.161466 
4002.000000	65.144538 
4001.000000	65.137910 
4000.000000	65.138411 
3999.000000	65.143823 
3998.000000	65.152573 
3997.000000	65.164613 
3996.000000	65.180730 
3995.000000	65.202045 
3994.000000	65.228939 
3993.000000	65.260505 
3992.000000	65.294194 
3991.000000	65.326166 
3990.000000	65.352177 
3989.000000	65.368533 
3988.000000	65.373301 
3987.000000	65.366530 
3986.000000	65.350723 
3985.000000	65.329480 
3984.000000	65.306758 
3983.000000	65.285491 
3982.000000	65.266680 
3981.000000	65.249228 
3980.000000	65.230345 
3979.000000	65.206885 
3978.000000	65.176510 
3977.000000	65.138435 
3976.000000	65.094161 
3975.000000	65.047407 
3974.000000	65.003514 
3973.000000	64.967656 
3972.000000	64.944505 
3971.000000	64.936470 
3970.000000	64.944243 
3969.000000	64.966368 
3968.000000	65.000414 
3967.000000	65.043187 
3966.000000	65.091753 
3965.000000	65.143609 
3964.000000	65.196824 
3963.000000	65.249490 
3962.000000	65.299582 
3961.000000	65.344429 
3960.000000	65.381002 
3959.000000	65.406441 
3958.000000	65.418624 
3957.000000	65.416765 
3956.000000	65.402078 
3955.000000	65.377616 
3954.000000	65.347790 
3953.000000	65.317344 
3952.000000	65.290760 
3951.000000	65.271091 
3950.000000	65.259456 
3949.000000	65.254569 
3948.000000	65.254068 
3947.000000	65.254306 
3946.000000	65.251684 
3945.000000	65.243148 
3944.000000	65.226554 
3943.000000	65.201616 
3942.000000	65.169358 
3941.000000	65.132451 
3940.000000	65.094137 
3939.000000	65.058469 
3938.000000	65.029335 
3937.000000	65.010213 
3936.000000	65.003132 
3935.000000	65.008807 
3934.000000	65.026354 
3933.000000	65.053224 
3932.000000	65.085363 
3931.000000	65.118193 
3930.000000	65.147542 
3929.000000	65.170097 
3928.000000	65.184307 
3927.000000	65.190815 
3926.000000	65.192270 
3925.000000	65.192723 
3924.000000	65.196585 
3923.000000	65.207529 
3922.000000	65.227270 
3921.000000	65.255761 
3920.000000	65.289998 
3919.000000	65.325045 
3918.000000	65.354394 
3917.000000	65.372109 
3916.000000	65.373492 
3915.000000	65.356421 
3914.000000	65.321516 
3913.000000	65.272212 
3912.000000	65.213918 
3911.000000	65.152978 
3910.000000	65.095448 
3909.000000	65.046191 
3908.000000	65.008163 
3907.000000	64.982342 
3906.000000	64.967918 
3905.000000	64.963006 
3904.000000	64.964842 
3903.000000	64.970397 
3902.000000	64.976716 
3901.000000	64.981436 
3900.000000	64.982604 
3899.000000	64.979338 
3898.000000	64.971804 
3897.000000	64.961600 
3896.000000	64.951467 
3895.000000	64.945077 
3894.000000	64.946413 
3893.000000	64.958405 
3892.000000	64.982390 
3891.000000	65.016984 
3890.000000	65.058183 
3889.000000	65.099573 
3888.000000	65.134358 
3887.000000	65.156388 
3886.000000	65.161466 
3885.000000	65.148568 
3884.000000	65.120005 
3883.000000	65.080857 
3882.000000	65.037894 
3881.000000	64.998102 
3880.000000	64.967203 
3879.000000	64.949107 
3878.000000	64.945530 
3877.000000	64.956283 
3876.000000	64.979815 
3875.000000	65.014171 
3874.000000	65.057659 
3873.000000	65.108990 
3872.000000	65.167069 
3871.000000	65.230560 
3870.000000	65.296983 
3869.000000	65.362644 
3868.000000	65.422153 
3867.000000	65.469455 
3866.000000	65.498065 
3865.000000	65.502524 
3864.000000	65.479469 
3863.000000	65.429067 
3862.000000	65.355014 
3861.000000	65.264654 
3860.000000	65.167641 
3859.000000	65.074825 
3858.000000	64.996170 
3857.000000	64.939403 
3856.000000	64.908337 
3855.000000	64.902377 
3854.000000	64.917278 
3853.000000	64.946389 
3852.000000	64.982128 
3851.000000	65.017628 
3850.000000	65.048122 
3849.000000	65.071296 
3848.000000	65.087366 
3847.000000	65.098214 
3846.000000	65.106415 
3845.000000	65.114450 
3844.000000	65.123391 
3843.000000	65.133213 
3842.000000	65.143227 
3841.000000	65.152692 
3840.000000	65.161633 
3839.000000	65.171003 
3838.000000	65.183186 
3837.000000	65.200757 
3836.000000	65.226006 
3835.000000	65.259146 
3834.000000	65.298271 
3833.000000	65.338587 
3832.000000	65.373587 
3831.000000	65.396022 
3830.000000	65.399503 
3829.000000	65.380573 
3828.000000	65.340018 
3827.000000	65.282917 
3826.000000	65.217924 
3825.000000	65.155482 
3824.000000	65.105652 
3823.000000	65.075373 
3822.000000	65.067100 
3821.000000	65.077924 
3820.000000	65.100669 
3819.000000	65.126013 
3818.000000	65.145039 
3817.000000	65.151143 
3816.000000	65.141987 
3815.000000	65.119314 
3814.000000	65.088582 
3813.000000	65.056467 
3812.000000	65.029931 
3811.000000	65.013718 
3810.000000	65.009880 
3809.000000	65.017771 
3808.000000	65.034413 
3807.000000	65.056133 
3806.000000	65.078926 
3805.000000	65.099835 
3804.000000	65.116596 
3803.000000	65.127635 
3802.000000	65.131664 
3801.000000	65.127301 
3800.000000	65.113472 
3799.000000	65.089726 
3798.000000	65.056824 
3797.000000	65.017127 
3796.000000	64.974308 
3795.000000	64.933133 
3794.000000	64.898586 
3793.000000	64.875245 
3792.000000	64.866042 
3791.000000	64.872002 
3790.000000	64.892077 
3789.000000	64.923644 
3788.000000	64.962768 
3787.000000	65.005183 
3786.000000	65.046381 
3785.000000	65.082883 
3784.000000	65.111970 
3783.000000	65.132498 
3782.000000	65.144228 
3781.000000	65.148305 
3780.000000	65.146613 
3779.000000	65.141582 
3778.000000	65.136194 
3777.000000	65.132689 
3776.000000	65.132951 
3775.000000	65.137505 
3774.000000	65.145826 
3773.000000	65.156698 
3772.000000	65.168738 
3771.000000	65.180802 
3770.000000	65.192246 
3769.000000	65.203142 
3768.000000	65.214085 
3767.000000	65.225887 
3766.000000	65.239000 
3765.000000	65.253496 
3764.000000	65.268802 
3763.000000	65.284013 
3762.000000	65.297985 
3761.000000	65.309619 
3760.000000	65.317749 
3759.000000	65.321946 
3758.000000	65.322113 
3757.000000	65.318608 
3756.000000	65.312051 
3755.000000	65.303158 
3754.000000	65.292644 
3753.000000	65.281367 
3752.000000	65.269875 
3751.000000	65.258932 
3750.000000	65.248847 
3749.000000	65.239691 
3748.000000	65.230989 
3747.000000	65.222048 
3746.000000	65.211629 
3745.000000	65.198278 
3744.000000	65.180635 
3743.000000	65.157890 
3742.000000	65.129780 
3741.000000	65.096926 
3740.000000	65.060782 
3739.000000	65.023589 
3738.000000	64.988279 
3737.000000	64.958071 
3736.000000	64.936017 
3735.000000	64.924430 
3734.000000	64.924502 
3733.000000	64.936256 
3732.000000	64.957928 
3731.000000	64.986705 
3730.000000	65.019106 
3729.000000	65.051841 
3728.000000	65.081715 
3727.000000	65.106630 
3726.000000	65.125179 
3725.000000	65.137243 
3724.000000	65.143465 
3723.000000	65.145564 
3722.000000	65.145564 
3721.000000	65.145874 
3720.000000	65.149021 
3719.000000	65.157008 
3718.000000	65.171074 
3717.000000	65.191459 
3716.000000	65.217494 
3715.000000	65.247488 
3714.000000	65.278673 
3713.000000	65.308165 
3712.000000	65.333127 
3711.000000	65.351247 
3710.000000	65.360641 
3709.000000	65.360307 
3708.000000	65.349769 
3707.000000	65.328717 
3706.000000	65.296888 
3705.000000	65.254449 
3704.000000	65.202307 
3703.000000	65.142583 
3702.000000	65.078973 
3701.000000	65.016484 
3700.000000	64.961099 
3699.000000	64.918470 
3698.000000	64.893150 
3697.000000	64.886832 
3696.000000	64.898777 
3695.000000	64.925289 
3694.000000	64.961266 
3693.000000	65.000677 
3692.000000	65.038585 
3691.000000	65.071702 
3690.000000	65.099167 
3689.000000	65.122175 
3688.000000	65.143179 
3687.000000	65.164661 
3686.000000	65.188050 
3685.000000	65.213155 
3684.000000	65.238308 
3683.000000	65.260672 
3682.000000	65.277338 
3681.000000	65.286064 
3680.000000	65.286207 
3679.000000	65.278697 
3678.000000	65.265989 
3677.000000	65.251374 
3676.000000	65.237879 
3675.000000	65.227842 
3674.000000	65.222597 
3673.000000	65.222120 
3672.000000	65.225195 
3671.000000	65.230154 
3670.000000	65.235567 
3669.000000	65.241146 
3668.000000	65.247344 
3667.000000	65.255928 
3666.000000	65.268969 
3665.000000	65.288519 
3664.000000	65.315937 
3663.000000	65.350937 
3662.000000	65.391421 
3661.000000	65.433955 
3660.000000	65.474152 
3659.000000	65.507388 
3658.000000	65.529656 
3657.000000	65.538167 
3656.000000	65.531945 
3655.000000	65.512013 
3654.000000	65.481185 
3653.000000	65.443730 
3652.000000	65.404748 
3651.000000	65.369606 
3650.000000	65.342855 
3649.000000	65.328121 
3648.000000	65.326976 
3647.000000	65.339446 
3646.000000	65.363192 
3645.000000	65.394306 
3644.000000	65.427708 
3643.000000	65.457892 
3642.000000	65.479969 
3641.000000	65.490317 
3640.000000	65.487170 
3639.000000	65.470528 
3638.000000	65.442228 
3637.000000	65.405440 
3636.000000	65.364003 
3635.000000	65.321660 
3634.000000	65.282011 
3633.000000	65.248227 
3632.000000	65.222811 
3631.000000	65.207433 
3630.000000	65.203189 
3629.000000	65.210390 
3628.000000	65.228199 
3627.000000	65.254974 
3626.000000	65.288186 
3625.000000	65.325069 
3624.000000	65.362501 
3623.000000	65.397667 
3622.000000	65.428280 
3621.000000	65.452718 
3620.000000	65.470600 
3619.000000	65.481686 
3618.000000	65.486311 
3617.000000	65.484404 
3616.000000	65.476226 
3615.000000	65.461421 
3614.000000	65.439844 
3613.000000	65.411233 
3612.000000	65.376281 
3611.000000	65.335965 
3610.000000	65.291929 
3609.000000	65.246248 
3608.000000	65.201330 
3607.000000	65.159416 
3606.000000	65.122246 
3605.000000	65.091109 
3604.000000	65.066885 
3603.000000	65.049600 
3602.000000	65.038895 
3601.000000	65.033960 
3600.000000	65.034031 
3599.000000	65.038228 
3598.000000	65.046000 
3597.000000	65.056681 
3596.000000	65.069746 
3595.000000	65.084695 
3594.000000	65.101170 
3593.000000	65.118193 
3592.000000	65.135025 
3591.000000	65.150952 
3590.000000	65.165662 
3589.000000	65.178942 
3588.000000	65.191483 
3587.000000	65.204334 
3586.000000	65.219116 
3585.000000	65.237617 
3584.000000	65.261340 
3583.000000	65.291094 
3582.000000	65.326642 
3581.000000	65.366888 
3580.000000	65.409588 
3579.000000	65.451741 
3578.000000	65.490174 
3577.000000	65.521907 
3576.000000	65.544795 
3575.000000	65.557551 
3574.000000	65.560269 
3573.000000	65.553832 
3572.000000	65.540099 
3571.000000	65.520954 
3570.000000	65.498495 
3569.000000	65.474367 
3568.000000	65.449976 
3567.000000	65.426039 
3566.000000	65.403079 
3565.000000	65.381217 
3564.000000	65.360546 
3563.000000	65.341162 
3562.000000	65.323090 
3561.000000	65.306806 
3560.000000	65.293073 
3559.000000	65.282917 
3558.000000	65.277051 
3557.000000	65.275788 
3556.000000	65.278649 
3555.000000	65.283989 
3554.000000	65.289258 
3553.000000	65.291333 
3552.000000	65.287041 
3551.000000	65.274047 
3550.000000	65.251278 
3549.000000	65.219449 
3548.000000	65.180993 
3547.000000	65.139698 
3546.000000	65.099930 
3545.000000	65.066075 
3544.000000	65.041613 
3543.000000	65.028429 
3542.000000	65.026640 
3541.000000	65.034937 
3540.000000	65.051031 
3539.000000	65.072011 
3538.000000	65.095114 
3537.000000	65.117645 
3536.000000	65.137791 
3535.000000	65.154314 
3534.000000	65.167093 
3533.000000	65.176582 
3532.000000	65.183949 
3531.000000	65.190792 
3530.000000	65.198516 
3529.000000	65.208005 
3528.000000	65.219759 
3527.000000	65.233612 
3526.000000	65.249395 
3525.000000	65.266799 
3524.000000	65.285825 
3523.000000	65.306568 
3522.000000	65.328478 
3521.000000	65.350222 
3520.000000	65.369439 
3519.000000	65.382790 
3518.000000	65.386366 
3517.000000	65.376758 
3516.000000	65.352153 
3515.000000	65.313100 
3514.000000	65.262866 
3513.000000	65.207242 
3512.000000	65.153574 
3511.000000	65.109443 
3510.000000	65.080928 
3509.000000	65.071678 
3508.000000	65.081763 
3507.000000	65.108251 
3506.000000	65.145945 
3505.000000	65.188694 
3504.000000	65.230464 
3503.000000	65.266609 
3502.000000	65.294265 
3501.000000	65.312290 
3500.000000	65.320897 
3499.000000	65.321445 
3498.000000	65.315747 
3497.000000	65.305900 
3496.000000	65.293931 
3495.000000	65.281558 
3494.000000	65.270090 
3493.000000	65.260505 
3492.000000	65.253424 
3491.000000	65.249347 
3490.000000	65.248394 
3489.000000	65.250444 
3488.000000	65.254902 
3487.000000	65.260815 
3486.000000	65.267133 
3485.000000	65.272593 
3484.000000	65.276503 
3483.000000	65.278577 
3482.000000	65.279126 
3481.000000	65.278959 
3480.000000	65.279078 
3479.000000	65.280437 
3478.000000	65.283203 
3477.000000	65.286684 
3476.000000	65.289306 
3475.000000	65.289044 
3474.000000	65.284037 
3473.000000	65.273165 
3472.000000	65.257024 
3471.000000	65.237998 
3470.000000	65.220069 
3469.000000	65.207791 
3468.000000	65.204954 
3467.000000	65.213537 
3466.000000	65.232801 
3465.000000	65.259623 
3464.000000	65.289044 
3463.000000	65.315628 
3462.000000	65.334939 
3461.000000	65.344405 
3460.000000	65.344119 
3459.000000	65.335988 
3458.000000	65.323138 
3457.000000	65.308237 
3456.000000	65.292787 
3455.000000	65.276288 
3454.000000	65.256786 
3453.000000	65.231442 
3452.000000	65.197944 
3451.000000	65.155649 
3450.000000	65.106701 
3449.000000	65.055632 
3448.000000	65.008497 
3447.000000	64.971852 
3446.000000	64.951038 
3445.000000	64.949274 
3444.000000	64.966964 
3443.000000	65.001583 
3442.000000	65.048265 
3441.000000	65.100717 
3440.000000	65.152263 
3439.000000	65.196681 
3438.000000	65.228939 
3437.000000	65.245795 
3436.000000	65.245938 
3435.000000	65.229654 
3434.000000	65.199160 
3433.000000	65.158104 
3432.000000	65.111255 
3431.000000	65.064096 
3430.000000	65.022253 
3429.000000	64.990973 
3428.000000	64.974665 
3427.000000	64.976072 
3426.000000	64.996600 
3425.000000	65.035629 
3424.000000	65.091133 
3423.000000	65.159583 
3422.000000	65.236139 
3421.000000	65.314579 
3420.000000	65.388393 
3419.000000	65.451335 
3418.000000	65.498375 
3417.000000	65.526199 
3416.000000	65.534090 
3415.000000	65.523695 
3414.000000	65.498661 
3413.000000	65.463137 
3412.000000	65.421390 
3411.000000	65.376472 
3410.000000	65.330147 
3409.000000	65.282773 
3408.000000	65.233755 
3407.000000	65.182423 
3406.000000	65.128946 
3405.000000	65.074992 
3404.000000	65.023303 
3403.000000	64.977812 
3402.000000	64.942121 
3401.000000	64.919734 
3400.000000	64.912056 
3399.000000	64.919590 
3398.000000	64.941024 
3397.000000	64.974451 
3396.000000	65.017175 
3395.000000	65.066576 
3394.000000	65.119862 
3393.000000	65.174174 
3392.000000	65.226221 
3391.000000	65.272688 
3390.000000	65.310287 
3389.000000	65.336084 
3388.000000	65.348005 
3387.000000	65.345549 
3386.000000	65.329885 
3385.000000	65.303969 
3384.000000	65.271592 
3383.000000	65.237188 
3382.000000	65.204691 
3381.000000	65.177059 
3380.000000	65.155839 
3379.000000	65.141057 
3378.000000	65.131473 
3377.000000	65.125584 
3376.000000	65.121698 
3375.000000	65.118312 
3374.000000	65.114665 
3373.000000	65.110301 
3372.000000	65.105652 
3371.000000	65.101027 
3370.000000	65.097379 
3369.000000	65.095543 
3368.000000	65.096640 
3367.000000	65.101552 
3366.000000	65.111112 
3365.000000	65.125632 
3364.000000	65.144824 
3363.000000	65.167474 
3362.000000	65.191435 
3361.000000	65.213656 
3360.000000	65.230703 
3359.000000	65.239334 
3358.000000	65.236997 
3357.000000	65.222430 
3356.000000	65.196156 
3355.000000	65.160083 
3354.000000	65.117621 
3353.000000	65.072870 
3352.000000	65.029835 
3351.000000	64.991807 
3350.000000	64.961075 
3349.000000	64.938616 
3348.000000	64.924287 
3347.000000	64.917135 
3346.000000	64.915704 
3345.000000	64.918708 
3344.000000	64.924955 
3343.000000	64.933943 
3342.000000	64.945197 
3341.000000	64.958930 
3340.000000	64.975261 
3339.000000	64.994502 
3338.000000	65.016460 
3337.000000	65.040540 
3336.000000	65.065383 
3335.000000	65.089273 
3334.000000	65.110254 
3333.000000	65.126609 
3332.000000	65.137124 
3331.000000	65.141654 
3330.000000	65.141105 
3329.000000	65.137624 
3328.000000	65.133881 
3327.000000	65.132689 
3326.000000	65.136051 
3325.000000	65.144681 
3324.000000	65.157461 
3323.000000	65.172147 
3322.000000	65.185427 
3321.000000	65.194106 
3320.000000	65.195918 
3319.000000	65.190148 
3318.000000	65.177702 
3317.000000	65.160679 
3316.000000	65.141892 
3315.000000	65.124011 
3314.000000	65.109324 
3313.000000	65.099382 
3312.000000	65.095043 
3311.000000	65.096664 
3310.000000	65.104389 
3309.000000	65.118217 
3308.000000	65.137958 
3307.000000	65.163087 
3306.000000	65.192627 
3305.000000	65.225028 
3304.000000	65.257954 
3303.000000	65.288472 
3302.000000	65.313792 
3301.000000	65.331459 
3300.000000	65.340018 
3299.000000	65.338778 
3298.000000	65.328049 
3297.000000	65.308856 
3296.000000	65.282821 
3295.000000	65.252041 
3294.000000	65.218877 
3293.000000	65.185832 
3292.000000	65.155577 
3291.000000	65.130591 
3290.000000	65.112900 
3289.000000	65.103793 
3288.000000	65.103673 
3287.000000	65.111970 
3286.000000	65.127372 
3285.000000	65.148162 
3284.000000	65.172314 
3283.000000	65.197706 
3282.000000	65.222311 
3281.000000	65.244221 
3280.000000	65.261650 
3279.000000	65.273165 
3278.000000	65.277814 
3277.000000	65.275001 
3276.000000	65.265083 
3275.000000	65.249443 
3274.000000	65.230560 
3273.000000	65.211653 
3272.000000	65.195965 
3271.000000	65.186476 
3270.000000	65.185093 
3269.000000	65.192151 
3268.000000	65.206575 
3267.000000	65.225982 
3266.000000	65.247583 
3265.000000	65.268707 
3264.000000	65.287542 
3263.000000	65.303230 
3262.000000	65.316104 
3261.000000	65.327215 
3260.000000	65.337848 
3259.000000	65.349030 
3258.000000	65.360903 
3257.000000	65.372776 
3256.000000	65.383124 
3255.000000	65.390110 
3254.000000	65.391778 
3253.000000	65.386652 
3252.000000	65.374279 
3251.000000	65.355372 
3250.000000	65.331459 
3249.000000	65.304636 
3248.000000	65.277123 
3247.000000	65.251064 
3246.000000	65.228128 
3245.000000	65.209603 
3244.000000	65.196561 
3243.000000	65.189623 
3242.000000	65.189409 
3241.000000	65.196251 
3240.000000	65.209913 
3239.000000	65.229392 
3238.000000	65.252947 
3237.000000	65.277934 
3236.000000	65.301132 
3235.000000	65.319156 
3234.000000	65.329194 
3233.000000	65.328931 
3232.000000	65.317201 
3231.000000	65.293812 
3230.000000	65.259671 
3229.000000	65.215945 
3228.000000	65.164208 
3227.000000	65.106058 
3226.000000	65.043520 
3225.000000	64.978981 
3224.000000	64.915609 
3223.000000	64.857268 
3222.000000	64.808225 
3221.000000	64.772653 
3220.000000	64.753937 
3219.000000	64.753651 
3218.000000	64.771533 
3217.000000	64.804816 
3216.000000	64.849328 
3215.000000	64.899587 
3214.000000	64.950370 
3213.000000	64.996957 
3212.000000	65.036463 
3211.000000	65.067458 
3210.000000	65.090632 
3209.000000	65.108060 
3208.000000	65.122652 
3207.000000	65.137195 
3206.000000	65.154099 
3205.000000	65.174889 
3204.000000	65.200018 
3203.000000	65.229153 
3202.000000	65.261006 
3201.000000	65.293812 
3200.000000	65.325522 
3199.000000	65.354084 
3198.000000	65.377426 
3197.000000	65.393662 
3196.000000	65.401482 
3195.000000	65.400171 
3194.000000	65.389728 
3193.000000	65.370917 
3192.000000	65.345740 
3191.000000	65.317082 
3190.000000	65.288352 
3189.000000	65.262722 
3188.000000	65.243077 
3187.000000	65.230774 
3186.000000	65.225625 
3185.000000	65.225410 
3184.000000	65.226411 
3183.000000	65.224575 
3182.000000	65.216374 
3181.000000	65.199875 
3180.000000	65.175199 
3179.000000	65.144872 
3178.000000	65.113282 
3177.000000	65.085649 
3176.000000	65.066432 
3175.000000	65.058445 
3174.000000	65.062022 
3173.000000	65.074896 
3172.000000	65.093088 
3171.000000	65.112280 
3170.000000	65.129208 
3169.000000	65.142250 
3168.000000	65.151858 
3167.000000	65.160393 
3166.000000	65.171122 
3165.000000	65.186715 
3164.000000	65.208482 
3163.000000	65.235781 
3162.000000	65.266084 
3161.000000	65.295910 
3160.000000	65.321612 
3159.000000	65.340566 
3158.000000	65.351510 
3157.000000	65.354990 
3156.000000	65.352773 
3155.000000	65.347242 
3154.000000	65.340733 
3153.000000	65.334820 
3152.000000	65.330696 
3151.000000	65.329074 
3150.000000	65.330624 
3149.000000	65.336275 
3148.000000	65.346193 
3147.000000	65.359807 
3146.000000	65.375185 
3145.000000	65.389180 
3144.000000	65.397500 
3143.000000	65.395808 
3142.000000	65.380597 
3141.000000	65.350389 
3140.000000	65.306615 
3139.000000	65.253472 
3138.000000	65.197348 
3137.000000	65.145158 
3136.000000	65.103411 
3135.000000	65.075850 
3134.000000	65.063357 
3133.000000	65.063142 
3132.000000	65.069842 
3131.000000	65.076708 
3130.000000	65.077209 
3129.000000	65.066742 
3128.000000	65.043449 
3127.000000	65.009140 
3126.000000	64.968037 
3125.000000	64.927101 
3124.000000	64.893651 
3123.000000	64.874696 
3122.000000	64.874911 
3121.000000	64.895725 
3120.000000	64.934802 
3119.000000	64.986276 
3118.000000	65.041899 
3117.000000	65.092420 
3116.000000	65.129590 
3115.000000	65.147590 
3114.000000	65.144371 
3113.000000	65.122032 
3112.000000	65.086388 
3111.000000	65.045642 
3110.000000	65.008497 
3109.000000	64.982628 
3108.000000	64.972519 
3107.000000	64.979743 
3106.000000	65.002131 
3105.000000	65.034937 
3104.000000	65.072345 
3103.000000	65.108799 
3102.000000	65.140342 
3101.000000	65.164923 
3100.000000	65.182614 
3099.000000	65.194869 
3098.000000	65.204000 
3097.000000	65.212225 
3096.000000	65.221285 
3095.000000	65.231966 
3094.000000	65.244174 
3093.000000	65.257191 
3092.000000	65.270113 
3091.000000	65.281915 
3090.000000	65.291595 
3089.000000	65.298104 
3088.000000	65.300297 
3087.000000	65.297102 
3086.000000	65.287852 
3085.000000	65.272498 
3084.000000	65.251946 
3083.000000	65.227961 
3082.000000	65.203166 
3081.000000	65.180540 
3080.000000	65.163016 
3079.000000	65.152931 
3078.000000	65.151309 
3077.000000	65.157794 
3076.000000	65.170741 
3075.000000	65.187525 
3074.000000	65.205049 
3073.000000	65.220189 
3072.000000	65.230321 
3071.000000	65.233945 
3070.000000	65.230679 
3069.000000	65.221214 
3068.000000	65.206885 
3067.000000	65.189433 
3066.000000	65.170717 
3065.000000	65.152502 
3064.000000	65.136241 
3063.000000	65.122866 
3062.000000	65.113139 
3061.000000	65.107583 
3060.000000	65.106558 
3059.000000	65.110564 
3058.000000	65.119838 
3057.000000	65.134501 
3056.000000	65.153813 
3055.000000	65.176177 
3054.000000	65.199232 
3053.000000	65.219855 
3052.000000	65.235280 
3051.000000	65.243172 
3050.000000	65.242481 
3049.000000	65.233945 
3048.000000	65.219473 
3047.000000	65.201807 
3046.000000	65.183544 
3045.000000	65.166831 
3044.000000	65.152478 
3043.000000	65.140247 
3042.000000	65.129065 
3041.000000	65.117740 
3040.000000	65.105748 
3039.000000	65.093541 
3038.000000	65.082645 
3037.000000	65.075135 
3036.000000	65.072703 
3035.000000	65.075993 
3034.000000	65.084075 
3033.000000	65.094685 
3032.000000	65.104675 
3031.000000	65.111207 
3030.000000	65.112423 
3029.000000	65.108299 
3028.000000	65.100312 
3027.000000	65.091156 
3026.000000	65.083599 
3025.000000	65.079832 
3024.000000	65.080761 
3023.000000	65.085983 
3022.000000	65.093636 
3021.000000	65.101432 
3020.000000	65.107488 
3019.000000	65.110874 
3018.000000	65.111684 
3017.000000	65.110993 
3016.000000	65.110230 
3015.000000	65.110921 
3014.000000	65.113711 
3013.000000	65.118479 
3012.000000	65.124249 
3011.000000	65.129756 
3010.000000	65.133976 
3009.000000	65.136337 
3008.000000	65.136790 
3007.000000	65.135931 
3006.000000	65.134572 
3005.000000	65.133619 
3004.000000	65.133762 
3003.000000	65.135335 
3002.000000	65.138101 
3001.000000	65.141630 
3000.000000	65.145134 
2999.000000	65.147805 
2998.000000	65.148568 
2997.000000	65.146374 
2996.000000	65.140247 
2995.000000	65.129327 
2994.000000	65.113210 
2993.000000	65.092206 
2992.000000	65.067481 
2991.000000	65.040993 
2990.000000	65.015697 
2989.000000	64.994907 
2988.000000	64.981961 
2987.000000	64.979243 
2986.000000	64.988064 
2985.000000	65.008044 
2984.000000	65.037202 
2983.000000	65.072226 
2982.000000	65.108609 
2981.000000	65.141582 
2980.000000	65.166783 
2979.000000	65.181016 
2978.000000	65.182328 
2977.000000	65.170669 
2976.000000	65.147686 
2975.000000	65.116548 
2974.000000	65.081286 
2973.000000	65.046167 
2972.000000	65.015363 
2971.000000	64.991688 
2970.000000	64.976787 
2969.000000	64.970445 
2968.000000	64.970922 
2967.000000	64.975357 
2966.000000	64.980196 
2965.000000	64.982318 
2964.000000	64.979243 
2963.000000	64.970278 
2962.000000	64.956235 
2961.000000	64.939618 
2960.000000	64.923763 
2959.000000	64.912295 
2958.000000	64.908361 
2957.000000	64.913773 
2956.000000	64.928865 
2955.000000	64.952516 
2954.000000	64.982485 
2953.000000	65.016007 
2952.000000	65.050387 
2951.000000	65.083599 
2950.000000	65.114498 
2949.000000	65.142560 
2948.000000	65.167379 
2947.000000	65.188407 
2946.000000	65.204381 
2945.000000	65.213847 
2944.000000	65.214848 
2943.000000	65.205764 
2942.000000	65.185523 
2941.000000	65.155029 
2940.000000	65.116429 
2939.000000	65.073132 
2938.000000	65.029358 
2937.000000	64.989399 
2936.000000	64.956545 
2935.000000	64.932441 
2934.000000	64.917135 
2933.000000	64.909195 
2932.000000	64.906406 
2931.000000	64.906454 
2930.000000	64.907407 
2929.000000	64.908075 
2928.000000	64.907598 
2927.000000	64.905405 
2926.000000	64.900755 
2925.000000	64.893102 
2924.000000	64.882254 
2923.000000	64.868783 
2922.000000	64.854192 
2921.000000	64.841008 
2920.000000	64.832353 
2919.000000	64.831256 
2918.000000	64.839649 
2917.000000	64.858317 
2916.000000	64.886045 
2915.000000	64.920568 
2914.000000	64.958596 
2913.000000	64.996886 
2912.000000	65.032839 
2911.000000	65.064787 
2910.000000	65.092325 
2909.000000	65.115761 
2908.000000	65.135669 
2907.000000	65.152478 
2906.000000	65.166091 
2905.000000	65.175962 
2904.000000	65.181350 
2903.000000	65.181827 
2902.000000	65.177822 
2901.000000	65.170359 
2900.000000	65.160918 
2899.000000	65.151119 
2898.000000	65.142369 
2897.000000	65.135264 
2896.000000	65.129661 
2895.000000	65.124773 
2894.000000	65.119576 
2893.000000	65.113520 
2892.000000	65.106821 
2891.000000	65.100407 
2890.000000	65.096020 
2889.000000	65.095424 
2888.000000	65.099859 
2887.000000	65.109419 
2886.000000	65.122628 
2885.000000	65.136647 
2884.000000	65.147805 
2883.000000	65.152215 
2882.000000	65.146780 
2881.000000	65.130019 
2880.000000	65.102553 
2879.000000	65.066909 
2878.000000	65.027523 
2877.000000	64.989733 
2876.000000	64.959049 
2875.000000	64.939856 
2874.000000	64.934945 
2873.000000	64.945030 
2872.000000	64.968609 
2871.000000	65.002346 
2870.000000	65.041780 
2869.000000	65.082001 
2868.000000	65.118479 
2867.000000	65.147495 
2866.000000	65.166616 
2865.000000	65.174674 
2864.000000	65.171742 
2863.000000	65.158987 
2862.000000	65.138268 
2861.000000	65.111947 
2860.000000	65.082716 
2859.000000	65.053415 
2858.000000	65.026831 
2857.000000	65.005564 
2856.000000	64.991831 
2855.000000	64.987254 
2854.000000	64.992547 
2853.000000	65.007400 
2852.000000	65.030431 
2851.000000	65.059304 
2850.000000	65.091037 
2849.000000	65.122342 
2848.000000	65.150403 
2847.000000	65.172910 
2846.000000	65.188646 
2845.000000	65.197658 
2844.000000	65.201115 
2843.000000	65.200948 
2842.000000	65.199255 
2841.000000	65.198040 
2840.000000	65.198588 
2839.000000	65.201473 
2838.000000	65.206241 
2837.000000	65.211749 
2836.000000	65.216374 
2835.000000	65.218448 
2834.000000	65.216755 
2833.000000	65.210843 
2832.000000	65.201139 
2831.000000	65.188860 
2830.000000	65.175962 
2829.000000	65.164685 
2828.000000	65.157151 
2827.000000	65.154862 
2826.000000	65.158534 
2825.000000	65.167927 
2824.000000	65.182018 
2823.000000	65.199232 
2822.000000	65.217614 
2821.000000	65.235567 
2820.000000	65.251779 
2819.000000	65.265464 
2818.000000	65.276384 
2817.000000	65.284419 
2816.000000	65.289759 
2815.000000	65.292572 
2814.000000	65.293002 
2813.000000	65.291166 
2812.000000	65.287566 
2811.000000	65.283012 
2810.000000	65.278649 
2809.000000	65.275979 
2808.000000	65.276432 
2807.000000	65.280985 
2806.000000	65.289974 
2805.000000	65.302681 
2804.000000	65.317845 
2803.000000	65.333390 
2802.000000	65.347099 
2801.000000	65.356993 
2800.000000	65.361809 
2799.000000	65.361118 
2798.000000	65.355372 
2797.000000	65.345811 
2796.000000	65.334248 
2795.000000	65.322637 
2794.000000	65.312767 
2793.000000	65.306019 
2792.000000	65.303301 
2791.000000	65.304970 
2790.000000	65.310931 
2789.000000	65.320634 
2788.000000	65.333414 
2787.000000	65.348267 
2786.000000	65.364122 
2785.000000	65.379953 
2784.000000	65.394735 
2783.000000	65.407824 
2782.000000	65.418624 
2781.000000	65.426945 
2780.000000	65.432739 
2779.000000	65.436172 
2778.000000	65.437221 
2777.000000	65.435981 
2776.000000	65.432286 
2775.000000	65.425944 
2774.000000	65.416526 
2773.000000	65.403938 
2772.000000	65.388345 
2771.000000	65.370321 
2770.000000	65.351176 
2769.000000	65.332841 
2768.000000	65.317559 
2767.000000	65.307378 
2766.000000	65.303921 
2765.000000	65.307879 
2764.000000	65.318703 
2763.000000	65.334796 
2762.000000	65.353798 
2761.000000	65.373110 
2760.000000	65.390229 
2759.000000	65.403389 
2758.000000	65.411663 
2757.000000	65.414977 
2756.000000	65.413999 
2755.000000	65.409779 
2754.000000	65.403580 
2753.000000	65.396547 
2752.000000	65.389704 
2751.000000	65.383720 
2750.000000	65.379023 
2749.000000	65.375781 
2748.000000	65.374064 
2747.000000	65.373516 
2746.000000	65.373587 
2745.000000	65.373420 
2744.000000	65.372133 
2743.000000	65.368962 
2742.000000	65.363430 
2741.000000	65.355753 
2740.000000	65.346384 
2739.000000	65.336084 
2738.000000	65.325379 
2737.000000	65.314531 
2736.000000	65.303230 
2735.000000	65.290641 
2734.000000	65.275526 
2733.000000	65.257000 
2732.000000	65.234637 
2731.000000	65.208888 
2730.000000	65.181231 
2729.000000	65.153861 
2728.000000	65.129899 
2727.000000	65.112352 
2726.000000	65.104222 
2725.000000	65.107178 
2724.000000	65.122056 
2723.000000	65.148282 
2722.000000	65.184092 
2721.000000	65.226578 
2720.000000	65.272164 
2719.000000	65.317130 
2718.000000	65.357875 
2717.000000	65.391469 
2716.000000	65.416121 
2715.000000	65.431308 
2714.000000	65.437793 
2713.000000	65.437340 
2712.000000	65.432357 
2711.000000	65.425348 
2710.000000	65.418624 
2709.000000	65.413951 
2708.000000	65.412378 
2707.000000	65.414285 
2706.000000	65.419793 
2705.000000	65.428638 
2704.000000	65.440320 
2703.000000	65.453863 
2702.000000	65.468263 
2701.000000	65.481925 
2700.000000	65.492916 
2699.000000	65.498971 
2698.000000	65.498185 
2697.000000	65.489268 
2696.000000	65.471935 
2695.000000	65.447068 
2694.000000	65.417027 
2693.000000	65.384912 
2692.000000	65.354251 
2691.000000	65.327882 
2690.000000	65.307545 
2689.000000	65.293478 
2688.000000	65.284585 
2687.000000	65.278530 
2686.000000	65.272712 
2685.000000	65.265059 
2684.000000	65.254902 
2683.000000	65.242791 
2682.000000	65.230584 
2681.000000	65.220832 
2680.000000	65.216064 
2679.000000	65.217924 
2678.000000	65.226936 
2677.000000	65.242242 
2676.000000	65.262007 
2675.000000	65.283703 
2674.000000	65.305042 
2673.000000	65.324306 
2672.000000	65.340542 
2671.000000	65.353488 
2670.000000	65.363383 
2669.000000	65.370559 
2668.000000	65.375161 
2667.000000	65.377354 
2666.000000	65.377020 
2665.000000	65.374398 
2664.000000	65.369868 
2663.000000	65.364527 
2662.000000	65.359354 
2661.000000	65.355181 
2660.000000	65.352201 
2659.000000	65.350103 
2658.000000	65.348005 
2657.000000	65.344762 
2656.000000	65.339565 
2655.000000	65.332198 
2654.000000	65.323138 
2653.000000	65.313601 
2652.000000	65.304827 
2651.000000	65.298032 
2650.000000	65.293574 
2649.000000	65.291404 
2648.000000	65.290474 
2647.000000	65.289735 
2646.000000	65.288376 
2645.000000	65.286517 
2644.000000	65.285086 
2643.000000	65.285730 
2642.000000	65.290331 
2641.000000	65.300416 
2640.000000	65.316271 
2639.000000	65.336990 
2638.000000	65.360522 
2637.000000	65.384030 
2636.000000	65.404534 
2635.000000	65.419459 
2634.000000	65.427255 
2633.000000	65.427589 
2632.000000	65.421414 
2631.000000	65.410661 
2630.000000	65.397858 
2629.000000	65.385699 
2628.000000	65.376281 
2627.000000	65.370988 
2626.000000	65.369987 
2625.000000	65.372371 
2624.000000	65.376400 
2623.000000	65.379786 
2622.000000	65.380311 
2621.000000	65.376210 
2620.000000	65.366840 
2619.000000	65.352797 
2618.000000	65.335750 
2617.000000	65.318202 
2616.000000	65.302872 
2615.000000	65.292024 
2614.000000	65.286707 
2613.000000	65.286660 
2612.000000	65.290427 
2611.000000	65.295648 
2610.000000	65.299892 
2609.000000	65.301227 
2608.000000	65.298652 
2607.000000	65.292501 
2606.000000	65.283966 
2605.000000	65.274763 
2604.000000	65.266752 
2603.000000	65.261244 
2602.000000	65.258955 
2601.000000	65.259718 
2600.000000	65.262913 
2599.000000	65.267658 
2598.000000	65.273261 
2597.000000	65.279293 
2596.000000	65.285587 
2595.000000	65.291857 
2594.000000	65.297818 
2593.000000	65.302610 
2592.000000	65.305113 
2591.000000	65.303993 
2590.000000	65.298295 
2589.000000	65.287756 
2588.000000	65.273189 
2587.000000	65.256357 
2586.000000	65.239953 
2585.000000	65.226531 
2584.000000	65.218067 
2583.000000	65.215182 
2582.000000	65.217041 
2581.000000	65.221571 
2580.000000	65.226078 
2579.000000	65.227842 
2578.000000	65.225052 
2577.000000	65.217161 
2576.000000	65.205216 
2575.000000	65.191173 
2574.000000	65.177726 
2573.000000	65.167355 
2572.000000	65.162158 
2571.000000	65.163040 
2570.000000	65.170145 
2569.000000	65.182900 
2568.000000	65.200304 
2567.000000	65.221333 
2566.000000	65.244984 
2565.000000	65.270352 
2564.000000	65.296578 
2563.000000	65.322661 
2562.000000	65.347552 
2561.000000	65.370035 
2560.000000	65.388989 
2559.000000	65.403842 
2558.000000	65.413999 
2557.000000	65.419149 
2556.000000	65.418958 
2555.000000	65.413355 
2554.000000	65.402126 
2553.000000	65.385246 
2552.000000	65.362882 
2551.000000	65.335750 
2550.000000	65.304946 
2549.000000	65.271997 
2548.000000	65.238785 
2547.000000	65.207314 
2546.000000	65.179610 
2545.000000	65.157437 
2544.000000	65.141916 
2543.000000	65.133690 
2542.000000	65.132594 
2541.000000	65.138125 
2540.000000	65.149068 
2539.000000	65.164470 
2538.000000	65.183138 
2537.000000	65.204429 
2536.000000	65.227651 
2535.000000	65.252351 
2534.000000	65.278100 
2533.000000	65.304350 
2532.000000	65.330123 
2531.000000	65.354251 
2530.000000	65.375399 
2529.000000	65.392065 
2528.000000	65.402913 
2527.000000	65.406799 
2526.000000	65.403175 
2525.000000	65.392041 
2524.000000	65.374016 
2523.000000	65.350365 
2522.000000	65.322971 
2521.000000	65.294265 
2520.000000	65.266656 
2519.000000	65.242457 
2518.000000	65.223360 
2517.000000	65.210390 
2516.000000	65.203666 
2515.000000	65.202426 
2514.000000	65.205216 
2513.000000	65.210390 
2512.000000	65.216588 
2511.000000	65.222573 
2510.000000	65.227937 
2509.000000	65.232753 
2508.000000	65.237784 
2507.000000	65.244007 
2506.000000	65.252280 
2505.000000	65.262889 
2504.000000	65.275335 
2503.000000	65.288400 
2502.000000	65.299963 
2501.000000	65.307545 
2500.000000	65.308713 
2499.000000	65.301728 
2498.000000	65.285825 
2497.000000	65.261530 
2496.000000	65.230917 
2495.000000	65.197420 
2494.000000	65.165209 
2493.000000	65.138769 
2492.000000	65.122008 
2491.000000	65.117692 
2490.000000	65.127253 
2489.000000	65.150213 
2488.000000	65.184354 
2487.000000	65.226173 
2486.000000	65.271472 
2485.000000	65.315866 
2484.000000	65.355229 
2483.000000	65.386533 
2482.000000	65.407919 
2481.000000	65.418982 
2480.000000	65.420508 
2479.000000	65.414285 
2478.000000	65.402865 
2477.000000	65.388774 
2476.000000	65.374398 
2475.000000	65.361309 
2474.000000	65.350556 
2473.000000	65.342283 
2472.000000	65.335869 
2471.000000	65.330338 
2470.000000	65.324616 
2469.000000	65.317773 
2468.000000	65.309286 
2467.000000	65.299081 
2466.000000	65.287685 
2465.000000	65.276074 
2464.000000	65.265607 
2463.000000	65.257596 
2462.000000	65.253376 
2461.000000	65.253996 
2460.000000	65.260148 
2459.000000	65.271997 
2458.000000	65.288996 
2457.000000	65.310311 
2456.000000	65.334653 
2455.000000	65.360164 
2454.000000	65.384960 
2453.000000	65.407133 
2452.000000	65.425324 
2451.000000	65.438389 
2450.000000	65.446043 
2449.000000	65.448665 
2448.000000	65.447425 
2447.000000	65.443944 
2446.000000	65.440106 
2445.000000	65.437626 
2444.000000	65.438008 
2443.000000	65.442299 
2442.000000	65.450644 
2441.000000	65.462231 
2440.000000	65.475797 
2439.000000	65.489411 
2438.000000	65.500807 
2437.000000	65.507483 
2436.000000	65.507245 
2435.000000	65.498256 
2434.000000	65.479350 
2433.000000	65.450429 
2432.000000	65.412545 
2431.000000	65.368175 
2430.000000	65.321159 
2429.000000	65.276241 
2428.000000	65.238380 
2427.000000	65.211963 
2426.000000	65.200042 
2425.000000	65.203452 
2424.000000	65.220499 
2423.000000	65.247344 
2422.000000	65.278720 
2421.000000	65.309286 
2420.000000	65.334415 
2419.000000	65.351676 
2418.000000	65.361213 
2417.000000	65.365624 
2416.000000	65.368843 
2415.000000	65.375065 
2414.000000	65.387225 
2413.000000	65.406250 
2412.000000	65.430593 
2411.000000	65.456771 
2410.000000	65.479969 
2409.000000	65.495991 
2408.000000	65.501737 
2407.000000	65.496253 
2406.000000	65.480518 
2405.000000	65.457057 
2404.000000	65.429234 
2403.000000	65.400290 
2402.000000	65.372776 
2401.000000	65.348196 
2400.000000	65.326929 
2399.000000	65.308976 
2398.000000	65.293836 
2397.000000	65.281653 
2396.000000	65.272688 
2395.000000	65.267324 
2394.000000	65.265822 
2393.000000	65.267825 
2392.000000	65.272545 
2391.000000	65.278768 
2390.000000	65.285086 
2389.000000	65.290403 
2388.000000	65.294575 
2387.000000	65.298533 
2386.000000	65.304136 
2385.000000	65.313458 
2384.000000	65.328359 
2383.000000	65.349531 
2382.000000	65.376019 
2381.000000	65.405225 
2380.000000	65.433096 
2379.000000	65.454936 
2378.000000	65.466666 
2377.000000	65.465641 
2376.000000	65.451264 
2375.000000	65.425539 
2374.000000	65.392565 
2373.000000	65.357685 
2372.000000	65.326285 
2371.000000	65.302681 
2370.000000	65.289473 
2369.000000	65.286922 
2368.000000	65.293288 
2367.000000	65.305113 
2366.000000	65.318369 
2365.000000	65.329289 
2364.000000	65.335202 
2363.000000	65.335035 
2362.000000	65.329170 
2361.000000	65.319418 
2360.000000	65.308308 
2359.000000	65.298438 
2358.000000	65.291643 
2357.000000	65.288972 
2356.000000	65.290331 
2355.000000	65.294504 
2354.000000	65.299797 
2353.000000	65.304327 
2352.000000	65.306735 
2351.000000	65.306472 
2350.000000	65.304112 
2349.000000	65.300941 
2348.000000	65.298986 
2347.000000	65.300083 
2346.000000	65.305399 
2345.000000	65.314936 
2344.000000	65.327382 
2343.000000	65.340542 
2342.000000	65.351462 
2341.000000	65.357398 
2340.000000	65.356612 
2339.000000	65.348863 
2338.000000	65.335392 
2337.000000	65.318560 
2336.000000	65.301156 
2335.000000	65.285801 
2334.000000	65.274143 
2333.000000	65.266466 
2332.000000	65.261697 
2331.000000	65.257906 
2330.000000	65.253019 
2329.000000	65.245580 
2328.000000	65.235233 
2327.000000	65.222907 
2326.000000	65.210556 
2325.000000	65.200757 
2324.000000	65.195584 
2323.000000	65.196728 
2322.000000	65.204644 
2321.000000	65.218853 
2320.000000	65.238094 
2319.000000	65.260505 
2318.000000	65.284085 
2317.000000	65.306878 
2316.000000	65.327525 
2315.000000	65.345048 
2314.000000	65.358877 
2313.000000	65.368819 
2312.000000	65.374994 
2311.000000	65.377640 
2310.000000	65.376973 
2309.000000	65.373396 
2308.000000	65.367317 
2307.000000	65.359354 
2306.000000	65.350198 
2305.000000	65.340566 
2304.000000	65.331220 
2303.000000	65.322804 
2302.000000	65.315604 
2301.000000	65.309572 
2300.000000	65.304303 
2299.000000	65.298986 
2298.000000	65.292835 
2297.000000	65.284943 
2296.000000	65.275216 
2295.000000	65.264034 
2294.000000	65.252757 
2293.000000	65.243339 
2292.000000	65.238261 
2291.000000	65.239644 
2290.000000	65.248966 
2289.000000	65.266513 
2288.000000	65.291166 
2287.000000	65.320754 
2286.000000	65.352225 
2285.000000	65.382313 
2284.000000	65.407824 
2283.000000	65.426325 
2282.000000	65.436387 
2281.000000	65.437674 
2280.000000	65.430855 
2279.000000	65.417122 
2278.000000	65.398192 
2277.000000	65.375828 
2276.000000	65.351605 
2275.000000	65.326786 
2274.000000	65.302586 
2273.000000	65.280032 
2272.000000	65.260076 
2271.000000	65.243840 
2270.000000	65.232419 
2269.000000	65.226793 
2268.000000	65.227413 
2267.000000	65.234208 
2266.000000	65.246224 
2265.000000	65.261840 
2264.000000	65.279030 
2263.000000	65.295672 
2262.000000	65.310001 
2261.000000	65.321087 
2260.000000	65.328955 
2259.000000	65.334486 
2258.000000	65.339231 
2257.000000	65.344953 
2256.000000	65.353083 
2255.000000	65.364384 
2254.000000	65.378475 
2253.000000	65.394353 
2252.000000	65.410470 
2251.000000	65.424966 
2250.000000	65.436196 
2249.000000	65.442991 
2248.000000	65.444755 
2247.000000	65.441536 
2246.000000	65.433859 
2245.000000	65.422558 
2244.000000	65.408611 
2243.000000	65.393185 
2242.000000	65.377378 
2241.000000	65.362262 
2240.000000	65.348649 
2239.000000	65.337347 
2238.000000	65.329051 
2237.000000	65.324258 
2236.000000	65.323281 
2235.000000	65.325975 
2234.000000	65.332007 
2233.000000	65.340781 
2232.000000	65.351390 
2231.000000	65.362572 
2230.000000	65.372920 
2229.000000	65.380859 
2228.000000	65.385031 
2227.000000	65.384197 
2226.000000	65.377712 
2225.000000	65.365624 
2224.000000	65.348625 
2223.000000	65.328121 
2222.000000	65.305876 
2221.000000	65.284085 
2220.000000	65.264678 
2219.000000	65.249490 
2218.000000	65.239906 
2217.000000	65.236735 
2216.000000	65.240383 
2215.000000	65.250468 
2214.000000	65.265750 
2213.000000	65.284204 
2212.000000	65.303397 
2211.000000	65.320444 
2210.000000	65.332412 
2209.000000	65.336990 
2208.000000	65.332865 
2207.000000	65.320134 
2206.000000	65.300393 
2205.000000	65.276527 
2204.000000	65.252232 
2203.000000	65.231323 
2202.000000	65.216708 
2201.000000	65.210103 
2200.000000	65.211534 
2199.000000	65.219736 
2198.000000	65.232396 
2197.000000	65.246844 
2196.000000	65.260624 
2195.000000	65.271878 
2194.000000	65.279817 
2193.000000	65.284490 
2192.000000	65.287065 
2191.000000	65.288805 
2190.000000	65.291309 
2189.000000	65.296053 
2188.000000	65.304088 
2187.000000	65.316081 
2186.000000	65.331721 
2185.000000	65.350270 
2184.000000	65.370082 
2183.000000	65.389132 
2182.000000	65.405201 
2181.000000	65.416240 
2180.000000	65.420866 
2179.000000	65.418910 
2178.000000	65.411233 
2177.000000	65.399622 
2176.000000	65.386176 
2175.000000	65.372824 
2174.000000	65.360569 
2173.000000	65.349578 
2172.000000	65.339136 
2171.000000	65.328311 
2170.000000	65.316486 
2169.000000	65.304064 
2168.000000	65.292930 
2167.000000	65.286231 
2166.000000	65.287423 
2165.000000	65.299391 
2164.000000	65.323424 
2163.000000	65.358400 
2162.000000	65.400481 
2161.000000	65.443801 
2160.000000	65.481710 
2159.000000	65.508198 
2158.000000	65.519142 
2157.000000	65.513443 
2156.000000	65.493154 
2155.000000	65.462756 
2154.000000	65.428066 
2153.000000	65.395164 
2152.000000	65.368866 
2151.000000	65.352201 
2150.000000	65.345788 
2149.000000	65.348362 
2148.000000	65.357303 
2147.000000	65.369296 
2146.000000	65.381383 
2145.000000	65.391016 
2144.000000	65.396499 
2143.000000	65.396809 
2142.000000	65.391731 
2141.000000	65.381431 
2140.000000	65.366697 
2139.000000	65.348649 
2138.000000	65.328955 
2137.000000	65.309643 
2136.000000	65.292716 
2135.000000	65.280008 
2134.000000	65.272784 
2133.000000	65.271353 
2132.000000	65.275073 
2131.000000	65.282416 
2130.000000	65.291285 
2129.000000	65.299487 
2128.000000	65.305376 
2127.000000	65.307974 
2126.000000	65.307402 
2125.000000	65.304660 
2124.000000	65.301489 
2123.000000	65.299677 
2122.000000	65.300559 
2121.000000	65.304636 
2120.000000	65.311455 
2119.000000	65.319800 
2118.000000	65.327715 
2117.000000	65.333223 
2116.000000	65.334582 
2115.000000	65.330910 
2114.000000	65.322160 
2113.000000	65.309381 
2112.000000	65.294432 
2111.000000	65.279674 
2110.000000	65.267372 
2109.000000	65.259456 
2108.000000	65.257239 
2107.000000	65.261006 
2106.000000	65.270256 
2105.000000	65.283536 
2104.000000	65.299057 
2103.000000	65.314698 
2102.000000	65.328478 
2101.000000	65.338897 
2100.000000	65.345072 
2099.000000	65.346980 
2098.000000	65.345168 
2097.000000	65.340733 
2096.000000	65.334868 
2095.000000	65.328669 
2094.000000	65.323019 
2093.000000	65.318322 
2092.000000	65.314626 
2091.000000	65.311980 
2090.000000	65.310764 
2089.000000	65.311622 
2088.000000	65.315461 
2087.000000	65.323352 
2086.000000	65.336132 
2085.000000	65.354013 
2084.000000	65.376234 
2083.000000	65.400886 
2082.000000	65.425467 
2081.000000	65.447187 
2080.000000	65.463709 
2079.000000	65.473699 
2078.000000	65.477085 
2077.000000	65.475416 
2076.000000	65.471363 
2075.000000	65.467929 
2074.000000	65.467619 
2073.000000	65.472054 
2072.000000	65.480899 
2071.000000	65.492391 
2070.000000	65.503144 
2069.000000	65.509247 
2068.000000	65.506768 
2067.000000	65.492749 
2066.000000	65.465664 
2065.000000	65.425848 
2064.000000	65.375518 
2063.000000	65.318608 
2062.000000	65.259933 
2061.000000	65.205001 
2060.000000	65.159034 
2059.000000	65.126657 
2058.000000	65.111041 
2057.000000	65.113830 
2056.000000	65.134787 
2055.000000	65.172028 
2054.000000	65.221738 
2053.000000	65.279126 
2052.000000	65.338611 
2051.000000	65.394997 
2050.000000	65.443611 
2049.000000	65.481185 
2048.000000	65.506100 
2047.000000	65.518403 
2046.000000	65.519666 
2045.000000	65.512275 
2044.000000	65.499043 
2043.000000	65.482544 
2042.000000	65.464949 
2041.000000	65.447640 
2040.000000	65.431380 
2039.000000	65.416502 
2038.000000	65.403103 
2037.000000	65.391278 
2036.000000	65.381288 
2035.000000	65.373325 
2034.000000	65.367555 
2033.000000	65.363836 
2032.000000	65.361666 
2031.000000	65.360355 
2030.000000	65.359020 
2029.000000	65.356659 
2028.000000	65.352678 
2027.000000	65.346837 
2026.000000	65.339827 
2025.000000	65.332531 
2024.000000	65.326380 
2023.000000	65.322756 
2022.000000	65.322732 
2021.000000	65.327143 
2020.000000	65.336108 
2019.000000	65.348935 
2018.000000	65.364050 
2017.000000	65.379691 
2016.000000	65.393733 
2015.000000	65.404033 
2014.000000	65.408849 
2013.000000	65.407156 
2012.000000	65.398669 
2011.000000	65.383982 
2010.000000	65.364193 
2009.000000	65.340876 
2008.000000	65.315771 
2007.000000	65.290641 
2006.000000	65.266847 
2005.000000	65.245532 
2004.000000	65.227603 
2003.000000	65.213894 
2002.000000	65.204930 
2001.000000	65.200972 
2000.000000	65.202307 
1999.000000	65.208721 
1998.000000	65.219616 
1997.000000	65.233993 
1996.000000	65.250253 
1995.000000	65.266585 
1994.000000	65.281176 
1993.000000	65.292477 
1992.000000	65.299510 
1991.000000	65.301895 
1990.000000	65.299892 
1989.000000	65.294361 
1988.000000	65.286421 
1987.000000	65.277409 
1986.000000	65.268635 
1985.000000	65.261054 
1984.000000	65.255451 
1983.000000	65.252304 
1982.000000	65.251851 
1981.000000	65.254235 
1980.000000	65.259575 
1979.000000	65.267968 
1978.000000	65.279793 
1977.000000	65.295267 
1976.000000	65.314555 
1975.000000	65.337538 
1974.000000	65.363454 
1973.000000	65.391159 
1972.000000	65.418744 
1971.000000	65.443992 
1970.000000	65.464520 
1969.000000	65.478372 
1968.000000	65.484213 
1967.000000	65.482020 
1966.000000	65.472865 
1965.000000	65.458869 
1964.000000	65.442776 
1963.000000	65.427398 
1962.000000	65.414881 
1961.000000	65.406537 
1960.000000	65.402531 
1959.000000	65.402173 
1958.000000	65.404176 
1957.000000	65.407085 
1956.000000	65.409493 
1955.000000	65.410590 
1954.000000	65.409970 
1953.000000	65.407729 
1952.000000	65.404081 
1951.000000	65.399551 
1950.000000	65.394496 
1949.000000	65.389227 
1948.000000	65.384054 
1947.000000	65.379405 
1946.000000	65.375757 
1945.000000	65.373277 
1944.000000	65.372061 
1943.000000	65.371918 
1942.000000	65.372133 
1941.000000	65.371870 
1940.000000	65.370440 
1939.000000	65.367555 
1938.000000	65.363407 
1937.000000	65.358710 
1936.000000	65.354728 
1935.000000	65.352821 
1934.000000	65.353894 
1933.000000	65.358424 
1932.000000	65.366029 
1931.000000	65.375661 
1930.000000	65.385770 
1929.000000	65.394735 
1928.000000	65.401029 
1927.000000	65.403819 
1926.000000	65.402936 
1925.000000	65.398836 
1924.000000	65.392303 
1923.000000	65.384411 
1922.000000	65.376091 
1921.000000	65.368127 
1920.000000	65.360713 
1919.000000	65.354061 
1918.000000	65.347862 
1917.000000	65.341615 
1916.000000	65.334773 
1915.000000	65.326690 
1914.000000	65.317010 
1913.000000	65.305566 
1912.000000	65.292644 
1911.000000	65.278840 
1910.000000	65.264987 
1909.000000	65.251994 
1908.000000	65.240621 
1907.000000	65.231323 
1906.000000	65.224361 
1905.000000	65.219831 
1904.000000	65.217781 
1903.000000	65.218424 
1902.000000	65.222263 
1901.000000	65.229964 
1900.000000	65.242195 
1899.000000	65.259408 
1898.000000	65.281128 
1897.000000	65.306091 
1896.000000	65.332078 
1895.000000	65.356349 
1894.000000	65.376234 
1893.000000	65.389585 
1892.000000	65.395545 
1891.000000	65.394473 
1890.000000	65.388059 
1889.000000	65.378546 
1888.000000	65.368556 
1887.000000	65.360045 
1886.000000	65.354394 
1885.000000	65.351867 
1884.000000	65.351915 
1883.000000	65.353488 
1882.000000	65.355539 
1881.000000	65.357279 
1880.000000	65.358304 
1879.000000	65.358591 
1878.000000	65.358257 
1877.000000	65.357518 
1876.000000	65.356421 
1875.000000	65.354967 
1874.000000	65.353012 
1873.000000	65.350651 
1872.000000	65.348196 
1871.000000	65.346121 
1870.000000	65.344905 
1869.000000	65.344929 
1868.000000	65.346288 
1867.000000	65.348553 
1866.000000	65.351104 
1865.000000	65.352964 
1864.000000	65.353441 
1863.000000	65.352344 
1862.000000	65.349626 
1861.000000	65.346121 
1860.000000	65.342402 
1859.000000	65.338921 
1858.000000	65.335464 
1857.000000	65.331315 
1856.000000	65.325117 
1855.000000	65.315246 
1854.000000	65.300583 
1853.000000	65.280961 
1852.000000	65.257191 
1851.000000	65.231227 
1850.000000	65.205788 
1849.000000	65.183830 
1848.000000	65.167880 
1847.000000	65.159630 
1846.000000	65.159511 
1845.000000	65.166831 
1844.000000	65.180182 
1843.000000	65.197682 
1842.000000	65.217399 
1841.000000	65.237855 
1840.000000	65.257930 
1839.000000	65.277218 
1838.000000	65.295314 
1837.000000	65.311980 
1836.000000	65.327024 
1835.000000	65.340137 
1834.000000	65.351080 
1833.000000	65.359592 
1832.000000	65.365839 
1831.000000	65.370059 
1830.000000	65.372943 
1829.000000	65.375113 
1828.000000	65.377259 
1827.000000	65.379929 
1826.000000	65.383577 
1825.000000	65.388369 
1824.000000	65.394282 
1823.000000	65.401172 
1822.000000	65.408897 
1821.000000	65.417075 
1820.000000	65.425252 
1819.000000	65.432882 
1818.000000	65.439271 
1817.000000	65.443420 
1816.000000	65.444231 
1815.000000	65.440940 
1814.000000	65.432977 
1813.000000	65.420365 
1812.000000	65.403485 
1811.000000	65.383338 
1810.000000	65.361213 
1809.000000	65.338563 
1808.000000	65.316891 
1807.000000	65.297341 
1806.000000	65.280771 
1805.000000	65.267825 
1804.000000	65.259027 
1803.000000	65.254616 
1802.000000	65.254759 
1801.000000	65.259385 
1800.000000	65.268230 
1799.000000	65.280365 
1798.000000	65.294504 
1797.000000	65.308809 
1796.000000	65.321421 
1795.000000	65.330600 
1794.000000	65.335321 
1793.000000	65.335631 
1792.000000	65.332722 
1791.000000	65.328741 
1790.000000	65.326118 
1789.000000	65.326952 
1788.000000	65.332412 
1787.000000	65.342187 
1786.000000	65.354919 
1785.000000	65.368032 
1784.000000	65.378737 
1783.000000	65.384721 
1782.000000	65.384888 
1781.000000	65.379548 
1780.000000	65.370297 
1779.000000	65.359592 
1778.000000	65.350079 
1777.000000	65.343666 
1776.000000	65.341281 
1775.000000	65.342330 
1774.000000	65.345287 
1773.000000	65.348052 
1772.000000	65.348911 
1771.000000	65.346932 
1770.000000	65.342569 
1769.000000	65.337467 
1768.000000	65.334057 
1767.000000	65.334939 
1766.000000	65.342092 
1765.000000	65.356326 
1764.000000	65.376710 
1763.000000	65.400958 
1762.000000	65.425252 
1761.000000	65.445566 
1760.000000	65.457916 
1759.000000	65.459418 
1758.000000	65.448379 
1757.000000	65.424895 
1756.000000	65.390443 
1755.000000	65.347552 
1754.000000	65.299344 
1753.000000	65.249156 
1752.000000	65.200042 
1751.000000	65.154838 
1750.000000	65.115880 
1749.000000	65.084838 
1748.000000	65.062594 
1747.000000	65.049314 
1746.000000	65.044355 
1745.000000	65.046525 
1744.000000	65.054321 
1743.000000	65.066218 
1742.000000	65.081024 
1741.000000	65.097832 
1740.000000	65.116333 
1739.000000	65.136647 
1738.000000	65.158939 
1737.000000	65.183043 
1736.000000	65.208196 
1735.000000	65.233182 
1734.000000	65.256381 
1733.000000	65.275812 
1732.000000	65.290188 
1731.000000	65.298390 
1730.000000	65.300273 
1729.000000	65.296077 
1728.000000	65.286397 
1727.000000	65.271997 
1726.000000	65.253686 
1725.000000	65.232586 
1724.000000	65.210151 
1723.000000	65.188670 
1722.000000	65.171217 
1721.000000	65.161085 
1720.000000	65.160989 
1719.000000	65.172290 
1718.000000	65.194559 
1717.000000	65.224862 
1716.000000	65.258288 
1715.000000	65.288662 
1714.000000	65.309977 
1713.000000	65.317678 
1712.000000	65.309882 
1711.000000	65.287756 
1710.000000	65.255212 
1709.000000	65.218043 
1708.000000	65.182304 
1707.000000	65.153264 
1706.000000	65.134167 
1705.000000	65.126132 
1704.000000	65.128111 
1703.000000	65.137791 
1702.000000	65.152144 
1701.000000	65.168380 
1700.000000	65.184259 
1699.000000	65.198421 
1698.000000	65.210199 
1697.000000	65.219283 
1696.000000	65.225934 
1695.000000	65.230298 
1694.000000	65.232658 
1693.000000	65.233325 
1692.000000	65.232634 
1691.000000	65.231180 
1690.000000	65.229511 
1689.000000	65.228128 
1688.000000	65.227293 
1687.000000	65.227079 
1686.000000	65.227437 
1685.000000	65.228343 
1684.000000	65.229868 
1683.000000	65.232181 
1682.000000	65.235400 
1681.000000	65.239548 
1680.000000	65.244293 
1679.000000	65.249109 
1678.000000	65.252995 
1677.000000	65.255236 
1676.000000	65.255427 
1675.000000	65.253615 
1674.000000	65.250492 
1673.000000	65.247249 
1672.000000	65.245270 
1671.000000	65.245676 
1670.000000	65.249228 
1669.000000	65.255808 
1668.000000	65.264296 
1667.000000	65.272998 
1666.000000	65.279865 
1665.000000	65.283155 
1664.000000	65.281724 
1663.000000	65.275502 
1662.000000	65.265393 
1661.000000	65.253114 
1660.000000	65.240859 
1659.000000	65.230870 
1658.000000	65.224862 
1657.000000	65.223884 
1656.000000	65.227913 
1655.000000	65.236186 
1654.000000	65.247130 
1653.000000	65.258836 
1652.000000	65.269517 
1651.000000	65.277886 
1650.000000	65.283179 
1649.000000	65.285229 
1648.000000	65.284109 
1647.000000	65.279769 
1646.000000	65.272068 
1645.000000	65.260410 
1644.000000	65.244364 
1643.000000	65.223884 
1642.000000	65.199518 
1641.000000	65.172839 
1640.000000	65.146183 
1639.000000	65.122389 
1638.000000	65.103936 
1637.000000	65.092515 
1636.000000	65.088438 
1635.000000	65.090584 
1634.000000	65.096497 
1633.000000	65.103125 
1632.000000	65.107417 
1631.000000	65.107226 
1630.000000	65.101623 
1629.000000	65.090966 
1628.000000	65.076732 
1627.000000	65.060806 
1626.000000	65.045142 
1625.000000	65.031242 
1624.000000	65.019989 
1623.000000	65.011692 
1622.000000	65.006422 
1621.000000	65.004038 
1620.000000	65.004563 
1619.000000	65.007925 
1618.000000	65.013885 
1617.000000	65.021920 
1616.000000	65.030980 
1615.000000	65.039658 
1614.000000	65.046405 
1613.000000	65.049958 
1612.000000	65.049552 
1611.000000	65.045332 
1610.000000	65.038537 
1609.000000	65.031123 
1608.000000	65.025472 
1607.000000	65.023684 
1606.000000	65.027165 
1605.000000	65.036439 
1604.000000	65.050959 
1603.000000	65.069413 
1602.000000	65.089797 
1601.000000	65.110039 
1600.000000	65.128254 
1599.000000	65.142965 
1598.000000	65.153217 
1597.000000	65.158510 
1596.000000	65.158677 
1595.000000	65.154004 
1594.000000	65.145087 
1593.000000	65.132761 
1592.000000	65.118193 
1591.000000	65.102863 
1590.000000	65.088415 
1589.000000	65.076541 
1588.000000	65.068721 
1587.000000	65.065860 
1586.000000	65.068292 
1585.000000	65.075731 
1584.000000	65.086960 
1583.000000	65.100169 
1582.000000	65.113091 
1581.000000	65.123319 
1580.000000	65.128540 
1579.000000	65.126943 
1578.000000	65.117716 
1577.000000	65.101194 
1576.000000	65.078735 
1575.000000	65.052914 
1574.000000	65.026974 
1573.000000	65.004324 
1572.000000	64.987730 
1571.000000	64.979004 
1570.000000	64.978647 
1569.000000	64.985609 
1568.000000	64.997649 
1567.000000	65.011835 
1566.000000	65.025210 
1565.000000	65.035271 
1564.000000	65.040516 
1563.000000	65.040826 
1562.000000	65.036869 
1561.000000	65.030264 
1560.000000	65.022706 
1559.000000	65.015912 
1558.000000	65.010857 
1557.000000	65.007972 
1556.000000	65.007209 
1555.000000	65.008258 
1554.000000	65.010738 
1553.000000	65.014314 
1552.000000	65.018820 
1551.000000	65.024065 
1550.000000	65.029692 
1549.000000	65.034914 
1548.000000	65.038490 
1547.000000	65.039014 
1546.000000	65.035152 
1545.000000	65.026140 
1544.000000	65.012001 
1543.000000	64.993572 
1542.000000	64.972639 
1541.000000	64.951682 
1540.000000	64.933419 
1539.000000	64.920139 
1538.000000	64.913630 
1537.000000	64.914655 
1536.000000	64.923286 
1535.000000	64.938902 
1534.000000	64.960432 
1533.000000	64.986467 
1532.000000	65.015411 
1531.000000	65.045619 
1530.000000	65.075230 
1529.000000	65.102362 
1528.000000	65.125155 
1527.000000	65.141963 
1526.000000	65.151572 
1525.000000	65.153479 
1524.000000	65.147733 
1523.000000	65.135025 
1522.000000	65.116786 
1521.000000	65.094900 
1520.000000	65.071582 
1519.000000	65.049457 
1518.000000	65.031027 
1517.000000	65.018677 
1516.000000	65.014481 
1515.000000	65.019679 
1514.000000	65.034651 
1513.000000	65.058445 
1512.000000	65.088796 
1511.000000	65.122556 
1510.000000	65.155720 
1509.000000	65.184426 
1508.000000	65.205311 
1507.000000	65.216445 
1506.000000	65.217399 
1505.000000	65.209317 
1504.000000	65.194606 
1503.000000	65.176439 
1502.000000	65.157890 
1501.000000	65.141916 
1500.000000	65.130949 
1499.000000	65.126681 
1498.000000	65.129876 
1497.000000	65.140295 
1496.000000	65.156888 
1495.000000	65.177679 
1494.000000	65.200018 
1493.000000	65.220737 
1492.000000	65.236711 
1491.000000	65.245199 
1490.000000	65.244483 
1489.000000	65.233922 
1488.000000	65.214252 
1487.000000	65.187525 
1486.000000	65.156865 
1485.000000	65.126061 
1484.000000	65.098690 
1483.000000	65.077638 
1482.000000	65.064287 
1481.000000	65.058851 
1480.000000	65.059757 
1479.000000	65.064239 
1478.000000	65.068840 
1477.000000	65.070390 
1476.000000	65.066456 
1475.000000	65.056014 
1474.000000	65.039610 
1473.000000	65.019178 
1472.000000	64.997839 
1471.000000	64.979219 
1470.000000	64.966583 
1469.000000	64.962220 
1468.000000	64.967370 
1467.000000	64.982032 
1466.000000	65.004897 
1465.000000	65.033674 
1464.000000	65.065741 
1463.000000	65.098142 
1462.000000	65.128087 
1461.000000	65.152692 
1460.000000	65.169501 
1459.000000	65.175986 
1458.000000	65.170121 
1457.000000	65.150475 
1456.000000	65.116786 
1455.000000	65.070343 
1454.000000	65.014505 
1453.000000	64.954328 
1452.000000	64.896202 
1451.000000	64.846777 
1450.000000	64.811563 
1449.000000	64.794278 
1448.000000	64.796042 
1447.000000	64.815711 
1446.000000	64.850401 
1445.000000	64.896368 
1444.000000	64.949703 
1443.000000	65.006923 
1442.000000	65.065288 
1441.000000	65.122628 
1440.000000	65.177154 
1439.000000	65.227007 
1438.000000	65.270233 
1437.000000	65.304970 
1436.000000	65.329480 
1435.000000	65.342879 
1434.000000	65.344905 
1433.000000	65.336513 
1432.000000	65.319228 
1431.000000	65.295386 
1430.000000	65.267109 
1429.000000	65.236568 
1428.000000	65.205383 
1427.000000	65.174984 
1426.000000	65.146636 
1425.000000	65.121555 
1424.000000	65.101146 
1423.000000	65.086603 
1422.000000	65.078830 
1421.000000	65.078115 
1420.000000	65.084123 
1419.000000	65.095829 
1418.000000	65.111756 
1417.000000	65.130209 
1416.000000	65.149736 
1415.000000	65.169191 
1414.000000	65.187764 
1413.000000	65.204739 
1412.000000	65.219426 
1411.000000	65.230965 
1410.000000	65.238070 
1409.000000	65.239191 
1408.000000	65.233445 
1407.000000	65.220904 
1406.000000	65.202689 
1405.000000	65.181374 
1404.000000	65.160536 
1403.000000	65.143632 
1402.000000	65.133714 
1401.000000	65.131950 
1400.000000	65.137720 
1399.000000	65.148210 
1398.000000	65.159201 
1397.000000	65.165901 
1396.000000	65.164232 
1395.000000	65.151834 
1394.000000	65.128660 
1393.000000	65.097212 
1392.000000	65.061974 
1391.000000	65.028476 
1390.000000	65.002012 
1389.000000	64.986562 
1388.000000	64.983940 
1387.000000	64.993619 
1386.000000	65.013074 
1385.000000	65.038657 
1384.000000	65.066623 
1383.000000	65.093684 
1382.000000	65.117788 
1381.000000	65.138149 
1380.000000	65.155100 
1379.000000	65.169358 
1378.000000	65.181636 
1377.000000	65.192222 
1376.000000	65.200424 
1375.000000	65.205454 
1374.000000	65.205812 
1373.000000	65.200424 
1372.000000	65.188741 
1371.000000	65.171241 
1370.000000	65.149426 
1369.000000	65.125489 
1368.000000	65.102195 
1367.000000	65.082335 
1366.000000	65.068650 
1365.000000	65.063166 
1364.000000	65.066981 
1363.000000	65.079855 
1362.000000	65.099906 
1361.000000	65.123844 
1360.000000	65.147376 
1359.000000	65.165829 
1358.000000	65.175127 
1357.000000	65.172767 
1356.000000	65.158176 
1355.000000	65.133285 
1354.000000	65.102219 
1353.000000	65.070033 
1352.000000	65.042042 
1351.000000	65.022349 
1350.000000	65.013384 
1349.000000	65.015363 
1348.000000	65.026426 
1347.000000	65.043640 
1346.000000	65.063714 
1345.000000	65.084028 
1344.000000	65.102910 
1343.000000	65.119791 
1342.000000	65.134859 
1341.000000	65.148568 
1340.000000	65.160846 
1339.000000	65.171313 
1338.000000	65.179085 
1337.000000	65.183448 
1336.000000	65.183925 
1335.000000	65.180873 
1334.000000	65.175294 
1333.000000	65.168809 
1332.000000	65.163087 
1331.000000	65.159392 
1330.000000	65.157985 
1329.000000	65.158367 
1328.000000	65.159034 
1327.000000	65.158390 
1326.000000	65.154910 
1325.000000	65.147948 
1324.000000	65.137410 
1323.000000	65.123987 
1322.000000	65.108656 
1321.000000	65.092515 
1320.000000	65.076470 
1319.000000	65.061068 
1318.000000	65.046644 
1317.000000	65.033292 
1316.000000	65.020918 
1315.000000	65.009331 
1314.000000	64.998126 
1313.000000	64.986538 
1312.000000	64.973807 
1311.000000	64.959287 
1310.000000	64.942646 
1309.000000	64.924144 
1308.000000	64.904856 
1307.000000	64.886665 
1306.000000	64.872026 
1305.000000	64.863491 
1304.000000	64.863109 
1303.000000	64.871811 
1302.000000	64.889073 
1301.000000	64.912819 
1300.000000	64.939761 
1299.000000	64.965987 
1298.000000	64.987778 
1297.000000	65.002083 
1296.000000	65.007162 
1295.000000	65.002775 
1294.000000	64.989972 
1293.000000	64.970922 
1292.000000	64.948439 
1291.000000	64.925265 
1290.000000	64.904022 
1289.000000	64.886569 
1288.000000	64.873981 
1287.000000	64.866542 
1286.000000	64.864015 
1285.000000	64.865970 
1284.000000	64.871764 
1283.000000	64.880967 
1282.000000	64.893221 
1281.000000	64.907932 
1280.000000	64.924311 
1279.000000	64.941167 
1278.000000	64.956855 
1277.000000	64.969515 
1276.000000	64.977216 
1275.000000	64.978361 
1274.000000	64.972162 
1273.000000	64.958739 
1272.000000	64.939498 
1271.000000	64.916777 
1270.000000	64.893603 
1269.000000	64.873075 
1268.000000	64.857888 
1267.000000	64.849710 
1266.000000	64.848804 
1265.000000	64.854145 
1264.000000	64.863491 
1263.000000	64.874076 
1262.000000	64.883399 
1261.000000	64.889621 
1260.000000	64.892268 
1259.000000	64.892148 
1258.000000	64.891314 
1257.000000	64.892196 
1256.000000	64.896965 
1255.000000	64.906835 
1254.000000	64.921641 
1253.000000	64.939761 
1252.000000	64.958286 
1251.000000	64.973568 
1250.000000	64.982366 
1249.000000	64.982342 
1248.000000	64.972686 
1247.000000	64.954400 
1246.000000	64.930033 
1245.000000	64.903354 
1244.000000	64.878559 
1243.000000	64.859223 
1242.000000	64.847970 
1241.000000	64.845538 
1240.000000	64.851307 
1239.000000	64.863300 
1238.000000	64.878463 
1237.000000	64.893698 
1236.000000	64.906287 
1235.000000	64.914560 
1234.000000	64.917802 
1233.000000	64.916372 
1232.000000	64.911079 
1231.000000	64.902997 
1230.000000	64.892840 
1229.000000	64.880704 
1228.000000	64.865970 
1227.000000	64.847660 
1226.000000	64.824986 
1225.000000	64.797711 
1224.000000	64.766645 
1223.000000	64.733743 
1222.000000	64.702129 
1221.000000	64.675283 
1220.000000	64.656853 
1219.000000	64.649605 
1218.000000	64.655351 
1217.000000	64.674091 
1216.000000	64.704751 
1215.000000	64.745116 
1214.000000	64.792466 
1213.000000	64.844083 
1212.000000	64.897298 
1211.000000	64.949822 
1210.000000	64.999389 
1209.000000	65.043807 
1208.000000	65.080714 
1207.000000	65.107870 
1206.000000	65.122914 
1205.000000	65.124201 
1204.000000	65.110802 
1203.000000	65.083241 
1202.000000	65.043401 
1201.000000	64.994597 
1200.000000	64.941167 
1199.000000	64.888024 
1198.000000	64.839887 
1197.000000	64.800715 
1196.000000	64.773082 
1195.000000	64.757871 
1194.000000	64.754438 
1193.000000	64.760708 
1192.000000	64.773583 
1191.000000	64.789652 
1190.000000	64.805626 
1189.000000	64.818787 
1188.000000	64.826989 
1187.000000	64.829087 
1186.000000	64.824604 
1185.000000	64.813733 
1184.000000	64.797186 
1183.000000	64.775824 
1182.000000	64.750695 
1181.000000	64.722943 
1180.000000	64.694094 
1179.000000	64.665603 
1178.000000	64.638900 
1177.000000	64.615178 
1176.000000	64.595198 
1175.000000	64.579200 
1174.000000	64.566898 
1173.000000	64.557766 
1172.000000	64.551115 
1171.000000	64.546442 
1170.000000	64.543724 
1169.000000	64.542865 
1168.000000	64.544057 
1167.000000	64.547419 
1166.000000	64.553427 
1165.000000	64.562344 
1164.000000	64.574503 
1163.000000	64.590167 
1162.000000	64.609313 
1161.000000	64.631509 
1160.000000	64.655804 
1159.000000	64.680409 
1158.000000	64.703059 
1157.000000	64.721322 
1156.000000	64.733099 
1155.000000	64.736986 
1154.000000	64.732742 
1153.000000	64.721560 
1152.000000	64.705777 
1151.000000	64.688658 
1150.000000	64.673376 
1149.000000	64.662480 
1148.000000	64.657616 
1147.000000	64.659309 
1146.000000	64.667201 
1145.000000	64.680314 
1144.000000	64.697623 
1143.000000	64.718008 
1142.000000	64.740467 
1141.000000	64.763712 
1140.000000	64.785885 
1139.000000	64.804768 
1138.000000	64.818096 
1137.000000	64.823913 
1136.000000	64.821219 
1135.000000	64.809751 
1134.000000	64.790534 
1133.000000	64.765191 
1132.000000	64.736199 
1131.000000	64.706039 
1130.000000	64.676833 
1129.000000	64.650249 
1128.000000	64.627051 
1127.000000	64.607691 
1126.000000	64.592599 
1125.000000	64.582228 
1124.000000	64.577054 
1123.000000	64.577770 
1122.000000	64.584827 
1121.000000	64.598202 
1120.000000	64.616918 
1119.000000	64.639067 
1118.000000	64.661788 
1117.000000	64.681601 
1116.000000	64.694762 
1115.000000	64.697670 
1114.000000	64.687705 
1113.000000	64.663457 
1112.000000	64.626121 
1111.000000	64.579010 
1110.000000	64.528131 
1109.000000	64.481019 
1108.000000	64.445757 
1107.000000	64.429354 
1106.000000	64.435911 
1105.000000	64.466071 
1104.000000	64.515995 
1103.000000	64.578223 
1102.000000	64.642620 
1101.000000	64.698672 
1100.000000	64.737224 
1099.000000	64.752054 
1098.000000	64.741253 
1097.000000	64.707231 
1096.000000	64.655947 
1095.000000	64.595150 
1094.000000	64.532995 
1093.000000	64.476418 
1092.000000	64.430117 
1091.000000	64.396095 
1090.000000	64.374136 
1089.000000	64.362430 
1088.000000	64.358520 
1087.000000	64.360308 
1086.000000	64.365983 
1085.000000	64.374923 
1084.000000	64.387321 
1083.000000	64.404153 
1082.000000	64.425611 
1081.000000	64.451837 
1080.000000	64.481782 
1079.000000	64.513921 
1078.000000	64.546251 
1077.000000	64.576911 
1076.000000	64.604401 
1075.000000	64.628028 
1074.000000	64.648485 
1073.000000	64.666914 
1072.000000	64.684677 
1071.000000	64.702606 
1070.000000	64.720582 
1069.000000	64.737391 
1068.000000	64.750933 
1067.000000	64.758872 
1066.000000	64.759325 
1065.000000	64.751338 
1064.000000	64.735484 
1063.000000	64.713978 
1062.000000	64.689850 
1061.000000	64.666128 
1060.000000	64.644789 
1059.000000	64.626169 
1058.000000	64.609098 
1057.000000	64.591050 
1056.000000	64.569759 
1055.000000	64.543318 
1054.000000	64.512228 
1053.000000	64.479732 
1052.000000	64.451599 
1051.000000	64.434242 
1050.000000	64.433598 
1049.000000	64.453148 
1048.000000	64.493036 
1047.000000	64.549040 
1046.000000	64.614129 
1045.000000	64.679956 
1044.000000	64.738845 
1043.000000	64.785289 
1042.000000	64.816856 
1041.000000	64.834237 
1040.000000	64.840149 
1039.000000	64.838314 
1038.000000	64.831972 
1037.000000	64.822864 
1036.000000	64.811587 
1035.000000	64.797234 
1034.000000	64.778017 
1033.000000	64.751482 
1032.000000	64.716267 
1031.000000	64.671516 
1030.000000	64.617037 
1029.000000	64.553308 
1028.000000	64.481401 
1027.000000	64.403295 
1026.000000	64.321494 
1025.000000	64.239668 
1024.000000	64.162111 
1023.000000	64.094233 
1022.000000	64.041519 
1021.000000	64.008903 
1020.000000	63.999414 
1019.000000	64.013552 
1018.000000	64.048361 
1017.000000	64.098358 
1016.000000	64.155578 
1015.000000	64.212417 
1014.000000	64.262700 
1013.000000	64.303326 
1012.000000	64.334464 
1011.000000	64.359593 
1010.000000	64.384293 
1009.000000	64.414525 
1008.000000	64.455008 
1007.000000	64.508366 
1006.000000	64.574003 
1005.000000	64.648890 
1004.000000	64.727139 
1003.000000	64.801645 
1002.000000	64.864873 
1001.000000	64.910554 
1000.000000	64.934492 
999.000000	 64.935255 
998.000000	 64.914464 
997.000000	 64.877057 
996.000000	 64.830017 
995.000000	 64.781379 
994.000000	 64.738368 
993.000000	 64.707183 
992.000000	 64.690518 
991.000000	 64.687466 
990.000000	 64.694404 
989.000000	 64.706420 
988.000000	 64.719223 
987.000000	 64.730381 
986.000000	 64.740180 
985.000000	 64.751029 
984.000000	 64.765977 
983.000000	 64.786934 
982.000000	 64.812612 
981.000000	 64.838147 
980.000000	 64.856004 
979.000000	 64.857983 
978.000000	 64.837837 
977.000000	 64.793181 
976.000000	 64.727139 
975.000000	 64.647293 
974.000000	 64.564394 
973.000000	 64.489603 
972.000000	 64.431691 
971.000000	 64.395856 
970.000000	 64.381408 
969.000000	 64.385175 
968.000000	 64.402842 
967.000000	 64.431667 
966.000000	 64.470958 
965.000000	 64.522433 
964.000000	 64.588737 
963.000000	 64.670968 
962.000000	 64.766454 
961.000000	 64.868521 
960.000000	 64.966821 
959.000000	 65.049672 
958.000000	 65.106487 
957.000000	 65.130949 
956.000000	 65.122580 
955.000000	 65.087532 
954.000000	 65.037298 
953.000000	 64.986252 
952.000000	 64.947938 
951.000000	 64.933085 
950.000000	 64.945864 
949.000000	 64.984273 
948.000000	 65.039062 
947.000000	 65.097975 
946.000000	 65.146350 
945.000000	 65.171241 
944.000000	 65.163350 
943.000000	 65.118813 
942.000000	 65.040040 
941.000000	 64.934706 
940.000000	 64.814138 
939.000000	 64.691209 
938.000000	 64.577221 
937.000000	 64.480352 
936.000000	 64.403915 
935.000000	 64.346647 
934.000000	 64.304399 
933.000000	 64.272356 
932.000000	 64.246416 
931.000000	 64.224720 
930.000000	 64.208149 
929.000000	 64.199972 
928.000000	 64.203763 
927.000000	 64.222431 
926.000000	 64.257001 
925.000000	 64.306354 
924.000000	 64.367079 
923.000000	 64.434146 
922.000000	 64.502263 
921.000000	 64.566349 
920.000000	 64.622974 
919.000000	 64.669823 
918.000000	 64.705395 
917.000000	 64.728593 
916.000000	 64.738655 
915.000000	 64.734649 
914.000000	 64.716291 
913.000000	 64.683771 
912.000000	 64.639258 
911.000000	 64.585876 
910.000000	 64.528012 
909.000000	 64.470362 
908.000000	 64.417958 
907.000000	 64.374566 
906.000000	 64.342451 
905.000000	 64.322376 
904.000000	 64.313840 
903.000000	 64.315271 
902.000000	 64.324855 
901.000000	 64.340615 
900.000000	 64.361119 
899.000000	 64.385390 
898.000000	 64.412856 
897.000000	 64.442658 
896.000000	 64.473676 
895.000000	 64.504194 
894.000000	 64.532351 
893.000000	 64.555835 
892.000000	 64.572906 
891.000000	 64.582943 
890.000000	 64.586949 
889.000000	 64.586925 
888.000000	 64.586091 
887.000000	 64.588451 
886.000000	 64.597487 
885.000000	 64.615321 
884.000000	 64.641737 
883.000000	 64.674329 
882.000000	 64.708375 
881.000000	 64.738321 
880.000000	 64.758419 
879.000000	 64.764165 
878.000000	 64.753651 
877.000000	 64.727902 
876.000000	 64.690518 
875.000000	 64.646697 
874.000000	 64.602112 
873.000000	 64.561605 
872.000000	 64.527916 
871.000000	 64.501214 
870.000000	 64.479732 
869.000000	 64.460182 
868.000000	 64.439153 
867.000000	 64.413928 
866.000000	 64.383435 
865.000000	 64.348006 
864.000000	 64.309406 
863.000000	 64.269757 
862.000000	 64.230704 
861.000000	 64.193296 
860.000000	 64.157629 
859.000000	 64.123749 
858.000000	 64.091634 
857.000000	 64.062523 
856.000000	 64.038825 
855.000000	 64.023971 
854.000000	 64.021444 
853.000000	 64.033412 
852.000000	 64.059758 
851.000000	 64.097356 
850.000000	 64.140391 
849.000000	 64.181637 
848.000000	 64.214205 
847.000000	 64.233231 
846.000000	 64.237141 
845.000000	 64.228177 
844.000000	 64.211606 
843.000000	 64.194464 
842.000000	 64.183688 
841.000000	 64.184236 
840.000000	 64.198112 
839.000000	 64.224290 
838.000000	 64.258885 
837.000000	 64.296412 
836.000000	 64.331030 
835.000000	 64.358234 
834.000000	 64.375448 
833.000000	 64.382028 
832.000000	 64.379215 
831.000000	 64.369201 
830.000000	 64.354538 
829.000000	 64.337134 
828.000000	 64.318227 
827.000000	 64.298605 
826.000000	 64.278674 
825.000000	 64.258956 
824.000000	 64.240384 
823.000000	 64.224267 
822.000000	 64.211893 
821.000000	 64.204359 
820.000000	 64.201951 
819.000000	 64.204168 
818.000000	 64.209270 
817.000000	 64.214849 
816.000000	 64.218425 
815.000000	 64.218020 
814.000000	 64.213061 
813.000000	 64.204502 
812.000000	 64.194273 
811.000000	 64.184927 
810.000000	 64.179015 
809.000000	 64.178133 
808.000000	 64.182138 
807.000000	 64.189434 
806.000000	 64.197683 
805.000000	 64.203858 
804.000000	 64.205241 
803.000000	 64.199542 
802.000000	 64.185690 
801.000000	 64.163613 
800.000000	 64.134097 
799.000000	 64.098954 
798.000000	 64.060616 
797.000000	 64.022541 
796.000000	 63.988876 
795.000000	 63.964319 
794.000000	 63.953471 
793.000000	 63.960576 
792.000000	 63.988208 
791.000000	 64.036488 
790.000000	 64.102029 
789.000000	 64.178395 
788.000000	 64.256143 
787.000000	 64.324879 
786.000000	 64.374184 
785.000000	 64.395880 
784.000000	 64.385199 
783.000000	 64.341902 
782.000000	 64.269900 
781.000000	 64.176702 
780.000000	 64.072012 
779.000000	 63.966846 
778.000000	 63.870954 
777.000000	 63.792061 
776.000000	 63.734030 
775.000000	 63.697004 
774.000000	 63.677906 
773.000000	 63.671469 
772.000000	 63.672399 
771.000000	 63.676762 
770.000000	 63.683128 
769.000000	 63.692474 
768.000000	 63.707709 
767.000000	 63.732123 
766.000000	 63.767528 
765.000000	 63.812994 
764.000000	 63.864517 
763.000000	 63.915181 
762.000000	 63.957095 
761.000000	 63.982677 
760.000000	 63.987112 
759.000000	 63.968229 
758.000000	 63.928222 
757.000000	 63.871359 
756.000000	 63.803076 
755.000000	 63.728308 
754.000000	 63.650321 
753.000000	 63.571262 
752.000000	 63.492465 
751.000000	 63.416266 
750.000000	 63.346505 
749.000000	 63.288807 
748.000000	 63.249611 
747.000000	 63.234758 
746.000000	 63.247632 
745.000000	 63.287520 
744.000000	 63.348865 
743.000000	 63.421964 
742.000000	 63.494610 
741.000000	 63.554930 
740.000000	 63.594031 
739.000000	 63.607668 
738.000000	 63.597106 
737.000000	 63.568830 
736.000000	 63.532662 
735.000000	 63.499069 
734.000000	 63.476634 
733.000000	 63.470864 
732.000000	 63.482594 
731.000000	 63.509297 
730.000000	 63.545203 
729.000000	 63.583850 
728.000000	 63.619041 
727.000000	 63.646411 
726.000000	 63.663911 
725.000000	 63.671541 
724.000000	 63.670897 
723.000000	 63.664674 
722.000000	 63.654923 
721.000000	 63.642311 
720.000000	 63.626074 
719.000000	 63.604879 
718.000000	 63.576698 
717.000000	 63.540267 
716.000000	 63.495087 
715.000000	 63.442158 
714.000000	 63.383722 
713.000000	 63.323116 
712.000000	 63.263797 
711.000000	 63.209056 
710.000000	 63.161730 
709.000000	 63.124084 
708.000000	 63.097333 
707.000000	 63.081860 
706.000000	 63.077425 
705.000000	 63.083195 
704.000000	 63.097238 
703.000000	 63.117146 
702.000000	 63.139414 
701.000000	 63.161063 
700.000000	 63.179135 
699.000000	 63.192605 
698.000000	 63.202333 
697.000000	 63.210964 
696.000000	 63.222146 
695.000000	 63.238668 
694.000000	 63.261795 
693.000000	 63.289189 
692.000000	 63.315367 
691.000000	 63.332676 
690.000000	 63.333392 
689.000000	 63.312172 
688.000000	 63.267946 
687.000000	 63.204908 
686.000000	 63.131856 
685.000000	 63.060522 
684.000000	 63.002514 
683.000000	 62.966179 
682.000000	 62.954354 
681.000000	 62.963986 
680.000000	 62.986969 
679.000000	 63.012480 
678.000000	 63.029980 
677.000000	 63.032579 
676.000000	 63.018631 
675.000000	 62.991285 
674.000000	 62.957429 
673.000000	 62.925148 
672.000000	 62.900805 
671.000000	 62.887120 
670.000000	 62.881922 
669.000000	 62.879204 
668.000000	 62.870573 
667.000000	 62.848138 
666.000000	 62.806725 
665.000000	 62.745714 
664.000000	 62.669038 
663.000000	 62.584614 
662.000000	 62.502217 
661.000000	 62.431120 
660.000000	 62.378168 
659.000000	 62.346363 
658.000000	 62.334728 
657.000000	 62.339091 
656.000000	 62.353587 
655.000000	 62.372660 
654.000000	 62.391901 
653.000000	 62.409353 
652.000000	 62.425279 
651.000000	 62.442016 
650.000000	 62.462139 
649.000000	 62.487745 
648.000000	 62.519454 
647.000000	 62.555956 
646.000000	 62.594175 
645.000000	 62.629508 
644.000000	 62.657141 
643.000000	 62.673020 
642.000000	 62.675261 
641.000000	 62.664389 
640.000000	 62.643170 
639.000000	 62.616515 
638.000000	 62.590479 
637.000000	 62.571024 
636.000000	 62.562417 
635.000000	 62.566518 
634.000000	 62.582373 
633.000000	 62.606406 
632.000000	 62.632966 
631.000000	 62.655782 
630.000000	 62.668824 
629.000000	 62.667155 
628.000000	 62.647342 
627.000000	 62.607741 
626.000000	 62.548708 
625.000000	 62.472009 
624.000000	 62.381219 
623.000000	 62.280750 
622.000000	 62.176823 
621.000000	 62.076592 
620.000000	 61.988592 
619.000000	 61.921405 
618.000000	 61.882948 
617.000000	 61.878848 
616.000000	 61.911177 
615.000000	 61.977171 
614.000000	 62.069129 
613.000000	 62.175083 
612.000000	 62.280607 
611.000000	 62.370681 
610.000000	 62.433195 
609.000000	 62.460637 
608.000000	 62.451863 
607.000000	 62.411427 
606.000000	 62.349057 
605.000000	 62.276673 
604.000000	 62.205862 
603.000000	 62.144875 
602.000000	 62.098002 
601.000000	 62.064695 
600.000000	 62.040710 
599.000000	 62.020039 
598.000000	 61.997675 
597.000000	 61.971402 
596.000000	 61.942434 
595.000000	 61.915445 
594.000000	 61.896395 
593.000000	 61.891150 
592.000000	 61.903023 
591.000000	 61.931896 
590.000000	 61.973357 
589.000000	 62.020087 
588.000000	 62.063884 
587.000000	 62.097334 
586.000000	 62.115883 
585.000000	 62.118196 
584.000000	 62.106323 
583.000000	 62.083864 
582.000000	 62.054538 
581.000000	 62.019896 
580.000000	 61.978387 
579.000000	 61.925625 
578.000000	 61.855721 
577.000000	 61.763048 
576.000000	 61.644840 
575.000000	 61.502838 
574.000000	 61.344432 
573.000000	 61.181616 
572.000000	 61.029863 
571.000000	 60.904598 
570.000000	 60.818982 
569.000000	 60.780596 
568.000000	 60.790657 
567.000000	 60.842895 
566.000000	 60.925674 
565.000000	 61.023449 
564.000000	 61.120605 
563.000000	 61.203694 
562.000000	 61.263895 
561.000000	 61.297154 
560.000000	 61.304807 
559.000000	 61.291742 
558.000000	 61.264681 
557.000000	 61.230230 
556.000000	 61.193537 
555.000000	 61.157846 
554.000000	 61.124086 
553.000000	 61.091709 
552.000000	 61.059403 
551.000000	 61.026310 
550.000000	 60.991978 
549.000000	 60.956740 
548.000000	 60.920834 
547.000000	 60.885024 
546.000000	 60.849928 
545.000000	 60.816931 
544.000000	 60.787487 
543.000000	 60.763645 
542.000000	 60.748672 
541.000000	 60.745239 
540.000000	 60.754179 
539.000000	 60.773611 
538.000000	 60.799098 
537.000000	 60.823631 
536.000000	 60.839104 
535.000000	 60.837912 
534.000000	 60.814714 
533.000000	 60.767984 
532.000000	 60.700988 
531.000000	 60.619831 
530.000000	 60.531949 
529.000000	 60.444307 
528.000000	 60.361957 
527.000000	 60.286450 
526.000000	 60.216188 
525.000000	 60.147619 
524.000000	 60.077333 
523.000000	 60.004115 
522.000000	 59.930610 
521.000000	 59.862422 
520.000000	 59.807729 
519.000000	 59.774708 
518.000000	 59.770107 
517.000000	 59.796380 
516.000000	 59.851455 
515.000000	 59.928536 
514.000000	 60.017228 
513.000000	 60.105824 
512.000000	 60.183048 
511.000000	 60.240244 
510.000000	 60.271549 
509.000000	 60.275149 
508.000000	 60.251164 
507.000000	 60.202145 
506.000000	 60.129857 
505.000000	 60.035157 
504.000000	 59.917950 
503.000000	 59.778761 
502.000000	 59.620618 
501.000000	 59.450817 
500.000000	 59.281349 
499.000000	 59.127950 
498.000000	 59.008383 
497.000000	 58.939099 
496.000000	 58.931541 
495.000000	 58.989238 
494.000000	 59.106373 
493.000000	 59.268307 
492.000000	 59.453558 
491.000000	 59.637522 
490.000000	 59.796714 
489.000000	 59.912633 
488.000000	 59.973192 
487.000000	 59.975314 
486.000000	 59.923672 
485.000000	 59.830498 
484.000000	 59.711933 
483.000000	 59.586501 
482.000000	 59.473609 
481.000000	 59.388828 
480.000000	 59.344244 
479.000000	 59.342789 
478.000000	 59.380054 
477.000000	 59.441971 
476.000000	 59.508562 
475.000000	 59.556889 
474.000000	 59.566354 
473.000000	 59.523653 
472.000000	 59.425783 
471.000000	 59.280920 
470.000000	 59.106302 
469.000000	 58.925962 
468.000000	 58.764195 
467.000000	 58.639335 
466.000000	 58.558917 
465.000000	 58.520150 
464.000000	 58.509421 
463.000000	 58.506751 
462.000000	 58.490848 
461.000000	 58.443045 
460.000000	 58.353877 
459.000000	 58.225297 
458.000000	 58.070373 
457.000000	 57.906413 
456.000000	 57.754230 
455.000000	 57.633614 
454.000000	 57.557511 
453.000000	 57.528305 
452.000000	 57.538294 
451.000000	 57.573008 
450.000000	 57.613134 
449.000000	 57.639241 
448.000000	 57.637310 
447.000000	 57.602334 
446.000000	 57.538866 
445.000000	 57.459449 
444.000000	 57.386946 
443.000000	 57.348608 
442.000000	 57.369375 
441.000000	 57.464933 
440.000000	 57.638192 
439.000000	 57.875490 
438.000000	 58.150577 
437.000000	 58.425521 
436.000000	 58.659505 
435.000000	 58.812189 
434.000000	 58.855867 
433.000000	 58.773159 
432.000000	 58.563113 
431.000000	 58.234381 
430.000000	 57.803606 
429.000000	 57.291889 
428.000000	 56.725311 
427.000000	 56.131434 
426.000000	 55.542850 
425.000000	 54.989528 
424.000000	 54.498124 
423.000000	 54.087400 
422.000000	 53.768897 
421.000000	 53.536725 
420.000000	 53.370475 
419.000000	 53.228020 
418.000000	 53.053689 
417.000000	 52.805805 
416.000000	 52.470588 
415.000000	 52.054405 
414.000000	 51.589536 
413.000000	 51.138281 
412.000000	 50.775575 
411.000000	 50.570750 
410.000000	 50.565767 
409.000000	 50.755906 
408.000000	 51.085615 
407.000000	 51.484727 
406.000000	 51.858496 
405.000000	 52.083182 
404.000000	 52.060437 
403.000000	 51.728129 
402.000000	 51.105928 
401.000000	 50.285625 
400.000000	 49.434876 
399.000000	 48.770856 
398.000000	 48.485851 
397.000000	 48.707413 
396.000000	 49.424767 
395.000000	 50.477051 
394.000000	 51.595759 
393.000000	 52.476000 
392.000000	 52.799534 
391.000000	 52.313852 
390.000000	 50.825381 
389.000000	 48.265480 
388.000000	 44.692134 
387.000000	 40.343856 
386.000000	 35.637378 
385.000000	 31.156086 
384.000000	 27.557682 
383.000000	 25.482702 
382.000000	 25.433468 
381.000000	 27.664494 
380.000000	 32.081031 
379.000000	 38.274383 
378.000000	 45.531320 
377.000000	 53.029036 
376.000000	 60.045170 
375.000000	 66.000175 
374.000000	 70.488142 
373.000000	 73.314476 
372.000000	 74.599480 
371.000000	 74.435520 
370.000000	 72.869110 

