PE IR       SPECTRUM    SPECTRUM    ASCII       PEDS        1.60        
  -1
C-4D09~1.ASC
17/03/28
00:26:33.00
17/03/28
00:26:33.00
tln
$C-4040-8_t0118$<tbV0>[-5.2,13.0,8.0,0.0,27,1,0]
370.000000
64









2002,4.07    
MIRTGS : RIGHTBACK : INTERNAL 2
MIR : ON : INTERNAL 2
OPTKBR

0.200000
8
8.000000
FILLER
RATIO
SPECTRUM
UNLOCKED 256

DOUBLE
64
COMBINED
1
0
0


1.000000
RATIO


1
0
TRUE
51149
0
LEFT NOT FITTED RIGHT NOT FITTED 0
NONE
NONE
15600
12.000000
4.427000
51148
TRUE
1 0 8 72 0 0 0 0 

15798.010000






#HDR
-1
-1
#GR
CM-1
%T
0.00002384185791015625
0.0
5000.000000
-1.000000
4631
8
100.868988
9.752011
#DATA
5000.000000	64.908957  
4999.000000	64.933180  
4998.000000	64.945292  
4997.000000	64.942932  
4996.000000	64.927411  
4995.000000	64.902710  
4994.000000	64.874529  
4993.000000	64.847064  
4992.000000	64.823770  
4991.000000	64.807105  
4990.000000	64.798307  
4989.000000	64.797878  
4988.000000	64.805603  
4987.000000	64.821219  
4986.000000	64.842867  
4985.000000	64.866924  
4984.000000	64.889264  
4983.000000	64.906072  
4982.000000	64.914894  
4981.000000	64.915800  
4980.000000	64.911961  
4979.000000	64.909482  
4978.000000	64.916491  
4977.000000	64.941120  
4976.000000	64.989280  
4975.000000	65.063238  
4974.000000	65.161108  
4973.000000	65.276598  
4972.000000	65.401411  
4971.000000	65.524792  
4970.000000	65.637493  
4969.000000	65.729379  
4968.000000	65.791988  
4967.000000	65.816831  
4966.000000	65.797185  
4965.000000	65.728545  
4964.000000	65.611052  
4963.000000	65.449714  
4962.000000	65.256047  
4961.000000	65.045261  
4960.000000	64.835095  
4959.000000	64.641761  
4958.000000	64.478182  
4957.000000	64.351391  
4956.000000	64.262914  
4955.000000	64.209079  
4954.000000	64.183497  
4953.000000	64.179563  
4952.000000	64.192771  
4951.000000	64.220857  
4950.000000	64.264035  
4949.000000	64.322423  
4948.000000	64.394974  
4947.000000	64.477252  
4946.000000	64.561867  
4945.000000	64.638733  
4944.000000	64.697194  
4943.000000	64.729166  
4942.000000	64.729905  
4941.000000	64.700436  
4940.000000	64.646053  
4939.000000	64.575338  
4938.000000	64.498043  
4937.000000	64.423489  
4936.000000	64.358329  
4935.000000	64.306259  
4934.000000	64.267373  
4933.000000	64.239215  
4932.000000	64.218354  
4931.000000	64.201998  
4930.000000	64.187788  
4929.000000	64.174485  
4928.000000	64.162826  
4927.000000	64.155673  
4926.000000	64.156866  
4925.000000	64.171218  
4924.000000	64.203858  
4923.000000	64.259195  
4922.000000	64.339828  
4921.000000	64.445233  
4920.000000	64.571189  
4919.000000	64.709138  
4918.000000	64.848017  
4917.000000	64.974331  
4916.000000	65.074801  
4915.000000	65.138077  
4914.000000	65.158176  
4913.000000	65.134525  
4912.000000	65.071964  
4911.000000	64.980483  
4910.000000	64.873719  
4909.000000	64.766907  
4908.000000	64.674472  
4907.000000	64.608645  
4906.000000	64.578175  
4905.000000	64.587402  
4904.000000	64.636230  
4903.000000	64.719247  
4902.000000	64.826631  
4901.000000	64.944624  
4900.000000	65.057921  
4899.000000	65.152049  
4898.000000	65.215873  
4897.000000	65.243959  
4896.000000	65.236663  
4895.000000	65.200042  
4894.000000	65.142679  
4893.000000	65.075349  
4892.000000	65.005230  
4891.000000	64.935779  
4890.000000	64.864039  
4889.000000	64.783692  
4888.000000	64.686393  
4887.000000	64.565467  
4886.000000	64.419364  
4885.000000	64.253044  
4884.000000	64.079093  
4883.000000	63.915109  
4882.000000	63.780164  
4881.000000	63.689827  
4880.000000	63.652682  
4879.000000	63.667654  
4878.000000	63.724017  
4877.000000	63.803744  
4876.000000	63.885354  
4875.000000	63.949060  
4874.000000	63.981175  
4873.000000	63.977336  
4872.000000	63.943338  
4871.000000	63.893866  
4870.000000	63.847947  
4869.000000	63.824820  
4868.000000	63.839387  
4867.000000	63.899374  
4866.000000	64.003467  
4865.000000	64.142560  
4864.000000	64.303135  
4863.000000	64.469885  
4862.000000	64.629626  
4861.000000	64.772415  
4860.000000	64.892363  
4859.000000	64.987039  
4858.000000	65.056490  
4857.000000	65.101385  
4856.000000	65.121936  
4855.000000	65.118050  
4854.000000	65.091085  
4853.000000	65.043282  
4852.000000	64.979219  
4851.000000	64.905667  
4850.000000	64.832043  
4849.000000	64.767503  
4848.000000	64.719700  
4847.000000	64.692807  
4846.000000	64.686942  
4845.000000	64.698433  
4844.000000	64.720678  
4843.000000	64.745569  
4842.000000	64.764928  
4841.000000	64.772200  
4840.000000	64.763259  
4839.000000	64.736199  
4838.000000	64.691972  
4837.000000	64.633107  
4836.000000	64.564323  
4835.000000	64.491057  
4834.000000	64.419913  
4833.000000	64.357852  
4832.000000	64.311408  
4831.000000	64.285683  
4830.000000	64.283585  
4829.000000	64.305663  
4828.000000	64.349079  
4827.000000	64.407968  
4826.000000	64.473938  
4825.000000	64.537429  
4824.000000	64.589405  
4823.000000	64.622688  
4822.000000	64.633131  
4821.000000	64.620041  
4820.000000	64.586210  
4819.000000	64.537191  
4818.000000	64.480113  
4817.000000	64.422345  
4816.000000	64.370584  
4815.000000	64.329862  
4814.000000	64.303326  
4813.000000	64.292287  
4812.000000	64.296388  
4811.000000	64.314508  
4810.000000	64.344930  
4809.000000	64.386320  
4808.000000	64.436769  
4807.000000	64.495015  
4806.000000	64.559149  
4805.000000	64.627718  
4804.000000	64.698696  
4803.000000	64.770293  
4802.000000	64.840650  
4801.000000	64.908194  
4800.000000	64.971923  
4799.000000	65.030598  
4798.000000	65.082907  
4797.000000	65.126967  
4796.000000	65.160441  
4795.000000	65.180778  
4794.000000	65.185880  
4793.000000	65.174078  
4792.000000	65.144991  
4791.000000	65.100026  
4790.000000	65.042304  
4789.000000	64.976358  
4788.000000	64.907479  
4787.000000	64.841055  
4786.000000	64.781308  
4785.000000	64.731669  
4784.000000	64.693450  
4783.000000	64.666008  
4782.000000	64.647030  
4781.000000	64.633274  
4780.000000	64.621758  
4779.000000	64.609980  
4778.000000	64.597272  
4777.000000	64.584159  
4776.000000	64.572691  
4775.000000	64.565277  
4774.000000	64.563989  
4773.000000	64.569830  
4772.000000	64.581799  
4771.000000	64.597105  
4770.000000	64.611291  
4769.000000	64.619278  
4768.000000	64.615964  
4767.000000	64.597487  
4766.000000	64.562010  
4765.000000	64.510345  
4764.000000	64.446473  
4763.000000	64.377236  
4762.000000	64.310789  
4761.000000	64.255619  
4760.000000	64.219164  
4759.000000	64.206719  
4758.000000	64.220046  
4757.000000	64.257669  
4756.000000	64.314508  
4755.000000	64.384126  
4754.000000	64.458990  
4753.000000	64.533114  
4752.000000	64.601635  
4751.000000	64.662957  
4750.000000	64.717626  
4749.000000	64.768671  
4748.000000	64.819431  
4747.000000	64.873504  
4746.000000	64.933323  
4745.000000	64.999985  
4744.000000	65.073132  
4743.000000	65.150451  
4742.000000	65.228486  
4741.000000	65.301704  
4740.000000	65.363359  
4739.000000	65.405678  
4738.000000	65.421056  
4737.000000	65.403079  
4736.000000	65.348148  
4735.000000	65.256905  
4734.000000	65.134739  
4733.000000	64.991617  
4732.000000	64.841032  
4731.000000	64.698028  
4730.000000	64.576935  
4729.000000	64.489030  
4728.000000	64.441299  
4727.000000	64.434623  
4726.000000	64.465570  
4725.000000	64.527297  
4724.000000	64.611172  
4723.000000	64.707469  
4722.000000	64.807224  
4721.000000	64.902544  
4720.000000	64.986896  
4719.000000	65.053987  
4718.000000	65.098953  
4717.000000	65.118312  
4716.000000	65.110778  
4715.000000	65.077733  
4714.000000	65.023279  
4713.000000	64.954066  
4712.000000	64.878559  
4711.000000	64.805698  
4710.000000	64.743685  
4709.000000	64.698576  
4708.000000	64.673233  
4707.000000	64.666843  
4706.000000	64.675807  
4705.000000	64.694094  
4704.000000	64.714956  
4703.000000	64.731764  
4702.000000	64.738321  
4701.000000	64.730143  
4700.000000	64.705181  
4699.000000	64.664030  
4698.000000	64.608669  
4697.000000	64.543485  
4696.000000	64.474415  
4695.000000	64.408326  
4694.000000	64.351677  
4693.000000	64.310431  
4692.000000	64.288544  
4691.000000	64.288592  
4690.000000	64.311552  
4689.000000	64.356231  
4688.000000	64.419031  
4687.000000	64.494490  
4686.000000	64.575672  
4685.000000	64.654016  
4684.000000	64.720368  
4683.000000	64.765667  
4682.000000	64.782929  
4681.000000	64.768671  
4680.000000	64.724469  
4679.000000	64.656853  
4678.000000	64.577007  
4677.000000	64.499640  
4676.000000	64.439773  
4675.000000	64.409875  
4674.000000	64.417171  
4673.000000	64.462327  
4672.000000	64.539647  
4671.000000	64.638781  
4670.000000	64.746809  
4669.000000	64.851212  
4668.000000	64.941787  
4667.000000	65.012168  
4666.000000	65.059471  
4665.000000	65.083503  
4664.000000	65.085220  
4663.000000	65.065622  
4662.000000	65.025329  
4661.000000	64.965033  
4660.000000	64.886856  
4659.000000	64.795255  
4658.000000	64.697837  
4657.000000	64.605045  
4656.000000	64.528346  
4655.000000	64.478373  
4654.000000	64.462018  
4653.000000	64.481353  
4652.000000	64.533019  
4651.000000	64.608955  
4650.000000	64.697980  
4649.000000	64.788031  
4648.000000	64.868330  
4647.000000	64.930796  
4646.000000	64.970946  
4645.000000	64.987468  
4644.000000	64.981174  
4643.000000	64.954376  
4642.000000	64.910387  
4641.000000	64.852738  
4640.000000	64.785575  
4639.000000	64.712738  
4638.000000	64.639043  
4637.000000	64.568614  
4636.000000	64.505219  
4635.000000	64.451217  
4634.000000	64.407753  
4633.000000	64.375090  
4632.000000	64.352917  
4631.000000	64.341115  
4630.000000	64.339733  
4629.000000	64.348673  
4628.000000	64.367389  
4627.000000	64.394044  
4626.000000	64.425683  
4625.000000	64.457750  
4624.000000	64.485549  
4623.000000	64.504861  
4622.000000	64.513587  
4621.000000	64.511942  
4620.000000	64.502978  
4619.000000	64.491963  
4618.000000	64.485073  
4617.000000	64.487719  
4616.000000	64.503550  
4615.000000	64.532995  
4614.000000	64.574265  
4613.000000	64.623737  
4612.000000	64.677524  
4611.000000	64.732789  
4610.000000	64.787578  
4609.000000	64.840841  
4608.000000	64.891839  
4607.000000	64.939761  
4606.000000	64.982414  
4605.000000	65.016198  
4604.000000	65.036964  
4603.000000	65.040922  
4602.000000	65.025591  
4601.000000	64.991044  
4600.000000	64.940285  
4599.000000	64.879655  
4598.000000	64.817738  
4597.000000	64.764475  
4596.000000	64.729166  
4595.000000	64.718770  
4594.000000	64.736509  
4593.000000	64.781212  
4592.000000	64.847350  
4591.000000	64.926385  
4590.000000	65.008068  
4589.000000	65.082764  
4588.000000	65.142536  
4587.000000	65.183448  
4586.000000	65.205264  
4585.000000	65.212249  
4584.000000	65.211343  
4583.000000	65.211081  
4582.000000	65.219354  
4581.000000	65.241575  
4580.000000	65.279412  
4579.000000	65.330266  
4578.000000	65.387940  
4577.000000	65.443587  
4576.000000	65.488100  
4575.000000	65.513801  
4574.000000	65.516567  
4573.000000	65.496683  
4572.000000	65.459418  
4571.000000	65.414357  
4570.000000	65.373229  
4569.000000	65.347528  
4568.000000	65.345287  
4567.000000	65.369486  
4566.000000	65.416932  
4565.000000	65.479111  
4564.000000	65.544557  
4563.000000	65.602445  
4562.000000	65.645051  
4561.000000	65.669202  
4560.000000	65.676808  
4559.000000	65.673661  
4558.000000	65.666913  
4557.000000	65.662455  
4556.000000	65.663695  
4555.000000	65.670752  
4554.000000	65.681624  
4553.000000	65.693449  
4552.000000	65.704441  
4551.000000	65.714979  
4550.000000	65.727639  
4549.000000	65.746355  
4548.000000	65.774202  
4547.000000	65.811777  
4546.000000	65.855884  
4545.000000	65.899777  
4544.000000	65.935492  
4543.000000	65.954756  
4542.000000	65.952229  
4541.000000	65.925240  
4540.000000	65.874743  
4539.000000	65.804052  
4538.000000	65.717434  
4537.000000	65.619874  
4536.000000	65.515971  
4535.000000	65.411019  
4534.000000	65.310645  
4533.000000	65.221738  
4532.000000	65.152096  
4531.000000	65.109539  
4530.000000	65.100026  
4529.000000	65.126729  
4528.000000	65.188217  
4527.000000	65.278506  
4526.000000	65.387320  
4525.000000	65.502214  
4524.000000	65.610456  
4523.000000	65.701651  
4522.000000	65.769243  
4521.000000	65.810966  
4520.000000	65.828132  
4519.000000	65.824270  
4518.000000	65.803265  
4517.000000	65.768766  
4516.000000	65.723037  
4515.000000	65.668058  
4514.000000	65.604972  
4513.000000	65.535593  
4512.000000	65.462517  
4511.000000	65.389966  
4510.000000	65.323042  
4509.000000	65.266919  
4508.000000	65.226221  
4507.000000	65.203452  
4506.000000	65.199375  
4505.000000	65.211772  
4504.000000	65.237355  
4503.000000	65.271663  
4502.000000	65.311455  
4501.000000	65.354824  
4500.000000	65.401935  
4499.000000	65.453934  
4498.000000	65.511608  
4497.000000	65.573620  
4496.000000	65.635824  
4495.000000	65.691256  
4494.000000	65.731120  
4493.000000	65.746831  
4492.000000	65.732479  
4491.000000	65.686821  
4490.000000	65.613961  
4489.000000	65.523576  
4488.000000	65.429162  
4487.000000	65.345478  
4486.000000	65.285873  
4485.000000	65.258860  
4484.000000	65.267515  
4483.000000	65.307474  
4482.000000	65.368509  
4481.000000	65.435862  
4480.000000	65.493750  
4479.000000	65.528512  
4478.000000	65.530753  
4477.000000	65.498185  
4476.000000	65.434789  
4475.000000	65.351319  
4474.000000	65.262079  
4473.000000	65.182685  
4472.000000	65.126705  
4471.000000	65.103816  
4470.000000	65.118527  
4469.000000	65.169763  
4468.000000	65.251851  
4467.000000	65.356278  
4466.000000	65.473675  
4465.000000	65.595340  
4464.000000	65.714049  
4463.000000	65.824103  
4462.000000	65.921115  
4461.000000	66.001319  
4460.000000	66.061401  
4459.000000	66.098690  
4458.000000	66.111612  
4457.000000	66.101145  
4456.000000	66.069889  
4455.000000	66.022944  
4454.000000	65.966200  
4453.000000	65.907287  
4452.000000	65.852189  
4451.000000	65.805673  
4450.000000	65.769290  
4449.000000	65.742158  
4448.000000	65.720367  
4447.000000	65.698432  
4446.000000	65.670728  
4445.000000	65.633177  
4444.000000	65.586352  
4443.000000	65.535998  
4442.000000	65.491414  
4441.000000	65.462660  
4440.000000	65.460085  
4439.000000	65.491175  
4438.000000	65.552759  
4437.000000	65.633273  
4436.000000	65.721273  
4435.000000	65.805864  
4434.000000	65.875768  
4433.000000	65.922689  
4432.000000	65.947175  
4431.000000	65.954685  
4430.000000	65.942668  
4429.000000	65.911793  
4428.000000	65.874433  
4427.000000	65.844297  
4426.000000	65.831446  
4425.000000	65.841865  
4424.000000	65.875267  
4423.000000	65.926885  
4422.000000	65.991234  
4421.000000	66.059732  
4420.000000	66.120171  
4419.000000	66.165637  
4418.000000	66.197872  
4417.000000	66.209173  
4416.000000	66.178631  
4415.000000	66.074943  
4414.000000	65.859222  
4413.000000	65.482091  
4412.000000	64.896464  
4411.000000	64.081072  
4410.000000	63.042974  
4409.000000	61.835289  
4408.000000	60.526156  
4407.000000	59.210896  
4406.000000	57.949304  
4405.000000	56.744909  
4404.000000	55.536627  
4403.000000	54.200577  
4402.000000	52.619171  
4401.000000	50.711989  
4400.000000	48.512434  
4399.000000	46.166372  
4398.000000	43.943190  
4397.000000	42.156672  
4396.000000	41.125059  
4395.000000	41.059446  
4394.000000	42.056727  
4393.000000	44.056463  
4392.000000	46.868205  
4391.000000	50.201916  
4390.000000	53.718876  
4389.000000	57.089328  
4388.000000	60.036015  
4387.000000	62.373614  
4386.000000	64.034008  
4385.000000	65.058207  
4384.000000	65.582752  
4383.000000	65.786194  
4382.000000	65.845417  
4381.000000	65.886878  
4380.000000	65.988516  
4379.000000	66.158223  
4378.000000	66.377854  
4377.000000	66.599845  
4376.000000	66.812133  
4375.000000	67.008137  
4374.000000	67.191958  
4373.000000	67.368721  
4372.000000	67.531657  
4371.000000	67.668390  
4370.000000	67.758369  
4369.000000	67.786550  
4368.000000	67.758178  
4367.000000	67.684197  
4366.000000	67.581057  
4365.000000	67.461276  
4364.000000	67.329549  
4363.000000	67.184829  
4362.000000	67.023038  
4361.000000	66.840052  
4360.000000	66.635036  
4359.000000	66.419625  
4358.000000	66.215753  
4357.000000	66.035342  
4356.000000	65.883159  
4355.000000	65.766668  
4354.000000	65.691423  
4353.000000	65.655159  
4352.000000	65.650653  
4351.000000	65.667986  
4350.000000	65.695238  
4349.000000	65.718626  
4348.000000	65.726161  
4347.000000	65.708684  
4346.000000	65.662288  
4345.000000	65.587282  
4344.000000	65.489935  
4343.000000	65.380644  
4342.000000	65.272045  
4341.000000	65.176391  
4340.000000	65.103435  
4339.000000	65.059113  
4338.000000	65.044116  
4337.000000	65.054368  
4336.000000	65.082716  
4335.000000	65.120792  
4334.000000	65.161395  
4333.000000	65.199828  
4332.000000	65.233325  
4331.000000	65.261030  
4330.000000	65.283012  
4329.000000	65.299844  
4328.000000	65.311336  
4327.000000	65.317249  
4326.000000	65.318250  
4325.000000	65.315771  
4324.000000	65.311861  
4323.000000	65.309405  
4322.000000	65.312170  
4321.000000	65.323996  
4320.000000	65.347623  
4319.000000	65.384101  
4318.000000	65.432858  
4317.000000	65.490579  
4316.000000	65.552139  
4315.000000	65.610742  
4314.000000	65.659594  
4313.000000	65.693044  
4312.000000	65.707945  
4311.000000	65.704178  
4310.000000	65.684771  
4309.000000	65.654420  
4308.000000	65.618300  
4307.000000	65.580868  
4306.000000	65.544748  
4305.000000	65.510725  
4304.000000	65.477705  
4303.000000	65.443539  
4302.000000	65.406346  
4301.000000	65.365290  
4300.000000	65.321850  
4299.000000	65.279078  
4298.000000	65.242147  
4297.000000	65.216970  
4296.000000	65.209388  
4295.000000	65.223550  
4294.000000	65.260887  
4293.000000	65.319323  
4292.000000	65.392923  
4291.000000	65.472745  
4290.000000	65.547609  
4289.000000	65.606164  
4288.000000	65.638661  
4287.000000	65.638947  
4286.000000	65.605688  
4285.000000	65.542864  
4284.000000	65.458869  
4283.000000	65.364789  
4282.000000	65.271997  
4281.000000	65.190029  
4280.000000	65.124487  
4279.000000	65.076470  
4278.000000	65.042924  
4277.000000	65.018296  
4276.000000	64.996409  
4275.000000	64.973092  
4274.000000	64.946508  
4273.000000	64.918518  
4272.000000	64.893126  
4271.000000	64.875984  
4270.000000	64.871525  
4269.000000	64.882636  
4268.000000	64.908766  
4267.000000	64.946889  
4266.000000	64.992046  
4265.000000	65.038800  
4264.000000	65.082740  
4263.000000	65.120506  
4262.000000	65.150690  
4261.000000	65.172672  
4260.000000	65.186357  
4259.000000	65.191364  
4258.000000	65.186858  
4257.000000	65.171647  
4256.000000	65.144801  
4255.000000	65.106344  
4254.000000	65.057897  
4253.000000	65.003180  
4252.000000	64.947938  
4251.000000	64.898729  
4250.000000	64.862036  
4249.000000	64.843058  
4248.000000	64.844655  
4247.000000	64.866161  
4246.000000	64.903473  
4245.000000	64.949917  
4244.000000	64.997458  
4243.000000	65.038371  
4242.000000	65.066909  
4241.000000	65.079903  
4240.000000	65.077948  
4239.000000	65.064430  
4238.000000	65.045046  
4237.000000	65.026235  
4236.000000	65.013861  
4235.000000	65.012097  
4234.000000	65.022349  
4233.000000	65.043497  
4232.000000	65.071988  
4231.000000	65.103077  
4230.000000	65.131592  
4229.000000	65.153241  
4228.000000	65.165424  
4227.000000	65.167689  
4226.000000	65.161633  
4225.000000	65.150189  
4224.000000	65.137434  
4223.000000	65.127062  
4222.000000	65.122199  
4221.000000	65.124297  
4220.000000	65.133261  
4219.000000	65.147447  
4218.000000	65.164351  
4217.000000	65.181255  
4216.000000	65.195798  
4215.000000	65.206336  
4214.000000	65.212440  
4213.000000	65.214586  
4212.000000	65.213871  
4211.000000	65.211892  
4210.000000	65.210294  
4209.000000	65.210533  
4208.000000	65.213489  
4207.000000	65.219569  
4206.000000	65.229225  
4205.000000	65.242171  
4204.000000	65.257716  
4203.000000	65.274119  
4202.000000	65.288925  
4201.000000	65.299105  
4200.000000	65.301728  
4199.000000	65.293741  
4198.000000	65.272855  
4197.000000	65.239167  
4196.000000	65.195417  
4195.000000	65.146040  
4194.000000	65.096783  
4193.000000	65.053653  
4192.000000	65.022087  
4191.000000	65.004873  
4190.000000	65.002918  
4189.000000	65.014338  
4188.000000	65.036630  
4187.000000	65.066313  
4186.000000	65.101647  
4185.000000	65.142321  
4184.000000	65.190362  
4183.000000	65.248274  
4182.000000	65.318369  
4181.000000	65.400695  
4180.000000	65.491867  
4179.000000	65.585327  
4178.000000	65.671014  
4177.000000	65.737509  
4176.000000	65.773200  
4175.000000	65.769386  
4174.000000	65.720033  
4173.000000	65.623521  
4172.000000	65.482401  
4171.000000	65.303325  
4170.000000	65.096330  
4169.000000	64.874076  
4168.000000	64.650821  
4167.000000	64.441156  
4166.000000	64.258646  
4165.000000	64.114212  
4164.000000	64.014983  
4163.000000	63.963580  
4162.000000	63.956642  
4161.000000	63.987088  
4160.000000	64.043283  
4159.000000	64.113712  
4158.000000	64.186525  
4157.000000	64.253830  
4156.000000	64.310503  
4155.000000	64.356112  
4154.000000	64.392709  
4153.000000	64.424109  
4152.000000	64.453482  
4151.000000	64.482879  
4150.000000	64.512681  
4149.000000	64.541363  
4148.000000	64.566493  
4147.000000	64.584946  
4146.000000	64.594435  
4145.000000	64.593458  
4144.000000	64.582371  
4143.000000	64.562845  
4142.000000	64.538145  
4141.000000	64.513015  
4140.000000	64.492893  
4139.000000	64.482450  
4138.000000	64.485168  
4137.000000	64.503312  
4136.000000	64.537358  
4135.000000	64.585614  
4134.000000	64.644813  
4133.000000	64.710760  
4132.000000	64.778661  
4131.000000	64.843988  
4130.000000	64.902496  
4129.000000	64.950966  
4128.000000	64.987134  
4127.000000	65.010023  
4126.000000	65.018987  
4125.000000	65.014147  
4124.000000	64.995741  
4123.000000	64.964485  
4122.000000	64.921545  
4121.000000	64.869236  
4120.000000	64.811182  
4119.000000	64.752531  
4118.000000	64.699625  
4117.000000	64.659214  
4116.000000	64.637327  
4115.000000	64.637780  
4114.000000	64.661097  
4113.000000	64.703702  
4112.000000	64.758062  
4111.000000	64.813756  
4110.000000	64.859342  
4109.000000	64.884853  
4108.000000	64.883685  
4107.000000	64.854359  
4106.000000	64.800667  
4105.000000	64.730978  
4104.000000	64.656257  
4103.000000	64.587855  
4102.000000	64.534831  
4101.000000	64.502835  
4100.000000	64.493799  
4099.000000	64.505743  
4098.000000	64.533901  
4097.000000	64.571928  
4096.000000	64.613437  
4095.000000	64.652943  
4094.000000	64.686250  
4093.000000	64.711260  
4092.000000	64.727735  
4091.000000	64.736986  
4090.000000	64.741420  
4089.000000	64.743757  
4088.000000	64.746522  
4087.000000	64.751744  
4086.000000	64.760875  
4085.000000	64.774680  
4084.000000	64.793205  
4083.000000	64.816093  
4082.000000	64.842605  
4081.000000	64.871692  
4080.000000	64.901828  
4079.000000	64.931011  
4078.000000	64.957070  
4077.000000	64.977598  
4076.000000	64.990520  
4075.000000	64.994263  
4074.000000	64.988136  
4073.000000	64.972734  
4072.000000	64.949893  
4071.000000	64.922833  
4070.000000	64.894866  
4069.000000	64.868807  
4068.000000	64.846491  
4067.000000	64.828562  
4066.000000	64.814543  
4065.000000	64.803314  
4064.000000	64.793491  
4063.000000	64.783787  
4062.000000	64.773511  
4061.000000	64.762854  
4060.000000	64.752030  
4059.000000	64.741349  
4058.000000	64.731287  
4057.000000	64.722347  
4056.000000	64.714670  
4055.000000	64.708232  
4054.000000	64.702749  
4053.000000	64.697837  
4052.000000	64.692902  
4051.000000	64.687395  
4050.000000	64.680767  
4049.000000	64.673185  
4048.000000	64.664816  
4047.000000	64.656782  
4046.000000	64.650583  
4045.000000	64.648270  
4044.000000	64.651918  
4043.000000	64.663243  
4042.000000	64.682817  
4041.000000	64.709901  
4040.000000	64.742279  
4039.000000	64.775943  
4038.000000	64.805769  
4037.000000	64.826393  
4036.000000	64.833211  
4035.000000	64.822888  
4034.000000	64.794087  
4033.000000	64.748191  
4032.000000	64.689254  
4031.000000	64.623403  
4030.000000	64.558172  
4029.000000	64.501166  
4028.000000	64.458894  
4027.000000	64.435601  
4026.000000	64.432668  
4025.000000	64.448261  
4024.000000	64.478421  
4023.000000	64.517521  
4022.000000	64.559864  
4021.000000	64.600348  
4020.000000	64.635586  
4019.000000	64.663505  
4018.000000	64.683914  
4017.000000	64.697599  
4016.000000	64.705920  
4015.000000	64.710021  
4014.000000	64.711070  
4013.000000	64.710330  
4012.000000	64.709305  
4011.000000	64.709806  
4010.000000	64.714074  
4009.000000	64.724349  
4008.000000	64.741921  
4007.000000	64.766716  
4006.000000	64.796948  
4005.000000	64.829111  
4004.000000	64.858841  
4003.000000	64.881563  
4002.000000	64.893937  
4001.000000	64.894032  
4000.000000	64.881801  
3999.000000	64.858937  
3998.000000	64.828133  
3997.000000	64.793086  
3996.000000	64.757609  
3995.000000	64.725565  
3994.000000	64.700269  
3993.000000	64.685082  
3992.000000	64.683103  
3991.000000	64.696979  
3990.000000	64.727950  
3989.000000	64.775681  
3988.000000	64.837932  
3987.000000	64.910340  
3986.000000	64.986729  
3985.000000	65.060281  
3984.000000	65.124845  
3983.000000	65.176057  
3982.000000	65.212011  
3981.000000	65.233421  
3980.000000	65.242958  
3979.000000	65.244746  
3978.000000	65.242671  
3977.000000	65.240144  
3976.000000	65.238428  
3975.000000	65.237903  
3974.000000	65.236616  
3973.000000	65.232348  
3972.000000	65.221810  
3971.000000	65.202546  
3970.000000	65.172553  
3969.000000	65.130996  
3968.000000	65.078544  
3967.000000	65.017366  
3966.000000	64.951252  
3965.000000	64.885163  
3964.000000	64.824867  
3963.000000	64.776086  
3962.000000	64.743447  
3961.000000	64.729499  
3960.000000	64.734220  
3959.000000	64.754843  
3958.000000	64.786601  
3957.000000	64.823627  
3956.000000	64.860463  
3955.000000	64.892745  
3954.000000	64.918231  
3953.000000	64.936661  
3952.000000	64.949178  
3951.000000	64.957141  
3950.000000	64.961886  
3949.000000	64.963698  
3948.000000	64.961814  
3947.000000	64.954900  
3946.000000	64.942145  
3945.000000	64.923810  
3944.000000	64.901971  
3943.000000	64.879846  
3942.000000	64.861655  
3941.000000	64.851140  
3940.000000	64.850568  
3939.000000	64.860200  
3938.000000	64.877724  
3937.000000	64.899516  
3936.000000	64.921474  
3935.000000	64.940571  
3934.000000	64.955306  
3933.000000	64.966821  
3932.000000	64.978313  
3931.000000	64.993953  
3930.000000	65.017414  
3929.000000	65.050840  
3928.000000	65.093612  
3927.000000	65.142321  
3926.000000	65.190911  
3925.000000	65.232467  
3924.000000	65.260195  
3923.000000	65.269017  
3922.000000	65.255951  
3921.000000	65.221190  
3920.000000	65.167284  
3919.000000	65.098834  
3918.000000	65.021514  
3917.000000	64.941453  
3916.000000	64.864444  
3915.000000	64.795947  
3914.000000	64.740419  
3913.000000	64.701437  
3912.000000	64.681172  
3911.000000	64.680266  
3910.000000	64.697694  
3909.000000	64.729976  
3908.000000	64.772439  
3907.000000	64.819288  
3906.000000	64.864969  
3905.000000	64.904522  
3904.000000	64.935231  
3903.000000	64.956879  
3902.000000	64.971733  
3901.000000	64.983749  
3900.000000	64.997673  
3899.000000	65.017747  
3898.000000	65.046715  
3897.000000	65.084838  
3896.000000	65.129852  
3895.000000	65.177178  
3894.000000	65.221381  
3893.000000	65.256881  
3892.000000	65.279579  
3891.000000	65.287160  
3890.000000	65.279793  
3889.000000	65.259361  
3888.000000	65.229129  
3887.000000	65.192484  
3886.000000	65.152788  
3885.000000	65.112066  
3884.000000	65.071320  
3883.000000	65.030527  
3882.000000	64.989638  
3881.000000	64.948749  
3880.000000	64.908885  
3879.000000	64.871621  
3878.000000	64.839148  
3877.000000	64.813542  
3876.000000	64.796400  
3875.000000	64.788293  
3874.000000	64.788699  
3873.000000	64.796710  
3872.000000	64.811563  
3871.000000	64.832806  
3870.000000	64.860272  
3869.000000	64.894104  
3868.000000	64.933824  
3867.000000	64.978146  
3866.000000	65.024518  
3865.000000	65.069293  
3864.000000	65.107846  
3863.000000	65.135812  
3862.000000	65.149617  
3861.000000	65.147686  
3860.000000	65.130329  
3859.000000	65.099883  
3858.000000	65.060067  
3857.000000	65.015220  
3856.000000	64.969730  
3855.000000	64.927434  
3854.000000	64.891290  
3853.000000	64.863324  
3852.000000	64.844870  
3851.000000	64.836835  
3850.000000	64.839100  
3849.000000	64.850544  
3848.000000	64.868831  
3847.000000	64.890980  
3846.000000	64.913630  
3845.000000	64.933967  
3844.000000	64.950370  
3843.000000	64.962911  
3842.000000	64.973545  
3841.000000	64.985275  
3840.000000	65.001368  
3839.000000	65.023636  
3838.000000	65.051937  
3837.000000	65.083336  
3836.000000	65.112709  
3835.000000	65.133571  
3834.000000	65.139913  
3833.000000	65.127921  
3832.000000	65.097069  
3831.000000	65.050792  
3830.000000	64.995765  
3829.000000	64.940953  
3828.000000	64.895176  
3827.000000	64.865946  
3826.000000	64.857578  
3825.000000	64.871096  
3824.000000	64.904260  
3823.000000	64.952135  
3822.000000	65.008211  
3821.000000	65.065836  
3820.000000	65.119361  
3819.000000	65.164208  
3818.000000	65.197348  
3817.000000	65.216994  
3816.000000	65.222477  
3815.000000	65.213966  
3814.000000	65.192317  
3813.000000	65.159344  
3812.000000	65.117526  
3811.000000	65.070605  
3810.000000	65.022826  
3809.000000	64.978599  
3808.000000	64.941668  
3807.000000	64.914774  
3806.000000	64.898824  
3805.000000	64.892601  
3804.000000	64.893603  
3803.000000	64.898514  
3802.000000	64.904499  
3801.000000	64.909029  
3800.000000	64.911770  
3799.000000	64.913845  
3798.000000	64.918017  
3797.000000	64.927458  
3796.000000	64.945387  
3795.000000	64.973831  
3794.000000	65.013408  
3793.000000	65.062737  
3792.000000	65.118956  
3791.000000	65.177774  
3790.000000	65.234494  
3789.000000	65.284585  
3788.000000	65.324401  
3787.000000	65.351557  
3786.000000	65.365147  
3785.000000	65.365290  
3784.000000	65.353369  
3783.000000	65.330886  
3782.000000	65.300297  
3781.000000	65.263223  
3780.000000	65.221142  
3779.000000	65.174651  
3778.000000	65.124654  
3777.000000	65.071797  
3776.000000	65.017008  
3775.000000	64.961838  
3774.000000	64.908289  
3773.000000	64.859127  
3772.000000	64.816999  
3771.000000	64.784717  
3770.000000	64.764094  
3769.000000	64.756655  
3768.000000	64.763164  
3767.000000	64.783501  
3766.000000	64.816403  
3765.000000	64.859843  
3764.000000	64.910697  
3763.000000	64.964938  
3762.000000	65.017724  
3761.000000	65.064024  
3760.000000	65.099263  
3759.000000	65.119719  
3758.000000	65.123629  
3757.000000	65.111827  
3756.000000	65.087556  
3755.000000	65.056324  
3754.000000	65.024232  
3753.000000	64.997220  
3752.000000	64.979410  
3751.000000	64.972734  
3750.000000	64.976429  
3749.000000	64.987540  
3748.000000	65.001773  
3747.000000	65.015101  
3746.000000	65.024089  
3745.000000	65.026617  
3744.000000	65.022325  
3743.000000	65.012145  
3742.000000	64.998245  
3741.000000	64.983129  
3740.000000	64.969420  
3739.000000	64.959287  
3738.000000	64.954328  
3737.000000	64.955091  
3736.000000	64.961218  
3735.000000	64.971542  
3734.000000	64.984178  
3733.000000	64.997053  
3732.000000	65.007901  
3731.000000	65.015196  
3730.000000	65.017986  
3729.000000	65.016627  
3728.000000	65.012335  
3727.000000	65.007138  
3726.000000	65.003323  
3725.000000	65.002799  
3724.000000	65.006756  
3723.000000	65.015244  
3722.000000	65.027356  
3721.000000	65.041327  
3720.000000	65.055298  
3719.000000	65.067386  
3718.000000	65.076327  
3717.000000	65.081477  
3716.000000	65.082740  
3715.000000	65.080404  
3714.000000	65.074872  
3713.000000	65.066218  
3712.000000	65.054512  
3711.000000	65.039539  
3710.000000	65.021419  
3709.000000	65.000724  
3708.000000	64.978909  
3707.000000	64.958477  
3706.000000	64.942550  
3705.000000	64.934468  
3704.000000	64.936971  
3703.000000	64.951395  
3702.000000	64.977049  
3701.000000	65.011143  
3700.000000	65.049219  
3699.000000	65.085577  
3698.000000	65.114521  
3697.000000	65.131425  
3696.000000	65.133452  
3695.000000	65.120148  
3694.000000	65.093350  
3693.000000	65.056777  
3692.000000	65.015292  
3691.000000	64.974164  
3690.000000	64.938020  
3689.000000	64.910173  
3688.000000	64.892363  
3687.000000	64.884638  
3686.000000	64.885616  
3685.000000	64.892911  
3684.000000	64.903473  
3683.000000	64.914536  
3682.000000	64.923644  
3681.000000	64.929437  
3680.000000	64.931440  
3679.000000	64.930152  
3678.000000	64.926838  
3677.000000	64.923262  
3676.000000	64.920926  
3675.000000	64.920949  
3674.000000	64.923882  
3673.000000	64.929437  
3672.000000	64.936733  
3671.000000	64.944195  
3670.000000	64.950513  
3669.000000	64.953970  
3668.000000	64.953351  
3667.000000	64.947414  
3666.000000	64.935421  
3665.000000	64.916658  
3664.000000	64.890980  
3663.000000	64.858698  
3662.000000	64.820885  
3661.000000	64.779543  
3660.000000	64.737462  
3659.000000	64.698433  
3658.000000	64.666581  
3657.000000	64.645957  
3656.000000	64.639687  
3655.000000	64.649271  
3654.000000	64.674496  
3653.000000	64.712929  
3652.000000	64.760684  
3651.000000	64.812588  
3650.000000	64.863491  
3649.000000	64.908862  
3648.000000	64.945626  
3647.000000	64.972233  
3646.000000	64.989042  
3645.000000	64.997577  
3644.000000	65.000081  
3643.000000	64.998936  
3642.000000	64.995694  
3641.000000	64.991140  
3640.000000	64.985013  
3639.000000	64.976835  
3638.000000	64.965867  
3637.000000	64.951944  
3636.000000	64.935493  
3635.000000	64.918065  
3634.000000	64.901638  
3633.000000	64.888238  
3632.000000	64.879393  
3631.000000	64.875745  
3630.000000	64.876818  
3629.000000	64.881277  
3628.000000	64.887309  
3627.000000	64.893460  
3626.000000	64.898729  
3625.000000	64.903068  
3624.000000	64.907431  
3623.000000	64.913034  
3622.000000	64.920830  
3621.000000	64.930891  
3620.000000	64.941811  
3619.000000	64.951586  
3618.000000	64.957880  
3617.000000	64.959120  
3616.000000	64.954638  
3615.000000	64.945507  
3614.000000	64.934754  
3613.000000	64.926433  
3612.000000	64.924716  
3611.000000	64.932465  
3610.000000	64.950609  
3609.000000	64.977574  
3608.000000	65.009641  
3607.000000	65.041708  
3606.000000	65.068435  
3605.000000	65.085673  
3604.000000	65.091586  
3603.000000	65.086841  
3602.000000	65.074658  
3601.000000	65.059924  
3600.000000	65.048146  
3599.000000	65.044260  
3598.000000	65.051388  
3597.000000	65.070676  
3596.000000	65.099883  
3595.000000	65.134501  
3594.000000	65.167522  
3593.000000	65.191388  
3592.000000	65.198755  
3591.000000	65.184402  
3590.000000	65.146160  
3589.000000	65.085554  
3588.000000	65.008115  
3587.000000	64.921784  
3586.000000	64.836549  
3585.000000	64.762353  
3584.000000	64.707636  
3583.000000	64.678001  
3582.000000	64.675235  
3581.000000	64.697384  
3580.000000	64.739251  
3579.000000	64.793682  
3578.000000	64.852380  
3577.000000	64.907503  
3576.000000	64.952921  
3575.000000	64.984989  
3574.000000	65.002536  
3573.000000	65.007114  
3572.000000	65.002298  
3571.000000	64.992594  
3570.000000	64.982938  
3569.000000	64.976930  
3568.000000	64.976716  
3567.000000	64.982128  
3566.000000	64.991474  
3565.000000	65.002202  
3564.000000	65.012478  
3563.000000	65.021872  
3562.000000	65.031552  
3561.000000	65.044188  
3560.000000	65.063285  
3559.000000	65.091419  
3558.000000	65.129256  
3557.000000	65.173816  
3556.000000	65.218758  
3555.000000	65.255379  
3554.000000	65.275073  
3553.000000	65.270972  
3552.000000	65.240001  
3551.000000	65.184450  
3550.000000	65.111804  
3549.000000	65.033173  
3548.000000	64.960861  
3547.000000	64.905595  
3546.000000	64.874100  
3545.000000	64.868474  
3544.000000	64.885354  
3543.000000	64.917659  
3542.000000	64.955568  
3541.000000	64.989399  
3540.000000	65.011024  
3539.000000	65.014982  
3538.000000	64.999318  
3537.000000	64.964604  
3536.000000	64.914774  
3535.000000	64.854764  
3534.000000	64.791345  
3533.000000	64.731597  
3532.000000	64.682841  
3531.000000	64.651584  
3530.000000	64.642858  
3529.000000	64.659333  
3528.000000	64.700627  
3527.000000	64.762997  
3526.000000	64.839887  
3525.000000	64.922809  
3524.000000	65.002608  
3523.000000	65.070915  
3522.000000	65.121579  
3521.000000	65.151262  
3520.000000	65.159678  
3519.000000	65.148949  
3518.000000	65.122723  
3517.000000	65.085053  
3516.000000	65.040159  
3515.000000	64.991474  
3514.000000	64.942121  
3513.000000	64.894485  
3512.000000	64.851546  
3511.000000	64.815855  
3510.000000	64.789676  
3509.000000	64.774632  
3508.000000	64.771080  
3507.000000	64.778280  
3506.000000	64.794039  
3505.000000	64.815568  
3504.000000	64.839696  
3503.000000	64.863491  
3502.000000	64.884400  
3501.000000	64.900779  
3500.000000	64.911913  
3499.000000	64.917683  
3498.000000	64.918279  
3497.000000	64.914155  
3496.000000	64.905738  
3495.000000	64.893317  
3494.000000	64.877009  
3493.000000	64.856696  
3492.000000	64.832234  
3491.000000	64.803791  
3490.000000	64.772272  
3489.000000	64.738893  
3488.000000	64.705967  
3487.000000	64.676570  
3486.000000	64.654684  
3485.000000	64.644432  
3484.000000	64.649033  
3483.000000	64.669990  
3482.000000	64.706563  
3481.000000	64.755415  
3480.000000	64.811372  
3479.000000	64.867830  
3478.000000	64.918804  
3477.000000	64.959716  
3476.000000	64.988541  
3475.000000	65.005922  
3474.000000	65.015149  
3473.000000	65.021085  
3472.000000	65.029191  
3471.000000	65.044140  
3470.000000	65.068697  
3469.000000	65.102982  
3468.000000	65.144300  
3467.000000	65.187621  
3466.000000	65.226483  
3465.000000	65.254426  
3464.000000	65.266060  
3463.000000	65.258407  
3462.000000	65.231180  
3461.000000	65.187263  
3460.000000	65.132164  
3459.000000	65.072798  
3458.000000	65.016794  
3457.000000	64.970564  
3456.000000	64.938497  
3455.000000	64.922261  
3454.000000	64.920997  
3453.000000	64.931678  
3452.000000	64.950752  
3451.000000	64.974522  
3450.000000	64.999771  
3449.000000	65.024423  
3448.000000	65.047311  
3447.000000	65.067720  
3446.000000	65.084743  
3445.000000	65.097713  
3444.000000	65.105938  
3443.000000	65.109157  
3442.000000	65.107274  
3441.000000	65.100598  
3440.000000	65.089607  
3439.000000	65.074920  
3438.000000	65.057134  
3437.000000	65.036559  
3436.000000	65.013647  
3435.000000	64.988875  
3434.000000	64.963316  
3433.000000	64.938926  
3432.000000	64.918303  
3431.000000	64.904403  
3430.000000	64.899325  
3429.000000	64.903736  
3428.000000	64.916157  
3427.000000	64.933085  
3426.000000	64.949393  
3425.000000	64.959406  
3424.000000	64.958333  
3423.000000	64.943552  
3422.000000	64.915347  
3421.000000	64.876627  
3420.000000	64.832735  
3419.000000	64.789867  
3418.000000	64.754438  
3417.000000	64.731502  
3416.000000	64.724278  
3415.000000	64.733362  
3414.000000	64.757084  
3413.000000	64.791774  
3412.000000	64.832401  
3411.000000	64.873623  
3410.000000	64.910221  
3409.000000	64.938116  
3408.000000	64.954614  
3407.000000	64.958882  
3406.000000	64.952039  
3405.000000	64.936757  
3404.000000	64.916920  
3403.000000	64.896702  
3402.000000	64.879608  
3401.000000	64.867734  
3400.000000	64.861750  
3399.000000	64.860916  
3398.000000	64.863514  
3397.000000	64.867687  
3396.000000	64.872169  
3395.000000	64.876699  
3394.000000	64.881944  
3393.000000	64.889383  
3392.000000	64.900279  
3391.000000	64.915347  
3390.000000	64.934325  
3389.000000	64.955854  
3388.000000	64.977598  
3387.000000	64.997005  
3386.000000	65.011572  
3385.000000	65.019917  
3384.000000	65.021872  
3383.000000	65.018200  
3382.000000	65.010499  
3381.000000	65.000557  
3380.000000	64.989972  
3379.000000	64.980101  
3378.000000	64.971876  
3377.000000	64.965701  
3376.000000	64.961886  
3375.000000	64.960694  
3374.000000	64.962458  
3373.000000	64.967489  
3372.000000	64.975690  
3371.000000	64.986515  
3370.000000	64.998865  
3369.000000	65.010929  
3368.000000	65.020704  
3367.000000	65.026354  
3366.000000	65.026688  
3365.000000	65.021228  
3364.000000	65.010547  
3363.000000	64.996218  
3362.000000	64.980340  
3361.000000	64.965152  
3360.000000	64.952611  
3359.000000	64.943933  
3358.000000	64.939546  
3357.000000	64.939093  
3356.000000	64.941692  
3355.000000	64.946389  
3354.000000	64.952063  
3353.000000	64.957952  
3352.000000	64.963412  
3351.000000	64.968276  
3350.000000	64.972686  
3349.000000	64.976739  
3348.000000	64.980626  
3347.000000	64.984250  
3346.000000	64.987540  
3345.000000	64.989686  
3344.000000	64.989352  
3343.000000	64.984679  
3342.000000	64.973592  
3341.000000	64.954614  
3340.000000	64.927339  
3339.000000	64.892888  
3338.000000	64.853811  
3337.000000	64.814519  
3336.000000	64.780306  
3335.000000	64.756298  
3334.000000	64.746475  
3333.000000	64.752578  
3332.000000	64.773654  
3331.000000	64.806199  
3330.000000	64.844822  
3329.000000	64.883279  
3328.000000	64.915871  
3327.000000	64.938521  
3326.000000	64.949774  
3325.000000	64.950060  
3324.000000	64.941883  
3323.000000	64.928936  
3322.000000	64.915227  
3321.000000	64.904308  
3320.000000	64.898300  
3319.000000	64.898443  
3318.000000	64.903759  
3317.000000	64.912033  
3316.000000	64.919495  
3315.000000	64.922070  
3314.000000	64.915561  
3313.000000	64.896869  
3312.000000	64.864730  
3311.000000	64.819955  
3310.000000	64.765882  
3309.000000	64.707779  
3308.000000	64.652013  
3307.000000	64.605236  
3306.000000	64.572882  
3305.000000	64.558601  
3304.000000	64.563226  
3303.000000	64.585185  
3302.000000	64.620709  
3301.000000	64.665293  
3300.000000	64.713954  
3299.000000	64.762878  
3298.000000	64.809679  
3297.000000	64.853549  
3296.000000	64.894556  
3295.000000	64.933300  
3294.000000	64.970135  
3293.000000	65.004587  
3292.000000	65.035486  
3291.000000	65.060830  
3290.000000	65.078449  
3289.000000	65.086388  
3288.000000	65.084218  
3287.000000	65.072679  
3286.000000	65.053892  
3285.000000	65.030813  
3284.000000	65.006613  
3283.000000	64.983677  
3282.000000	64.963412  
3281.000000	64.945888  
3280.000000	64.930057  
3279.000000	64.914417  
3278.000000	64.897751  
3277.000000	64.879631  
3276.000000	64.860868  
3275.000000	64.843153  
3274.000000	64.828872  
3273.000000	64.820122  
3272.000000	64.818501  
3271.000000	64.824414  
3270.000000	64.837479  
3269.000000	64.856195  
3268.000000	64.878845  
3267.000000	64.904236  
3266.000000	64.931583  
3265.000000	64.960527  
3264.000000	64.990735  
3263.000000	65.021610  
3262.000000	65.051460  
3261.000000	65.077614  
3260.000000	65.096759  
3259.000000	65.105605  
3258.000000	65.101814  
3257.000000	65.084910  
3256.000000	65.056514  
3255.000000	65.020346  
3254.000000	64.981532  
3253.000000	64.945578  
3252.000000	64.916801  
3251.000000	64.897394  
3250.000000	64.887213  
3249.000000	64.884090  
3248.000000	64.884400  
3247.000000	64.884305  
3246.000000	64.880967  
3245.000000	64.873337  
3244.000000	64.862108  
3243.000000	64.849758  
3242.000000	64.839029  
3241.000000	64.832925  
3240.000000	64.833235  
3239.000000	64.840555  
3238.000000	64.853835  
3237.000000	64.870882  
3236.000000	64.889025  
3235.000000	64.905428  
3234.000000	64.917826  
3233.000000	64.925146  
3232.000000	64.927411  
3231.000000	64.925789  
3230.000000	64.922046  
3229.000000	64.918351  
3228.000000	64.916682  
3227.000000	64.918541  
3226.000000	64.924645  
3225.000000	64.935064  
3224.000000	64.949226  
3223.000000	64.966106  
3222.000000	64.984607  
3221.000000	65.003800  
3220.000000	65.022873  
3219.000000	65.041494  
3218.000000	65.059208  
3217.000000	65.075302  
3216.000000	65.088605  
3215.000000	65.097546  
3214.000000	65.100693  
3213.000000	65.097141  
3212.000000	65.086817  
3211.000000	65.070867  
3210.000000	65.051460  
3209.000000	65.031337  
3208.000000	65.013360  
3207.000000	64.999771  
3206.000000	64.991855  
3205.000000	64.989757  
3204.000000	64.992427  
3203.000000	64.998126  
3202.000000	65.004515  
3201.000000	65.009379  
3200.000000	65.010619  
3199.000000	65.006804  
3198.000000	64.997124  
3197.000000	64.981722  
3196.000000	64.961504  
3195.000000	64.938282  
3194.000000	64.914703  
3193.000000	64.893865  
3192.000000	64.879131  
3191.000000	64.873075  
3190.000000	64.877176  
3189.000000	64.891123  
3188.000000	64.912581  
3187.000000	64.937782  
3186.000000	64.962291  
3185.000000	64.981937  
3184.000000	64.993667  
3183.000000	64.996504  
3182.000000	64.991569  
3181.000000	64.981770  
3180.000000	64.970993  
3179.000000	64.963245  
3178.000000	64.961624  
3177.000000	64.967608  
3176.000000	64.980840  
3175.000000	64.998936  
3174.000000	65.018463  
3173.000000	65.035343  
3172.000000	65.046286  
3171.000000	65.049791  
3170.000000	65.046525  
3169.000000	65.039229  
3168.000000	65.031909  
3167.000000	65.029048  
3166.000000	65.034222  
3165.000000	65.049529  
3164.000000	65.074706  
3163.000000	65.107226  
3162.000000	65.142560  
3161.000000	65.175914  
3160.000000	65.202403  
3159.000000	65.218329  
3158.000000	65.221261  
3157.000000	65.210723  
3156.000000	65.187859  
3155.000000	65.155410  
3154.000000	65.116930  
3153.000000	65.076088  
3152.000000	65.036296  
3151.000000	65.000462  
3150.000000	64.970397  
3149.000000	64.947056  
3148.000000	64.929747  
3147.000000	64.916324  
3146.000000	64.903831  
3145.000000	64.889097  
3144.000000	64.869236  
3143.000000	64.842724  
3142.000000	64.809751  
3141.000000	64.772844  
3140.000000	64.736413  
3139.000000	64.706563  
3138.000000	64.689445  
3137.000000	64.690399  
3136.000000	64.712858  
3135.000000	64.757323  
3134.000000	64.821028  
3133.000000	64.897346  
3132.000000	64.977502  
3131.000000	65.050792  
3130.000000	65.106439  
3129.000000	65.136027  
3128.000000	65.134453  
3127.000000	65.101957  
3126.000000	65.043401  
3125.000000	64.968943  
3124.000000	64.891695  
3123.000000	64.826345  
3122.000000	64.786100  
3121.000000	64.780735  
3120.000000	64.814519  
3119.000000	64.885807  
3118.000000	64.987373  
3117.000000	65.107607  
3116.000000	65.232777  
3115.000000	65.349268  
3114.000000	65.445995  
3113.000000	65.515160  
3112.000000	65.553236  
3111.000000	65.560841  
3110.000000	65.541672  
3109.000000	65.501570  
3108.000000	65.446949  
3107.000000	65.384578  
3106.000000	65.319633  
3105.000000	65.256977  
3104.000000	65.199494  
3103.000000	65.149307  
3102.000000	65.107321  
3101.000000	65.074062  
3100.000000	65.049409  
3099.000000	65.032362  
3098.000000	65.021729  
3097.000000	65.016031  
3096.000000	65.014100  
3095.000000	65.014576  
3094.000000	65.016818  
3093.000000	65.020775  
3092.000000	65.027332  
3091.000000	65.037703  
3090.000000	65.053510  
3089.000000	65.076160  
3088.000000	65.106320  
3087.000000	65.143299  
3086.000000	65.185284  
3085.000000	65.228772  
3084.000000	65.269231  
3083.000000	65.301227  
3082.000000	65.320086  
3081.000000	65.322279  
3080.000000	65.306138  
3079.000000	65.272164  
3078.000000	65.223240  
3077.000000	65.163803  
3076.000000	65.100026  
3075.000000	65.038180  
3074.000000	64.983916  
3073.000000	64.941453  
3072.000000	64.913654  
3071.000000	64.900970  
3070.000000	64.901852  
3069.000000	64.912986  
3068.000000	64.930129  
3067.000000	64.948558  
3066.000000	64.963746  
3065.000000	64.972066  
3064.000000	64.971375  
3063.000000	64.961147  
3062.000000	64.942479  
3061.000000	64.917898  
3060.000000	64.890837  
3059.000000	64.865088  
3058.000000	64.843988  
3057.000000	64.829826  
3056.000000	64.823651  
3055.000000	64.825081  
3054.000000	64.832520  
3053.000000	64.843630  
3052.000000	64.856028  
3051.000000	64.867734  
3050.000000	64.878106  
3049.000000	64.887094  
3048.000000	64.895820  
3047.000000	64.905714  
3046.000000	64.918375  
3045.000000	64.934873  
3044.000000	64.955306  
3043.000000	64.978885  
3042.000000	65.003919  
3041.000000	65.028476  
3040.000000	65.050482  
3039.000000	65.068221  
3038.000000	65.080666  
3037.000000	65.087532  
3036.000000	65.089201  
3035.000000	65.086770  
3034.000000	65.081596  
3033.000000	65.075111  
3032.000000	65.068936  
3031.000000	65.064382  
3030.000000	65.062665  
3029.000000	65.064311  
3028.000000	65.069317  
3027.000000	65.076470  
3026.000000	65.084242  
3025.000000	65.090632  
3024.000000	65.093588  
3023.000000	65.091586  
3022.000000	65.083956  
3021.000000	65.070986  
3020.000000	65.054106  
3019.000000	65.035200  
3018.000000	65.016388  
3017.000000	64.999246  
3016.000000	64.984607  
3015.000000	64.972424  
3014.000000	64.961671  
3013.000000	64.951038  
3012.000000	64.939379  
3011.000000	64.926004  
3010.000000	64.911007  
3009.000000	64.895272  
3008.000000	64.880418  
3007.000000	64.868092  
3006.000000	64.859962  
3005.000000	64.857149  
3004.000000	64.860463  
3003.000000	64.869999  
3002.000000	64.885783  
3001.000000	64.907288  
3000.000000	64.933872  
2999.000000	64.964437  
2998.000000	64.997577  
2997.000000	65.031337  
2996.000000	65.063619  
2995.000000	65.092015  
2994.000000	65.114378  
2993.000000	65.129303  
2992.000000	65.135931  
2991.000000	65.134668  
2990.000000	65.126419  
2989.000000	65.112614  
2988.000000	65.094590  
2987.000000	65.073537  
2986.000000	65.049839  
2985.000000	65.023398  
2984.000000	64.994239  
2983.000000	64.962768  
2982.000000	64.930343  
2981.000000	64.899373  
2980.000000	64.873218  
2979.000000	64.855337  
2978.000000	64.848637  
2977.000000	64.854502  
2976.000000	64.872002  
2975.000000	64.898228  
2974.000000	64.928126  
2973.000000	64.956045  
2972.000000	64.976644  
2971.000000	64.986205  
2970.000000	64.983201  
2969.000000	64.968752  
2968.000000	64.945864  
2967.000000	64.918708  
2966.000000	64.891576  
2965.000000	64.867877  
2964.000000	64.849495  
2963.000000	64.836859  
2962.000000	64.829325  
2961.000000	64.825916  
2960.000000	64.825701  
2959.000000	64.828324  
2958.000000	64.833784  
2957.000000	64.842247  
2956.000000	64.853715  
2955.000000	64.867401  
2954.000000	64.881920  
2953.000000	64.895296  
2952.000000	64.905714  
2951.000000	64.911913  
2950.000000	64.913797  
2949.000000	64.912486  
2948.000000	64.909911  
2947.000000	64.908313  
2946.000000	64.909338  
2945.000000	64.913630  
2944.000000	64.920330  
2943.000000	64.927744  
2942.000000	64.933419  
2941.000000	64.935159  
2940.000000	64.931535  
2939.000000	64.922285  
2938.000000	64.908170  
2937.000000	64.891219  
2936.000000	64.873647  
2935.000000	64.857459  
2934.000000	64.843988  
2933.000000	64.833807  
2932.000000	64.826655  
2931.000000	64.821720  
2930.000000	64.817857  
2929.000000	64.814019  
2928.000000	64.809083  
2927.000000	64.802336  
2926.000000	64.792990  
2925.000000	64.780616  
2924.000000	64.764809  
2923.000000	64.745545  
2922.000000	64.723062  
2921.000000	64.698076  
2920.000000	64.671564  
2919.000000	64.645028  
2918.000000	64.620041  
2917.000000	64.598727  
2916.000000	64.583206  
2915.000000	64.576029  
2914.000000	64.579439  
2913.000000	64.595341  
2912.000000	64.624524  
2911.000000	64.666056  
2910.000000	64.717245  
2909.000000	64.773392  
2908.000000	64.828252  
2907.000000	64.874958  
2906.000000	64.907360  
2905.000000	64.921402  
2904.000000	64.915943  
2903.000000	64.893436  
2902.000000	64.859366  
2901.000000	64.821100  
2900.000000	64.786219  
2899.000000	64.760756  
2898.000000	64.747810  
2897.000000	64.747333  
2896.000000	64.756131  
2895.000000	64.769172  
2894.000000	64.781069  
2893.000000	64.787626  
2892.000000	64.787030  
2891.000000	64.779806  
2890.000000	64.768815  
2889.000000	64.758038  
2888.000000	64.751648  
2887.000000	64.752364  
2886.000000	64.761257  
2885.000000	64.777493  
2884.000000	64.798903  
2883.000000	64.822959  
2882.000000	64.847207  
2881.000000	64.869928  
2880.000000	64.890050  
2879.000000	64.907169  
2878.000000	64.921045  
2877.000000	64.931225  
2876.000000	64.936542  
2875.000000	64.935231  
2874.000000	64.925646  
2873.000000	64.906573  
2872.000000	64.878082  
2871.000000	64.841318  
2870.000000	64.798998  
2869.000000	64.754533  
2868.000000	64.711642  
2867.000000	64.673280  
2866.000000	64.640569  
2865.000000	64.612984  
2864.000000	64.588475  
2863.000000	64.564657  
2862.000000	64.539361  
2861.000000	64.512372  
2860.000000	64.485192  
2859.000000	64.461779  
2858.000000	64.447236  
2857.000000	64.446949  
2856.000000	64.464640  
2855.000000	64.501333  
2854.000000	64.554452  
2853.000000	64.618039  
2852.000000	64.683651  
2851.000000	64.741992  
2850.000000	64.784836  
2849.000000	64.806413  
2848.000000	64.804768  
2847.000000	64.781689  
2846.000000	64.742159  
2845.000000	64.693379  
2844.000000	64.643311  
2843.000000	64.599394  
2842.000000	64.567422  
2841.000000	64.551401  
2840.000000	64.552903  
2839.000000	64.571499  
2838.000000	64.604854  
2837.000000	64.649629  
2836.000000	64.701676  
2835.000000	64.756250  
2834.000000	64.808893  
2833.000000	64.855623  
2832.000000	64.893698  
2831.000000	64.921569  
2830.000000	64.939069  
2829.000000	64.947533  
2828.000000	64.948987  
2827.000000	64.946007  
2826.000000	64.940857  
2825.000000	64.935350  
2824.000000	64.930677  
2823.000000	64.927673  
2822.000000	64.926695  
2821.000000	64.927983  
2820.000000	64.931750  
2819.000000	64.938259  
2818.000000	64.947438  
2817.000000	64.958858  
2816.000000	64.971446  
2815.000000	64.983820  
2814.000000	64.994454  
2813.000000	65.002107  
2812.000000	65.006041  
2811.000000	65.006422  
2810.000000	65.004396  
2809.000000	65.001559  
2808.000000	64.999628  
2807.000000	64.999938  
2806.000000	65.002989  
2805.000000	65.008211  
2804.000000	65.014576  
2803.000000	65.020346  
2802.000000	65.023899  
2801.000000	65.023732  
2800.000000	65.018963  
2799.000000	65.009069  
2798.000000	64.994072  
2797.000000	64.974665  
2796.000000	64.952206  
2795.000000	64.928674  
2794.000000	64.906525  
2793.000000	64.888620  
2792.000000	64.877510  
2791.000000	64.875292  
2790.000000	64.882898  
2789.000000	64.899635  
2788.000000	64.923143  
2787.000000	64.949655  
2786.000000	64.974689  
2785.000000	64.993643  
2784.000000	65.003204  
2783.000000	65.001702  
2782.000000	64.989757  
2781.000000	64.969873  
2780.000000	64.945912  
2779.000000	64.922380  
2778.000000	64.903211  
2777.000000	64.891314  
2776.000000	64.887928  
2775.000000	64.892625  
2774.000000	64.903497  
2773.000000	64.917659  
2772.000000	64.931869  
2771.000000	64.943170  
2770.000000	64.949655  
2769.000000	64.950561  
2768.000000	64.946317  
2767.000000	64.938330  
2766.000000	64.928460  
2765.000000	64.918732  
2764.000000	64.911007  
2763.000000	64.906787  
2762.000000	64.907050  
2761.000000	64.912223  
2760.000000	64.922332  
2759.000000	64.936828  
2758.000000	64.954757  
2757.000000	64.974617  
2756.000000	64.994502  
2755.000000	65.012288  
2754.000000	65.026116  
2753.000000	65.034437  
2752.000000	65.036559  
2751.000000	65.032482  
2750.000000	65.023231  
2749.000000	65.010118  
2748.000000	64.994859  
2747.000000	64.978432  
2746.000000	64.961338  
2745.000000	64.943099  
2744.000000	64.922857  
2743.000000	64.899945  
2742.000000	64.874291  
2741.000000	64.846968  
2740.000000	64.820289  
2739.000000	64.797449  
2738.000000	64.781737  
2737.000000	64.775657  
2736.000000	64.780426  
2735.000000	64.795255  
2734.000000	64.817452  
2733.000000	64.843010  
2732.000000	64.867496  
2731.000000	64.886999  
2730.000000	64.899015  
2729.000000	64.902782  
2728.000000	64.899516  
2727.000000	64.891934  
2726.000000	64.883542  
2725.000000	64.877533  
2724.000000	64.876294  
2723.000000	64.880943  
2722.000000	64.891076  
2721.000000	64.905190  
2720.000000	64.921045  
2719.000000	64.936518  
2718.000000	64.949870  
2717.000000	64.960265  
2716.000000	64.967751  
2715.000000	64.973068  
2714.000000	64.977431  
2713.000000	64.982247  
2712.000000	64.988756  
2711.000000	64.997720  
2710.000000	65.009617  
2709.000000	65.024185  
2708.000000	65.040659  
2707.000000	65.057611  
2706.000000	65.073394  
2705.000000	65.085983  
2704.000000	65.093469  
2703.000000	65.093970  
2702.000000	65.086388  
2701.000000	65.070128  
2700.000000	65.045738  
2699.000000	65.014505  
2698.000000	64.978623  
2697.000000	64.940619  
2696.000000	64.903140  
2695.000000	64.868617  
2694.000000	64.838933  
2693.000000	64.815425  
2692.000000	64.798831  
2691.000000	64.789271  
2690.000000	64.786458  
2689.000000	64.789772  
2688.000000	64.798331  
2687.000000	64.810943  
2686.000000	64.826321  
2685.000000	64.843058  
2684.000000	64.859843  
2683.000000	64.875507  
2682.000000	64.889168  
2681.000000	64.900255  
2680.000000	64.908480  
2679.000000	64.914059  
2678.000000	64.917516  
2677.000000	64.919614  
2676.000000	64.921259  
2675.000000	64.923596  
2674.000000	64.927530  
2673.000000	64.933657  
2672.000000	64.941906  
2671.000000	64.951848  
2670.000000	64.962267  
2669.000000	64.971494  
2668.000000	64.977622  
2667.000000	64.979028  
2666.000000	64.974665  
2665.000000	64.964270  
2664.000000	64.948821  
2663.000000	64.930129  
2662.000000	64.910721  
2661.000000	64.893341  
2660.000000	64.880180  
2659.000000	64.872670  
2658.000000	64.871120  
2657.000000	64.874863  
2656.000000	64.882206  
2655.000000	64.891099  
2654.000000	64.899921  
2653.000000	64.907622  
2652.000000	64.913845  
2651.000000	64.919352  
2650.000000	64.925432  
2649.000000	64.933824  
2648.000000	64.945888  
2647.000000	64.962148  
2646.000000	64.982485  
2645.000000	65.005707  
2644.000000	65.030169  
2643.000000	65.053653  
2642.000000	65.074133  
2641.000000	65.089821  
2640.000000	65.099453  
2639.000000	65.102219  
2638.000000	65.097761  
2637.000000	65.086007  
2636.000000	65.067195  
2635.000000	65.042018  
2634.000000	65.011596  
2633.000000	64.977788  
2632.000000	64.942932  
2631.000000	64.909815  
2630.000000	64.881110  
2629.000000	64.858961  
2628.000000	64.844703  
2627.000000	64.838314  
2626.000000	64.838528  
2625.000000	64.843058  
2624.000000	64.849233  
2623.000000	64.854502  
2622.000000	64.857244  
2621.000000	64.856791  
2620.000000	64.853620  
2619.000000	64.849281  
2618.000000	64.845609  
2617.000000	64.844226  
2616.000000	64.846134  
2615.000000	64.851331  
2614.000000	64.859080  
2613.000000	64.867925  
2612.000000	64.876389  
2611.000000	64.883279  
2610.000000	64.888048  
2609.000000	64.890909  
2608.000000	64.892649  
2607.000000	64.894199  
2606.000000	64.896345  
2605.000000	64.899420  
2604.000000	64.903140  
2603.000000	64.906573  
2602.000000	64.908719  
2601.000000	64.908766  
2600.000000	64.906239  
2599.000000	64.901018  
2598.000000	64.893937  
2597.000000	64.886021  
2596.000000	64.878153  
2595.000000	64.870929  
2594.000000	64.864301  
2593.000000	64.858031  
2592.000000	64.851641  
2591.000000	64.844918  
2590.000000	64.837908  
2589.000000	64.831376  
2588.000000	64.826488  
2587.000000	64.824652  
2586.000000	64.826989  
2585.000000	64.834141  
2584.000000	64.845871  
2583.000000	64.861011  
2582.000000	64.877820  
2581.000000	64.894104  
2580.000000	64.907670  
2579.000000	64.916920  
2578.000000	64.921092  
2577.000000	64.920711  
2576.000000	64.917445  
2575.000000	64.913892  
2574.000000	64.912843  
2573.000000	64.916896  
2572.000000	64.927577  
2571.000000	64.945125  
2570.000000	64.968228  
2569.000000	64.994406  
2568.000000	65.020346  
2567.000000	65.042614  
2566.000000	65.058159  
2565.000000	65.064978  
2564.000000	65.062379  
2563.000000	65.050983  
2562.000000	65.032839  
2561.000000	65.010786  
2560.000000	64.988303  
2559.000000	64.968752  
2558.000000	64.954996  
2557.000000	64.949178  
2556.000000	64.952182  
2555.000000	64.963746  
2554.000000	64.982342  
2553.000000	65.005445  
2552.000000	65.029835  
2551.000000	65.052127  
2550.000000	65.069508  
2549.000000	65.080213  
2548.000000	65.083742  
2547.000000	65.080690  
2546.000000	65.072488  
2545.000000	65.061068  
2544.000000	65.048241  
2543.000000	65.035438  
2542.000000	65.023517  
2541.000000	65.012907  
2540.000000	65.003633  
2539.000000	64.995312  
2538.000000	64.987587  
2537.000000	64.979958  
2536.000000	64.971756  
2535.000000	64.962601  
2534.000000	64.952540  
2533.000000	64.942359  
2532.000000	64.933109  
2531.000000	64.926266  
2530.000000	64.923501  
2529.000000	64.926028  
2528.000000	64.934349  
2527.000000	64.947867  
2526.000000	64.964938  
2525.000000	64.983057  
2524.000000	64.999318  
2523.000000	65.011072  
2522.000000	65.016460  
2521.000000	65.014934  
2520.000000	65.007066  
2519.000000	64.994502  
2518.000000	64.979052  
2517.000000	64.962649  
2516.000000	64.946413  
2515.000000	64.930224  
2514.000000	64.912724  
2513.000000	64.892411  
2512.000000	64.867758  
2511.000000	64.837908  
2510.000000	64.803147  
2509.000000	64.765191  
2508.000000	64.726734  
2507.000000	64.690709  
2506.000000	64.659643  
2505.000000	64.634895  
2504.000000	64.616560  
2503.000000	64.603352  
2502.000000	64.593148  
2501.000000	64.583754  
2500.000000	64.573407  
2499.000000	64.561319  
2498.000000	64.547848  
2497.000000	64.534521  
2496.000000	64.523553  
2495.000000	64.517760  
2494.000000	64.519762  
2493.000000	64.531683  
2492.000000	64.555001  
2491.000000	64.590334  
2490.000000	64.637398  
2489.000000	64.694905  
2488.000000	64.760708  
2487.000000	64.831519  
2486.000000	64.903569  
2485.000000	64.972424  
2484.000000	65.033531  
2483.000000	65.082788  
2482.000000	65.117454  
2481.000000	65.136170  
2480.000000	65.139412  
2479.000000	65.129232  
2478.000000	65.109562  
2477.000000	65.084815  
2476.000000	65.059351  
2475.000000	65.036749  
2474.000000	65.019512  
2473.000000	65.008449  
2472.000000	65.002965  
2471.000000	65.001559  
2470.000000	65.002560  
2469.000000	65.004754  
2468.000000	65.007472  
2467.000000	65.011072  
2466.000000	65.016341  
2465.000000	65.024089  
2464.000000	65.034484  
2463.000000	65.046882  
2462.000000	65.059614  
2461.000000	65.070319  
2460.000000	65.076756  
2459.000000	65.077018  
2458.000000	65.070486  
2457.000000	65.058302  
2456.000000	65.042996  
2455.000000	65.027832  
2454.000000	65.016317  
2453.000000	65.011310  
2452.000000	65.014266  
2451.000000	65.025115  
2450.000000	65.042328  
2449.000000	65.063285  
2448.000000	65.085124  
2447.000000	65.105390  
2446.000000	65.122222  
2445.000000	65.134811  
2444.000000	65.143156  
2443.000000	65.148115  
2442.000000	65.150952  
2441.000000	65.153169  
2440.000000	65.156292  
2439.000000	65.161418  
2438.000000	65.169239  
2437.000000	65.179514  
2436.000000	65.191316  
2435.000000	65.202903  
2434.000000	65.211701  
2433.000000	65.215110  
2432.000000	65.210485  
2431.000000	65.196633  
2430.000000	65.174031  
2429.000000	65.145468  
2428.000000	65.115261  
2427.000000	65.089106  
2426.000000	65.073013  
2425.000000	65.072011  
2424.000000	65.088915  
2423.000000	65.123772  
2422.000000	65.173745  
2421.000000	65.233397  
2420.000000	65.295791  
2419.000000	65.353512  
2418.000000	65.399956  
2417.000000	65.430259  
2416.000000	65.442109  
2415.000000	65.436077  
2414.000000	65.415430  
2413.000000	65.385460  
2412.000000	65.352201  
2411.000000	65.321826  
2410.000000	65.298891  
2409.000000	65.286231  
2408.000000	65.283632  
2407.000000	65.288567  
2406.000000	65.296077  
2405.000000	65.300536  
2404.000000	65.296244  
2403.000000	65.279054  
2402.000000	65.247273  
2401.000000	65.201926  
2400.000000	65.146994  
2399.000000	65.088081  
2398.000000	65.031862  
2397.000000	64.984416  
2396.000000	64.950466  
2395.000000	64.932250  
2394.000000	64.929652  
2393.000000	64.940452  
2392.000000	64.960885  
2391.000000	64.986729  
2390.000000	65.013647  
2389.000000	65.037846  
2388.000000	65.056300  
2387.000000	65.067052  
2386.000000	65.068793  
2385.000000	65.060925  
2384.000000	65.043830  
2383.000000	65.018844  
2382.000000	64.988541  
2381.000000	64.956235  
2380.000000	64.925503  
2379.000000	64.899730  
2378.000000	64.881825  
2377.000000	64.873480  
2376.000000	64.874815  
2375.000000	64.884805  
2374.000000	64.901351  
2373.000000	64.921879  
2372.000000	64.943766  
2371.000000	64.964771  
2370.000000	64.983367  
2369.000000	64.998602  
2368.000000	65.009784  
2367.000000	65.016674  
2366.000000	65.019226  
2365.000000	65.017461  
2364.000000	65.011167  
2363.000000	65.000724  
2362.000000	64.986848  
2361.000000	64.970731  
2360.000000	64.953947  
2359.000000	64.938187  
2358.000000	64.925217  
2357.000000	64.916634  
2356.000000	64.913702  
2355.000000	64.917016  
2354.000000	64.926624  
2353.000000	64.942145  
2352.000000	64.962553  
2351.000000	64.986491  
2350.000000	65.012359  
2349.000000	65.038323  
2348.000000	65.062618  
2347.000000	65.083670  
2346.000000	65.100288  
2345.000000	65.111756  
2344.000000	65.118002  
2343.000000	65.119600  
2342.000000	65.117716  
2341.000000	65.113997  
2340.000000	65.110206  
2339.000000	65.108036  
2338.000000	65.108680  
2337.000000	65.112638  
2336.000000	65.119552  
2335.000000	65.128278  
2334.000000	65.137004  
2333.000000	65.143585  
2332.000000	65.145945  
2331.000000	65.142512  
2330.000000	65.132665  
2329.000000	65.116882  
2328.000000	65.096616  
2327.000000	65.074133  
2326.000000	65.052103  
2325.000000	65.032911  
2324.000000	65.018200  
2323.000000	65.008592  
2322.000000	65.003657  
2321.000000	65.001964  
2320.000000	65.001440  
2319.000000	65.000009  
2318.000000	64.996242  
2317.000000	64.989638  
2316.000000	64.980459  
2315.000000	64.970064  
2314.000000	64.960312  
2313.000000	64.953112  
2312.000000	64.949870  
2311.000000	64.951276  
2310.000000	64.957261  
2309.000000	64.966940  
2308.000000	64.978885  
2307.000000	64.991331  
2306.000000	65.002560  
2305.000000	65.011167  
2304.000000	65.016293  
2303.000000	65.017700  
2302.000000	65.015697  
2301.000000	65.011310  
2300.000000	65.005779  
2299.000000	65.000414  
2298.000000	64.996147  
2297.000000	64.993786  
2296.000000	64.993143  
2295.000000	64.993596  
2294.000000	64.993715  
2293.000000	64.992213  
2292.000000	64.987611  
2291.000000	64.978981  
2290.000000	64.966011  
2289.000000	64.949154  
2288.000000	64.929461  
2287.000000	64.908289  
2286.000000	64.886927  
2285.000000	64.866447  
2284.000000	64.847636  
2283.000000	64.830946  
2282.000000	64.816737  
2281.000000	64.805245  
2280.000000	64.796805  
2279.000000	64.791965  
2278.000000	64.791250  
2277.000000	64.795303  
2276.000000	64.804387  
2275.000000	64.818644  
2274.000000	64.837718  
2273.000000	64.860773  
2272.000000	64.886665  
2271.000000	64.913964  
2270.000000	64.941072  
2269.000000	64.966535  
2268.000000	64.988923  
2267.000000	65.007114  
2266.000000	65.020537  
2265.000000	65.028858  
2264.000000	65.032529  
2263.000000	65.032148  
2262.000000	65.028858  
2261.000000	65.023589  
2260.000000	65.017056  
2259.000000	65.009522  
2258.000000	65.001082  
2257.000000	64.991450  
2256.000000	64.980411  
2255.000000	64.968085  
2254.000000	64.955186  
2253.000000	64.942932  
2252.000000	64.932894  
2251.000000	64.926671  
2250.000000	64.925551  
2249.000000	64.929986  
2248.000000	64.939546  
2247.000000	64.952898  
2246.000000	64.967942  
2245.000000	64.982414  
2244.000000	64.994215  
2243.000000	65.001916  
2242.000000	65.004706  
2241.000000	65.002369  
2240.000000	64.995288  
2239.000000	64.984130  
2238.000000	64.969873  
2237.000000	64.953947  
2236.000000	64.937949  
2235.000000	64.923763  
2234.000000	64.913201  
2233.000000	64.907717  
2232.000000	64.908099  
2231.000000	64.914274  
2230.000000	64.925169  
2229.000000	64.939117  
2228.000000	64.953970  
2227.000000	64.967679  
2226.000000	64.978742  
2225.000000	64.986395  
2224.000000	64.990758  
2223.000000	64.992642  
2222.000000	64.993071  
2221.000000	64.993143  
2220.000000	64.993596  
2219.000000	64.995074  
2218.000000	64.997863  
2217.000000	65.002417  
2216.000000	65.009236  
2215.000000	65.018796  
2214.000000	65.031266  
2213.000000	65.046381  
2212.000000	65.063285  
2211.000000	65.080547  
2210.000000	65.096473  
2209.000000	65.109539  
2208.000000	65.118598  
2207.000000	65.123295  
2206.000000	65.123963  
2205.000000	65.121579  
2204.000000	65.117406  
2203.000000	65.112614  
2202.000000	65.108227  
2201.000000	65.104818  
2200.000000	65.102672  
2199.000000	65.101957  
2198.000000	65.102863  
2197.000000	65.105581  
2196.000000	65.109968  
2195.000000	65.115451  
2194.000000	65.121102  
2193.000000	65.125083  
2192.000000	65.125679  
2191.000000	65.121769  
2190.000000	65.113639  
2189.000000	65.102910  
2188.000000	65.092372  
2187.000000	65.085506  
2186.000000	65.085291  
2185.000000	65.093350  
2184.000000	65.109014  
2183.000000	65.129423  
2182.000000	65.149664  
2181.000000	65.164542  
2180.000000	65.169119  
2179.000000	65.160369  
2178.000000	65.137720  
2177.000000	65.103459  
2176.000000	65.061759  
2175.000000	65.017771  
2174.000000	64.976453  
2173.000000	64.941668  
2172.000000	64.915728  
2171.000000	64.899253  
2170.000000	64.891433  
2169.000000	64.890241  
2168.000000	64.892888  
2167.000000	64.896082  
2166.000000	64.896059  
2165.000000	64.889597  
2164.000000	64.874005  
2163.000000	64.848351  
2162.000000	64.813375  
2161.000000	64.772152  
2160.000000	64.729404  
2159.000000	64.691209  
2158.000000	64.663791  
2157.000000	64.652419  
2156.000000	64.660143  
2155.000000	64.687490  
2154.000000	64.731955  
2153.000000	64.788961  
2152.000000	64.852523  
2151.000000	64.916586  
2150.000000	64.975857  
2149.000000	65.026378  
2148.000000	65.065717  
2147.000000	65.092706  
2146.000000	65.107178  
2145.000000	65.109348  
2144.000000	65.099716  
2143.000000	65.079426  
2142.000000	65.050029  
2141.000000	65.013837  
2140.000000	64.973664  
2139.000000	64.933204  
2138.000000	64.896535  
2137.000000	64.867997  
2136.000000	64.851331  
2135.000000	64.849066  
2134.000000	64.862227  
2133.000000	64.889812  
2132.000000	64.929032  
2131.000000	64.975452  
2130.000000	65.023922  
2129.000000	65.069174  
2128.000000	65.106678  
2127.000000	65.133404  
2126.000000	65.148091  
2125.000000	65.150928  
2124.000000	65.143752  
2123.000000	65.129160  
2122.000000	65.110349  
2121.000000	65.090346  
2120.000000	65.071582  
2119.000000	65.055871  
2118.000000	65.044426  
2117.000000	65.037918  
2116.000000	65.036511  
2115.000000	65.039730  
2114.000000	65.046644  
2113.000000	65.055990  
2112.000000	65.066099  
2111.000000	65.075278  
2110.000000	65.081763  
2109.000000	65.084195  
2108.000000	65.082120  
2107.000000	65.075922  
2106.000000	65.066266  
2105.000000	65.054392  
2104.000000	65.042138  
2103.000000	65.031099  
2102.000000	65.022397  
2101.000000	65.016674  
2100.000000	65.014362  
2099.000000	65.015316  
2098.000000	65.019059  
2097.000000	65.024638  
2096.000000	65.031003  
2095.000000	65.036821  
2094.000000	65.040612  
2093.000000	65.040731  
2092.000000	65.035653  
2091.000000	65.024375  
2090.000000	65.006899  
2089.000000	64.983963  
2088.000000	64.957308  
2087.000000	64.929461  
2086.000000	64.903807  
2085.000000	64.883279  
2084.000000	64.870810  
2083.000000	64.868521  
2082.000000	64.878606  
2081.000000	64.901781  
2080.000000	64.939022  
2079.000000	64.990663  
2078.000000	65.057086  
2077.000000	65.137624  
2076.000000	65.231132  
2075.000000	65.335154  
2074.000000	65.446257  
2073.000000	65.559744  
2072.000000	65.670251  
2071.000000	65.772438  
2070.000000	65.861225  
2069.000000	65.932726  
2068.000000	65.983557  
2067.000000	66.011142  
2066.000000	66.013550  
2065.000000	65.989899  
2064.000000	65.940117  
2063.000000	65.865302  
2062.000000	65.768527  
2061.000000	65.654611  
2060.000000	65.530252  
2059.000000	65.403079  
2058.000000	65.281200  
2057.000000	65.171933  
2056.000000	65.080690  
2055.000000	65.010523  
2054.000000	64.961481  
2053.000000	64.931702  
2052.000000	64.917230  
2051.000000	64.913892  
2050.000000	64.916944  
2049.000000	64.922881  
2048.000000	64.928960  
2047.000000	64.933967  
2046.000000	64.936542  
2045.000000	64.936685  
2044.000000	64.934945  
2043.000000	64.932489  
2042.000000	64.930438  
2041.000000	64.930391  
2040.000000	64.934110  
2039.000000	64.942979  
2038.000000	64.957404  
2037.000000	64.976811  
2036.000000	64.999341  
2035.000000	65.022158  
2034.000000	65.042138  
2033.000000	65.056347  
2032.000000	65.062928  
2031.000000	65.061879  
2030.000000	65.054798  
2029.000000	65.044164  
2028.000000	65.032792  
2027.000000	65.023660  
2026.000000	65.018725  
2025.000000	65.018463  
2024.000000	65.022015  
2023.000000	65.027904  
2022.000000	65.034127  
2021.000000	65.038609  
2020.000000	65.039610  
2019.000000	65.036225  
2018.000000	65.028333  
2017.000000	65.016460  
2016.000000	65.001869  
2015.000000	64.986181  
2014.000000	64.971232  
2013.000000	64.958953  
2012.000000	64.950942  
2011.000000	64.948368  
2010.000000	64.951372  
2009.000000	64.959049  
2008.000000	64.969491  
2007.000000	64.980363  
2006.000000	64.989280  
2005.000000	64.994668  
2004.000000	64.995837  
2003.000000	64.993071  
2002.000000	64.987468  
2001.000000	64.980483  
2000.000000	64.973068  
1999.000000	64.965796  
1998.000000	64.958643  
1997.000000	64.951539  
1996.000000	64.944410  
1995.000000	64.937639  
1994.000000	64.932227  
1993.000000	64.929604  
1992.000000	64.931344  
1991.000000	64.938735  
1990.000000	64.952111  
1989.000000	64.970850  
1988.000000	64.993166  
1987.000000	65.016746  
1986.000000	65.039038  
1985.000000	65.058302  
1984.000000	65.073609  
1983.000000	65.085077  
1982.000000	65.093564  
1981.000000	65.100336  
1980.000000	65.106511  
1979.000000	65.112686  
1978.000000	65.118408  
1977.000000	65.122675  
1976.000000	65.123772  
1975.000000	65.119886  
1974.000000	65.109300  
1973.000000	65.091013  
1972.000000	65.065312  
1971.000000	65.033769  
1970.000000	64.999270  
1969.000000	64.965510  
1968.000000	64.936351  
1967.000000	64.915108  
1966.000000	64.903974  
1965.000000	64.903426  
1964.000000	64.912438  
1963.000000	64.928674  
1962.000000	64.948987  
1961.000000	64.970135  
1960.000000	64.989304  
1959.000000	65.004515  
1958.000000	65.014934  
1957.000000	65.020704  
1956.000000	65.022683  
1955.000000	65.022087  
1954.000000	65.020275  
1953.000000	65.018200  
1952.000000	65.016698  
1951.000000	65.015935  
1950.000000	65.016031  
1949.000000	65.016365  
1948.000000	65.016007  
1947.000000	65.013551  
1946.000000	65.007710  
1945.000000	64.997363  
1944.000000	64.982199  
1943.000000	64.962697  
1942.000000	64.940214  
1941.000000	64.916872  
1940.000000	64.894700  
1939.000000	64.875411  
1938.000000	64.859962  
1937.000000	64.848661  
1936.000000	64.841175  
1935.000000	64.837193  
1934.000000	64.836573  
1933.000000	64.839911  
1932.000000	64.848375  
1931.000000	64.863252  
1930.000000	64.885377  
1929.000000	64.914464  
1928.000000	64.948797  
1927.000000	64.985060  
1926.000000	65.019154  
1925.000000	65.046954  
1924.000000	65.065479  
1923.000000	65.073657  
1922.000000	65.072607  
1921.000000	65.065217  
1920.000000	65.055418  
1919.000000	65.047121  
1918.000000	65.043067  
1917.000000	65.044713  
1916.000000	65.051507  
1915.000000	65.061807  
1914.000000	65.073037  
1913.000000	65.082621  
1912.000000	65.088319  
1911.000000	65.088915  
1910.000000	65.084123  
1909.000000	65.074324  
1908.000000	65.060329  
1907.000000	65.043163  
1906.000000	65.023946  
1905.000000	65.003895  
1904.000000	64.984226  
1903.000000	64.966297  
1902.000000	64.951324  
1901.000000	64.940237  
1900.000000	64.933371  
1899.000000	64.930438  
1898.000000	64.930605  
1897.000000	64.932775  
1896.000000	64.935564  
1895.000000	64.937853  
1894.000000	64.938998  
1893.000000	64.939188  
1892.000000	64.938783  
1891.000000	64.938855  
1890.000000	64.940524  
1889.000000	64.944791  
1888.000000	64.952516  
1887.000000	64.963769  
1886.000000	64.978170  
1885.000000	64.994478  
1884.000000	65.011239  
1883.000000	65.026473  
1882.000000	65.038204  
1881.000000	65.044593  
1880.000000	65.044426  
1879.000000	65.037512  
1878.000000	65.024709  
1877.000000	65.007925  
1876.000000	64.989662  
1875.000000	64.972329  
1874.000000	64.957642  
1873.000000	64.946174  
1872.000000	64.937233  
1871.000000	64.929032  
1870.000000	64.919209  
1869.000000	64.905714  
1868.000000	64.887762  
1867.000000	64.865899  
1866.000000	64.842486  
1865.000000	64.820694  
1864.000000	64.804482  
1863.000000	64.796853  
1862.000000	64.799761  
1861.000000	64.812970  
1860.000000	64.834594  
1859.000000	64.861416  
1858.000000	64.889764  
1857.000000	64.916086  
1856.000000	64.937615  
1855.000000	64.952611  
1854.000000	64.960479  
1853.000000	64.961433  
1852.000000	64.956450  
1851.000000	64.947080  
1850.000000	64.935207  
1849.000000	64.922881  
1848.000000	64.912009  
1847.000000	64.904189  
1846.000000	64.900541  
1845.000000	64.901614  
1844.000000	64.907002  
1843.000000	64.915561  
1842.000000	64.925861  
1841.000000	64.935970  
1840.000000	64.944195  
1839.000000	64.949035  
1838.000000	64.949822  
1837.000000	64.946460  
1836.000000	64.939141  
1835.000000	64.928317  
1834.000000	64.914679  
1833.000000	64.899134  
1832.000000	64.882612  
1831.000000	64.866232  
1830.000000	64.851403  
1829.000000	64.839529  
1828.000000	64.831805  
1827.000000	64.829015  
1826.000000	64.831113  
1825.000000	64.837574  
1824.000000	64.847278  
1823.000000	64.858722  
1822.000000	64.870119  
1821.000000	64.879679  
1820.000000	64.885687  
1819.000000	64.886593  
1818.000000	64.881443  
1817.000000	64.869761  
1816.000000	64.852094  
1815.000000	64.829897  
1814.000000	64.805626  
1813.000000	64.782381  
1812.000000	64.763665  
1811.000000	64.752697  
1810.000000	64.752054  
1809.000000	64.762926  
1808.000000	64.785027  
1807.000000	64.816284  
1806.000000	64.853453  
1805.000000	64.892721  
1804.000000	64.930057  
1803.000000	64.962148  
1802.000000	64.986443  
1801.000000	65.001440  
1800.000000	65.006494  
1799.000000	65.001940  
1798.000000	64.988756  
1797.000000	64.968419  
1796.000000	64.942884  
1795.000000	64.914298  
1794.000000	64.884805  
1793.000000	64.856457  
1792.000000	64.830875  
1791.000000	64.809298  
1790.000000	64.792609  
1789.000000	64.781379  
1788.000000	64.775800  
1787.000000	64.775776  
1786.000000	64.780735  
1785.000000	64.789962  
1784.000000	64.802312  
1783.000000	64.816546  
1782.000000	64.831137  
1781.000000	64.844799  
1780.000000	64.856386  
1779.000000	64.865326  
1778.000000	64.871597  
1777.000000	64.875674  
1776.000000	64.878296  
1775.000000	64.880466  
1774.000000	64.883136  
1773.000000	64.886832  
1772.000000	64.891624  
1771.000000	64.897179  
1770.000000	64.903044  
1769.000000	64.908385  
1768.000000	64.912366  
1767.000000	64.914059  
1766.000000	64.912605  
1765.000000	64.907240  
1764.000000	64.897441  
1763.000000	64.883470  
1762.000000	64.866328  
1761.000000	64.847970  
1760.000000	64.830946  
1759.000000	64.817953  
1758.000000	64.811348  
1757.000000	64.812493  
1756.000000	64.821577  
1755.000000	64.837241  
1754.000000	64.857006  
1753.000000	64.877700  
1752.000000	64.896202  
1751.000000	64.909863  
1750.000000	64.917254  
1749.000000	64.918160  
1748.000000	64.913392  
1747.000000	64.904522  
1746.000000	64.893102  
1745.000000	64.880299  
1744.000000	64.866518  
1743.000000	64.851427  
1742.000000	64.833927  
1741.000000	64.812731  
1740.000000	64.786553  
1739.000000	64.754843  
1738.000000	64.717721  
1737.000000	64.676713  
1736.000000	64.634466  
1735.000000	64.594697  
1734.000000	64.561629  
1733.000000	64.539456  
1732.000000	64.531040  
1731.000000	64.537835  
1730.000000	64.559102  
1729.000000	64.592456  
1728.000000	64.633727  
1727.000000	64.678406  
1726.000000	64.721846  
1725.000000	64.760589  
1724.000000	64.792394  
1723.000000	64.816546  
1722.000000	64.833498  
1721.000000	64.844512  
1720.000000	64.850974  
1719.000000	64.853787  
1718.000000	64.853310  
1717.000000	64.849233  
1716.000000	64.841032  
1715.000000	64.828372  
1714.000000	64.811635  
1713.000000	64.791917  
1712.000000	64.771175  
1711.000000	64.751911  
1710.000000	64.737033  
1709.000000	64.728784  
1708.000000	64.728856  
1707.000000	64.737939  
1706.000000	64.755415  
1705.000000	64.779424  
1704.000000	64.807438  
1703.000000	64.836430  
1702.000000	64.863634  
1701.000000	64.886951  
1700.000000	64.905381  
1699.000000	64.918804  
1698.000000	64.927864  
1697.000000	64.933609  
1696.000000	64.936876  
1695.000000	64.937996  
1694.000000	64.936614  
1693.000000	64.932179  
1692.000000	64.924001  
1691.000000	64.911723  
1690.000000	64.895653  
1689.000000	64.877223  
1688.000000	64.858675  
1687.000000	64.842796  
1686.000000	64.832162  
1685.000000	64.828753  
1684.000000	64.833354  
1683.000000	64.845418  
1682.000000	64.863181  
1681.000000	64.883971  
1680.000000	64.904928  
1679.000000	64.923214  
1678.000000	64.936804  
1677.000000	64.944672  
1676.000000	64.946532  
1675.000000	64.943146  
1674.000000	64.935994  
1673.000000	64.926743  
1672.000000	64.917206  
1671.000000	64.908409  
1670.000000	64.900827  
1669.000000	64.893794  
1668.000000	64.886164  
1667.000000	64.876317  
1666.000000	64.862847  
1665.000000	64.844894  
1664.000000	64.822578  
1663.000000	64.797282  
1662.000000	64.771461  
1661.000000	64.748215  
1660.000000	64.730596  
1659.000000	64.721131  
1658.000000	64.721179  
1657.000000	64.730715  
1656.000000	64.748311  
1655.000000	64.771413  
1654.000000	64.796733  
1653.000000	64.820885  
1652.000000	64.840793  
1651.000000	64.854145  
1650.000000	64.859819  
1649.000000	64.857530  
1648.000000	64.848351  
1647.000000	64.834499  
1646.000000	64.819145  
1645.000000	64.806127  
1644.000000	64.798903  
1643.000000	64.800262  
1642.000000	64.811348  
1641.000000	64.831757  
1640.000000	64.858961  
1639.000000	64.888763  
1638.000000	64.916038  
1637.000000	64.935898  
1636.000000	64.944672  
1635.000000	64.940834  
1634.000000	64.925384  
1633.000000	64.901518  
1632.000000	64.873790  
1631.000000	64.846873  
1630.000000	64.824533  
1629.000000	64.808726  
1628.000000	64.799547  
1627.000000	64.794993  
1626.000000	64.792060  
1625.000000	64.787650  
1624.000000	64.779138  
1623.000000	64.765501  
1622.000000	64.746880  
1621.000000	64.725613  
1620.000000	64.705133  
1619.000000	64.689707  
1618.000000	64.683198  
1617.000000	64.688181  
1616.000000	64.705348  
1615.000000	64.732837  
1614.000000	64.766955  
1613.000000	64.802455  
1612.000000	64.833974  
1611.000000	64.857029  
1610.000000	64.868927  
1609.000000	64.869356  
1608.000000	64.860343  
1607.000000	64.845466  
1606.000000	64.828848  
1605.000000	64.814352  
1604.000000	64.804697  
1603.000000	64.800906  
1602.000000	64.802265  
1601.000000	64.806962  
1600.000000	64.812564  
1599.000000	64.816999  
1598.000000	64.818835  
1597.000000	64.817476  
1596.000000	64.813113  
1595.000000	64.806342  
1594.000000	64.798069  
1593.000000	64.788889  
1592.000000	64.779353  
1591.000000	64.769935  
1590.000000	64.760971  
1589.000000	64.752888  
1588.000000	64.745903  
1587.000000	64.740467  
1586.000000	64.736604  
1585.000000	64.733910  
1584.000000	64.731335  
1583.000000	64.727401  
1582.000000	64.720249  
1581.000000	64.708304  
1580.000000	64.690494  
1579.000000	64.666771  
1578.000000	64.638423  
1577.000000	64.608025  
1576.000000	64.578962  
1575.000000	64.554977  
1574.000000	64.539217  
1573.000000	64.533853  
1572.000000	64.539599  
1571.000000	64.555692  
1570.000000	64.580011  
1569.000000	64.609694  
1568.000000	64.641594  
1567.000000	64.672970  
1566.000000	64.701557  
1565.000000	64.726185  
1564.000000	64.746260  
1563.000000	64.761853  
1562.000000	64.772963  
1561.000000	64.779710  
1560.000000	64.782190  
1559.000000	64.780592  
1558.000000	64.775419  
1557.000000	64.767599  
1556.000000	64.758706  
1555.000000	64.750576  
1554.000000	64.745044  
1553.000000	64.743542  
1552.000000	64.746761  
1551.000000	64.754557  
1550.000000	64.766025  
1549.000000	64.779782  
1548.000000	64.794373  
1547.000000	64.808559  
1546.000000	64.821696  
1545.000000	64.833688  
1544.000000	64.845061  
1543.000000	64.856195  
1542.000000	64.867401  
1541.000000	64.878678  
1540.000000	64.889454  
1539.000000	64.898991  
1538.000000	64.906287  
1537.000000	64.910650  
1536.000000	64.911675  
1535.000000	64.909553  
1534.000000	64.904713  
1533.000000	64.897775  
1532.000000	64.889311  
1531.000000	64.879846  
1530.000000	64.869499  
1529.000000	64.858222  
1528.000000	64.845800  
1527.000000	64.832067  
1526.000000	64.817118  
1525.000000	64.801263  
1524.000000	64.785337  
1523.000000	64.770674  
1522.000000	64.758801  
1521.000000	64.751315  
1520.000000	64.749550  
1519.000000	64.754557  
1518.000000	64.766573  
1517.000000	64.784979  
1516.000000	64.808177  
1515.000000	64.834022  
1514.000000	64.859819  
1513.000000	64.882969  
1512.000000	64.901447  
1511.000000	64.913892  
1510.000000	64.920067  
1509.000000	64.920377  
1508.000000	64.916110  
1507.000000	64.908671  
1506.000000	64.899563  
1505.000000	64.889621  
1504.000000	64.879441  
1503.000000	64.868927  
1502.000000	64.857888  
1501.000000	64.845728  
1500.000000	64.832067  
1499.000000	64.816522  
1498.000000	64.799094  
1497.000000	64.779901  
1496.000000	64.759445  
1495.000000	64.738512  
1494.000000	64.718174  
1493.000000	64.700078  
1492.000000	64.686274  
1491.000000	64.678788  
1490.000000	64.679288  
1489.000000	64.688444  
1488.000000	64.705705  
1487.000000	64.728903  
1486.000000	64.754652  
1485.000000	64.778900  
1484.000000	64.797902  
1483.000000	64.808821  
1482.000000	64.810705  
1481.000000	64.804625  
1480.000000	64.793324  
1479.000000	64.780783  
1478.000000	64.771008  
1477.000000	64.767074  
1476.000000	64.770245  
1475.000000	64.779853  
1474.000000	64.793491  
1473.000000	64.807724  
1472.000000	64.818787  
1471.000000	64.823555  
1470.000000	64.819979  
1469.000000	64.807462  
1468.000000	64.786577  
1467.000000	64.758992  
1466.000000	64.726901  
1465.000000	64.692759  
1464.000000	64.659380  
1463.000000	64.629578  
1462.000000	64.605617  
1461.000000	64.589524  
1460.000000	64.582610  
1459.000000	64.585685  
1458.000000	64.598393  
1457.000000	64.619636  
1456.000000	64.647221  
1455.000000	64.678597  
1454.000000	64.710617  
1453.000000	64.740610  
1452.000000	64.766216  
1451.000000	64.785885  
1450.000000	64.798974  
1449.000000	64.805269  
1448.000000	64.805054  
1447.000000	64.798426  
1446.000000	64.785432  
1445.000000	64.766025  
1444.000000	64.740324  
1443.000000	64.709281  
1442.000000	64.675116  
1441.000000	64.641261  
1440.000000	64.612364  
1439.000000	64.593720  
1438.000000	64.590334  
1437.000000	64.605689  
1436.000000	64.640712  
1435.000000	64.693260  
1434.000000	64.758181  
1433.000000	64.827966  
1432.000000	64.894628  
1431.000000	64.950680  
1430.000000	64.991116  
1429.000000	65.014100  
1428.000000	65.020608  
1427.000000	65.014028  
1426.000000	64.998507  
1425.000000	64.978265  
1424.000000	64.956092  
1423.000000	64.933371  
1422.000000	64.909744  
1421.000000	64.884138  
1420.000000	64.855074  
1419.000000	64.821910  
1418.000000	64.784836  
1417.000000	64.745378  
1416.000000	64.706182  
1415.000000	64.670538  
1414.000000	64.641547  
1413.000000	64.621615  
1412.000000	64.611792  
1411.000000	64.611697  
1410.000000	64.619421  
1409.000000	64.632105  
1408.000000	64.646267  
1407.000000	64.658689  
1406.000000	64.666748  
1405.000000	64.669561  
1404.000000	64.667844  
1403.000000	64.663910  
1402.000000	64.660668  
1401.000000	64.660954  
1400.000000	64.666724  
1399.000000	64.678430  
1398.000000	64.694523  
1397.000000	64.712524  
1396.000000	64.729714  
1395.000000	64.743876  
1394.000000	64.754104  
1393.000000	64.760160  
1392.000000	64.762330  
1391.000000	64.760947  
1390.000000	64.756035  
1389.000000	64.747285  
1388.000000	64.734220  
1387.000000	64.717078  
1386.000000	64.697122  
1385.000000	64.676713  
1384.000000	64.658951  
1383.000000	64.647483  
1382.000000	64.644956  
1381.000000	64.652562  
1380.000000	64.669156  
1379.000000	64.691519  
1378.000000	64.714860  
1377.000000	64.734172  
1376.000000	64.745283  
1375.000000	64.745879  
1374.000000	64.735960  
1373.000000	64.717745  
1372.000000	64.695048  
1371.000000	64.671874  
1370.000000	64.652132  
1369.000000	64.638447  
1368.000000	64.632177  
1367.000000	64.633250  
1366.000000	64.640498  
1365.000000	64.652180  
1364.000000	64.666295  
1363.000000	64.681077  
1362.000000	64.695096  
1361.000000	64.707326  
1360.000000	64.717221  
1359.000000	64.724373  
1358.000000	64.728403  
1357.000000	64.729070  
1356.000000	64.726281  
1355.000000	64.719891  
1354.000000	64.710164  
1353.000000	64.697480  
1352.000000	64.682722  
1351.000000	64.667081  
1350.000000	64.652061  
1349.000000	64.638972  
1348.000000	64.629149  
1347.000000	64.623093  
1346.000000	64.620661  
1345.000000	64.620733  
1344.000000	64.621496  
1343.000000	64.621233  
1342.000000	64.618420  
1341.000000	64.612674  
1340.000000	64.604926  
1339.000000	64.597249  
1338.000000	64.592432  
1337.000000	64.593386  
1336.000000	64.602160  
1335.000000	64.619493  
1334.000000	64.644289  
1333.000000	64.673709  
1332.000000	64.703726  
1331.000000	64.729905  
1330.000000	64.748597  
1329.000000	64.757418  
1328.000000	64.756059  
1327.000000	64.746046  
1326.000000	64.730405  
1325.000000	64.712929  
1324.000000	64.697217  
1323.000000	64.686107  
1322.000000	64.680981  
1321.000000	64.681863  
1320.000000	64.687371  
1319.000000	64.695453  
1318.000000	64.703989  
1317.000000	64.711284  
1316.000000	64.716506  
1315.000000	64.719510  
1314.000000	64.720821  
1313.000000	64.721226  
1312.000000	64.721012  
1311.000000	64.719843  
1310.000000	64.716506  
1309.000000	64.709329  
1308.000000	64.696621  
1307.000000	64.677405  
1306.000000	64.651632  
1305.000000	64.620804  
1304.000000	64.587593  
1303.000000	64.555478  
1302.000000	64.527916  
1301.000000	64.507269  
1300.000000	64.494490  
1299.000000	64.488339  
1298.000000	64.486026  
1297.000000	64.483547  
1296.000000	64.476776  
1295.000000	64.462733  
1294.000000	64.439940  
1293.000000	64.409518  
1292.000000	64.374113  
1291.000000	64.338278  
1290.000000	64.306879  
1289.000000	64.284682  
1288.000000	64.275050  
1287.000000	64.279723  
1286.000000	64.298272  
1285.000000	64.328455  
1284.000000	64.366722  
1283.000000	64.408683  
1282.000000	64.449906  
1281.000000	64.486312  
1280.000000	64.514827  
1279.000000	64.533638  
1278.000000	64.542293  
1277.000000	64.541745  
1276.000000	64.533996  
1275.000000	64.521980  
1274.000000	64.508724  
1273.000000	64.497041  
1272.000000	64.488744  
1271.000000	64.485025  
1270.000000	64.485979  
1269.000000	64.490985  
1268.000000	64.498925  
1267.000000	64.508867  
1266.000000	64.519739  
1265.000000	64.530587  
1264.000000	64.540576  
1263.000000	64.548611  
1262.000000	64.553523  
1261.000000	64.553880  
1260.000000	64.548659  
1259.000000	64.537477  
1258.000000	64.521121  
1257.000000	64.501261  
1256.000000	64.480805  
1255.000000	64.463305  
1254.000000	64.452075  
1253.000000	64.449405  
1252.000000	64.455938  
1251.000000	64.470553  
1250.000000	64.490675  
1249.000000	64.513087  
1248.000000	64.534306  
1247.000000	64.551591  
1246.000000	64.563274  
1245.000000	64.569163  
1244.000000	64.569783  
1243.000000	64.566326  
1242.000000	64.560103  
1241.000000	64.552283  
1240.000000	64.543700  
1239.000000	64.535045  
1238.000000	64.527010  
1237.000000	64.520597  
1236.000000	64.516973  
1235.000000	64.517664  
1234.000000	64.523983  
1233.000000	64.536929  
1232.000000	64.556598  
1231.000000	64.582276  
1230.000000	64.612460  
1229.000000	64.645195  
1228.000000	64.678263  
1227.000000	64.709639  
1226.000000	64.737534  
1225.000000	64.760494  
1224.000000	64.777445  
1223.000000	64.787554  
1222.000000	64.790153  
1221.000000	64.784884  
1220.000000	64.771604  
1219.000000	64.750719  
1218.000000	64.723038  
1217.000000	64.690351  
1216.000000	64.654970  
1215.000000	64.619708  
1214.000000	64.587211  
1213.000000	64.559912  
1212.000000	64.539194  
1211.000000	64.525389  
1210.000000	64.517569  
1209.000000	64.513778  
1208.000000	64.511585  
1207.000000	64.508581  
1206.000000	64.503026  
1205.000000	64.494013  
1204.000000	64.481949  
1203.000000	64.468383  
1202.000000	64.455413  
1201.000000	64.445114  
1200.000000	64.438891  
1199.000000	64.437150  
1198.000000	64.438915  
1197.000000	64.442420  
1196.000000	64.445424  
1195.000000	64.446187  
1194.000000	64.443993  
1193.000000	64.439463  
1192.000000	64.434504  
1191.000000	64.431858  
1190.000000	64.434313  
1189.000000	64.443755  
1188.000000	64.460682  
1187.000000	64.483690  
1186.000000	64.509701  
1185.000000	64.534425  
1184.000000	64.553451  
1183.000000	64.562749  
1182.000000	64.560031  
1181.000000	64.544773  
1180.000000	64.518427  
1179.000000	64.483928  
1178.000000	64.445114  
1177.000000	64.406228  
1176.000000	64.371180  
1175.000000	64.343023  
1174.000000	64.323759  
1173.000000	64.314222  
1172.000000	64.314270  
1171.000000	64.322996  
1170.000000	64.339065  
1169.000000	64.360904  
1168.000000	64.386940  
1167.000000	64.415574  
1166.000000	64.445281  
1165.000000	64.474296  
1164.000000	64.500546  
1163.000000	64.521908  
1162.000000	64.536309  
1161.000000	64.542031  
1160.000000	64.537978  
1159.000000	64.524173  
1158.000000	64.501690  
1157.000000	64.472723  
1156.000000	64.439940  
1155.000000	64.406490  
1154.000000	64.375090  
1153.000000	64.347958  
1152.000000	64.326286  
1151.000000	64.310169  
1150.000000	64.298963  
1149.000000	64.291501  
1148.000000	64.286470  
1147.000000	64.282989  
1146.000000	64.280748  
1145.000000	64.279985  
1144.000000	64.281582  
1143.000000	64.286780  
1142.000000	64.296603  
1141.000000	64.311528  
1140.000000	64.331364  
1139.000000	64.355134  
1138.000000	64.381003  
1137.000000	64.406442  
1136.000000	64.428925  
1135.000000	64.446043  
1134.000000	64.455986  
1133.000000	64.457583  
1132.000000	64.450812  
1131.000000	64.436459  
1130.000000	64.416193  
1129.000000	64.392304  
1128.000000	64.367008  
1127.000000	64.342713  
1126.000000	64.321708  
1125.000000	64.305877  
1124.000000	64.296483  
1123.000000	64.294171  
1122.000000	64.299082  
1121.000000	64.310812  
1120.000000	64.328551  
1119.000000	64.351296  
1118.000000	64.378142  
1117.000000	64.408135  
1116.000000	64.440655  
1115.000000	64.475083  
1114.000000	64.511108  
1113.000000	64.548182  
1112.000000	64.585757  
1111.000000	64.623546  
1110.000000	64.660930  
1109.000000	64.697408  
1108.000000	64.731884  
1107.000000	64.763045  
1106.000000	64.788675  
1105.000000	64.806580  
1104.000000	64.813804  
1103.000000	64.807724  
1102.000000	64.785957  
1101.000000	64.747738  
1100.000000	64.693689  
1099.000000	64.626455  
1098.000000	64.550471  
1097.000000	64.471459  
1096.000000	64.396071  
1095.000000	64.330983  
1094.000000	64.281630  
1093.000000	64.251494  
1092.000000	64.241647  
1091.000000	64.250659  
1090.000000	64.274501  
1089.000000	64.307236  
1088.000000	64.341711  
1087.000000	64.370942  
1086.000000	64.388656  
1085.000000	64.390850  
1084.000000	64.376258  
1083.000000	64.347076  
1082.000000	64.307928  
1081.000000	64.265656  
1080.000000	64.227724  
1079.000000	64.200830  
1078.000000	64.189910  
1077.000000	64.196658  
1076.000000	64.219856  
1075.000000	64.254784  
1074.000000	64.294958  
1073.000000	64.332485  
1072.000000	64.359712  
1071.000000	64.370393  
1070.000000	64.360857  
1069.000000	64.330434  
1068.000000	64.281320  
1067.000000	64.218616  
1066.000000	64.149403  
1065.000000	64.081549  
1064.000000	64.022445  
1063.000000	63.978195  
1062.000000	63.952732  
1061.000000	63.947224  
1060.000000	63.960146  
1059.000000	63.987302  
1058.000000	64.023423  
1057.000000	64.062809  
1056.000000	64.100980  
1055.000000	64.134359  
1054.000000	64.161205  
1053.000000	64.181542  
1052.000000	64.196705  
1051.000000	64.208459  
1050.000000	64.218616  
1049.000000	64.228224  
1048.000000	64.237761  
1047.000000	64.247179  
1046.000000	64.256262  
1045.000000	64.264869  
1044.000000	64.273262  
1043.000000	64.282274  
1042.000000	64.292550  
1041.000000	64.304423  
1040.000000	64.317560  
1039.000000	64.330935  
1038.000000	64.342713  
1037.000000	64.350485  
1036.000000	64.352154  
1035.000000	64.345645  
1034.000000	64.329242  
1033.000000	64.301419  
1032.000000	64.261531  
1031.000000	64.209842  
1030.000000	64.147567  
1029.000000	64.077496  
1028.000000	64.003753  
1027.000000	63.931846  
1026.000000	63.867902  
1025.000000	63.817667  
1024.000000	63.785147  
1023.000000	63.772106  
1022.000000	63.777136  
1021.000000	63.796472  
1020.000000	63.823962  
1019.000000	63.853836  
1018.000000	63.881516  
1017.000000	63.905453  
1016.000000	63.926696  
1015.000000	63.948702  
1014.000000	63.975644  
1013.000000	64.010643  
1012.000000	64.054441  
1011.000000	64.104795  
1010.000000	64.156866  
1009.000000	64.204478  
1008.000000	64.241647  
1007.000000	64.264202  
1006.000000	64.271140  
1005.000000	64.264631  
1004.000000	64.249610  
1003.000000	64.232468  
1002.000000	64.219594  
1001.000000	64.215922  
1000.000000	64.223837  
999.000000	 64.242982  
998.000000	 64.270210  
997.000000	 64.301466  
996.000000	 64.331793  
995.000000	 64.357018  
994.000000	 64.373922  
993.000000	 64.381146  
992.000000	 64.378857  
991.000000	 64.368414  
990.000000	 64.351868  
989.000000	 64.331436  
988.000000	 64.309024  
987.000000	 64.286160  
986.000000	 64.263629  
985.000000	 64.241576  
984.000000	 64.220070  
983.000000	 64.199256  
982.000000	 64.179515  
981.000000	 64.161467  
980.000000	 64.145660  
979.000000	 64.132547  
978.000000	 64.122200  
977.000000	 64.114356  
976.000000	 64.108633  
975.000000	 64.104437  
974.000000	 64.101099  
973.000000	 64.097857  
972.000000	 64.094209  
971.000000	 64.090013  
970.000000	 64.084792  
969.000000	 64.078688  
968.000000	 64.071917  
967.000000	 64.065146  
966.000000	 64.059114  
965.000000	 64.054632  
964.000000	 64.052414  
963.000000	 64.052605  
962.000000	 64.054751  
961.000000	 64.057779  
960.000000	 64.060306  
959.000000	 64.061093  
958.000000	 64.059615  
957.000000	 64.056658  
956.000000	 64.054131  
955.000000	 64.055347  
954.000000	 64.063978  
953.000000	 64.082860  
952.000000	 64.112806  
951.000000	 64.152240  
950.000000	 64.196538  
949.000000	 64.238786  
948.000000	 64.270901  
947.000000	 64.285588  
946.000000	 64.277863  
945.000000	 64.246320  
944.000000	 64.193916  
943.000000	 64.127492  
942.000000	 64.056539  
941.000000	 63.991212  
940.000000	 63.940477  
939.000000	 63.910436  
938.000000	 63.902926  
937.000000	 63.915681  
936.000000	 63.943028  
935.000000	 63.977575  
934.000000	 64.011764  
933.000000	 64.039468  
932.000000	 64.057135  
931.000000	 64.064145  
930.000000	 64.062619  
929.000000	 64.056539  
928.000000	 64.050316  
927.000000	 64.047408  
926.000000	 64.049220  
925.000000	 64.054799  
924.000000	 64.061379  
923.000000	 64.065384  
922.000000	 64.064097  
921.000000	 64.056253  
920.000000	 64.042782  
919.000000	 64.026427  
918.000000	 64.011383  
917.000000	 64.001870  
916.000000	 64.000248  
915.000000	 64.007616  
914.000000	 64.023399  
913.000000	 64.046025  
912.000000	 64.073538  
911.000000	 64.104080  
910.000000	 64.136719  
909.000000	 64.170765  
908.000000	 64.205694  
907.000000	 64.239954  
906.000000	 64.270782  
905.000000	 64.294409  
904.000000	 64.306902  
903.000000	 64.305758  
902.000000	 64.290976  
901.000000	 64.265942  
900.000000	 64.236378  
899.000000	 64.209127  
898.000000	 64.189577  
897.000000	 64.180421  
896.000000	 64.179992  
895.000000	 64.182949  
894.000000	 64.180827  
893.000000	 64.164853  
892.000000	 64.127779  
891.000000	 64.066290  
890.000000	 63.981389  
889.000000	 63.878250  
888.000000	 63.765311  
887.000000	 63.652443  
886.000000	 63.548946  
885.000000	 63.461732  
884.000000	 63.394784  
883.000000	 63.348746  
882.000000	 63.321900  
881.000000	 63.310742  
880.000000	 63.311243  
879.000000	 63.319730  
878.000000	 63.333487  
877.000000	 63.350725  
876.000000	 63.371205  
875.000000	 63.395810  
874.000000	 63.426351  
873.000000	 63.464522  
872.000000	 63.510608  
871.000000	 63.562655  
870.000000	 63.617110  
869.000000	 63.668537  
868.000000	 63.710308  
867.000000	 63.735604  
866.000000	 63.739347  
865.000000	 63.718700  
864.000000	 63.674378  
863.000000	 63.610029  
862.000000	 63.531565  
861.000000	 63.446807  
860.000000	 63.364672  
859.000000	 63.293671  
858.000000	 63.240528  
857.000000	 63.209462  
856.000000	 63.201665  
855.000000	 63.215517  
854.000000	 63.247251  
853.000000	 63.290977  
852.000000	 63.339495  
851.000000	 63.386631  
850.000000	 63.428735  
849.000000	 63.465857  
848.000000	 63.502073  
847.000000	 63.545036  
846.000000	 63.603901  
845.000000	 63.687443  
844.000000	 63.799977  
843.000000	 63.940668  
842.000000	 64.100074  
841.000000	 64.262938  
840.000000	 64.407563  
839.000000	 64.512228  
838.000000	 64.556026  
837.000000	 64.525151  
836.000000	 64.413738  
835.000000	 64.226388  
834.000000	 63.977575  
833.000000	 63.689255  
832.000000	 63.389086  
831.000000	 63.105440  
830.000000	 62.866067  
829.000000	 62.694406  
828.000000	 62.607073  
827.000000	 62.611818  
826.000000	 62.706398  
825.000000	 62.878870  
824.000000	 63.107776  
823.000000	 63.365221  
822.000000	 63.621354  
821.000000	 63.849020  
820.000000	 64.027309  
819.000000	 64.144396  
818.000000	 64.198303  
817.000000	 64.195847  
816.000000	 64.150619  
815.000000	 64.078855  
814.000000	 63.997483  
813.000000	 63.919329  
812.000000	 63.854575  
811.000000	 63.806891  
810.000000	 63.776516  
809.000000	 63.758850  
808.000000	 63.748383  
807.000000	 63.738274  
806.000000	 63.723278  
805.000000	 63.699197  
804.000000	 63.663744  
803.000000	 63.615775  
802.000000	 63.554430  
801.000000	 63.479900  
800.000000	 63.393330  
799.000000	 63.297200  
798.000000	 63.195323  
797.000000	 63.093876  
796.000000	 63.000965  
795.000000	 62.926054  
794.000000	 62.878775  
793.000000	 62.865924  
792.000000	 62.890768  
791.000000	 62.953114  
790.000000	 63.048982  
789.000000	 63.169670  
788.000000	 63.303923  
787.000000	 63.439655  
786.000000	 63.565921  
785.000000	 63.673663  
784.000000	 63.757205  
783.000000	 63.814043  
782.000000	 63.844633  
781.000000	 63.852667  
780.000000	 63.842248  
779.000000	 63.817358  
778.000000	 63.780570  
777.000000	 63.734388  
776.000000	 63.680219  
775.000000	 63.619995  
774.000000	 63.556051  
773.000000	 63.492226  
772.000000	 63.431859  
771.000000	 63.377451  
770.000000	 63.329339  
769.000000	 63.285613  
768.000000	 63.242053  
767.000000	 63.193511  
766.000000	 63.135099  
765.000000	 63.064169  
764.000000	 62.981152  
763.000000	 62.890768  
762.000000	 62.800359  
761.000000	 62.719655  
760.000000	 62.658882  
759.000000	 62.627005  
758.000000	 62.628698  
757.000000	 62.664270  
756.000000	 62.729382  
755.000000	 62.815952  
754.000000	 62.912821  
753.000000	 63.008904  
752.000000	 63.094449  
751.000000	 63.163399  
750.000000	 63.213300  
749.000000	 63.245892  
748.000000	 63.265490  
747.000000	 63.277411  
746.000000	 63.286590  
745.000000	 63.295269  
744.000000	 63.302588  
743.000000	 63.304662  
742.000000	 63.296127  
741.000000	 63.271784  
740.000000	 63.228273  
739.000000	 63.165593  
738.000000	 63.086795  
737.000000	 62.996697  
736.000000	 62.900686  
735.000000	 62.803149  
734.000000	 62.707710  
733.000000	 62.616443  
732.000000	 62.531685  
731.000000	 62.456393  
730.000000	 62.395262  
729.000000	 62.353515  
728.000000	 62.337017  
727.000000	 62.350034  
726.000000	 62.394499  
725.000000	 62.467932  
724.000000	 62.563681  
723.000000	 62.671041  
722.000000	 62.776875  
721.000000	 62.867951  
720.000000	 62.932133  
719.000000	 62.960791  
718.000000	 62.949585  
717.000000	 62.899160  
716.000000	 62.814450  
715.000000	 62.703776  
714.000000	 62.578463  
713.000000	 62.451219  
712.000000	 62.334728  
711.000000	 62.239909  
710.000000	 62.174367  
709.000000	 62.141394  
708.000000	 62.139439  
707.000000	 62.163758  
706.000000	 62.206482  
705.000000	 62.259984  
704.000000	 62.317323  
703.000000	 62.374520  
702.000000	 62.429356  
701.000000	 62.482476  
700.000000	 62.535262  
699.000000	 62.589573  
698.000000	 62.645983  
697.000000	 62.703394  
696.000000	 62.759804  
695.000000	 62.811350  
694.000000	 62.854146  
693.000000	 62.883257  
692.000000	 62.894487  
691.000000	 62.884092  
690.000000	 62.850093  
689.000000	 62.791776  
688.000000	 62.710285  
687.000000	 62.609767  
686.000000	 62.497329  
685.000000	 62.383079  
684.000000	 62.278485  
683.000000	 62.194561  
682.000000	 62.139558  
681.000000	 62.117385  
680.000000	 62.127137  
679.000000	 62.162017  
678.000000	 62.212347  
677.000000	 62.266564  
676.000000	 62.315630  
675.000000	 62.354183  
674.000000	 62.382459  
673.000000	 62.404537  
672.000000	 62.427425  
671.000000	 62.458848  
670.000000	 62.502908  
669.000000	 62.558865  
668.000000	 62.618994  
667.000000	 62.670922  
666.000000	 62.699389  
665.000000	 62.690973  
664.000000	 62.637305  
663.000000	 62.538194  
662.000000	 62.402296  
661.000000	 62.246131  
660.000000	 62.090110  
659.000000	 61.954641  
658.000000	 61.855983  
657.000000	 61.803317  
656.000000	 61.797356  
655.000000	 61.831045  
654.000000	 61.892580  
653.000000	 61.968088  
652.000000	 62.044548  
651.000000	 62.111639  
650.000000	 62.162446  
649.000000	 62.193393  
648.000000	 62.202310  
647.000000	 62.188744  
646.000000	 62.152171  
645.000000	 62.093424  
644.000000	 62.015461  
643.000000	 61.924004  
642.000000	 61.828136  
641.000000	 61.738753  
640.000000	 61.667251  
639.000000	 61.622905  
638.000000	 61.610841  
637.000000	 61.631536  
636.000000	 61.680722  
635.000000	 61.750912  
634.000000	 61.832833  
633.000000	 61.917877  
632.000000	 61.999297  
631.000000	 62.073326  
630.000000	 62.138342  
629.000000	 62.193393  
628.000000	 62.236809  
627.000000	 62.266135  
626.000000	 62.277579  
625.000000	 62.266945  
624.000000	 62.231087  
623.000000	 62.169909  
622.000000	 62.087440  
621.000000	 61.992454  
620.000000	 61.897134  
619.000000	 61.814618  
618.000000	 61.756849  
617.000000	 61.733245  
616.000000	 61.747121  
615.000000	 61.794924  
614.000000	 61.866402  
613.000000	 61.947035  
612.000000	 62.020111  
611.000000	 62.070035  
610.000000	 62.087059  
609.000000	 62.069225  
608.000000	 62.023305  
607.000000	 61.962580  
606.000000	 61.903548  
605.000000	 61.861443  
604.000000	 61.846637  
603.000000	 61.861896  
602.000000	 61.902546  
601.000000	 61.957430  
600.000000	 62.013125  
599.000000	 62.056493  
598.000000	 62.078118  
597.000000	 62.073421  
596.000000	 62.043285  
595.000000	 61.992096  
594.000000	 61.926341  
593.000000	 61.851263  
592.000000	 61.770653  
591.000000	 61.683917  
590.000000	 61.587834  
589.000000	 61.476826  
588.000000	 61.346673  
587.000000	 61.195325  
586.000000	 61.024951  
585.000000	 60.842370  
584.000000	 60.658121  
583.000000	 60.485339  
582.000000	 60.337233  
581.000000	 60.225081  
580.000000	 60.156106  
579.000000	 60.133290  
578.000000	 60.155272  
577.000000	 60.216999  
576.000000	 60.311102  
575.000000	 60.428333  
574.000000	 60.559010  
573.000000	 60.693335  
572.000000	 60.822343  
571.000000	 60.936999  
570.000000	 61.030006  
569.000000	 61.095237  
568.000000	 61.129641  
567.000000	 61.134219  
566.000000	 61.113309  
565.000000	 61.075282  
564.000000	 61.029124  
563.000000	 60.984134  
562.000000	 60.946249  
561.000000	 60.918235  
560.000000	 60.898160  
559.000000	 60.881137  
558.000000	 60.861158  
557.000000	 60.833835  
556.000000	 60.797810  
555.000000	 60.755515  
554.000000	 60.714125  
553.000000	 60.683751  
552.000000	 60.675263  
551.000000	 60.697293  
550.000000	 60.754632  
549.000000	 60.846257  
548.000000	 60.965299  
547.000000	 61.099314  
546.000000	 61.232471  
545.000000	 61.347913  
544.000000	 61.431622  
543.000000	 61.473846  
542.000000	 61.470222  
541.000000	 61.421561  
540.000000	 61.334848  
539.000000	 61.219286  
538.000000	 61.085391  
537.000000	 60.942101  
536.000000	 60.797262  
535.000000	 60.655927  
534.000000	 60.521793  
533.000000	 60.398221  
532.000000	 60.289406  
531.000000	 60.201311  
530.000000	 60.140562  
529.000000	 60.114312  
528.000000	 60.127878  
527.000000	 60.182404  
526.000000	 60.272741  
525.000000	 60.387611  
524.000000	 60.510563  
523.000000	 60.622239  
522.000000	 60.703778  
521.000000	 60.741114  
520.000000	 60.726881  
519.000000	 60.662102  
518.000000	 60.554432  
517.000000	 60.417318  
516.000000	 60.265684  
515.000000	 60.112738  
514.000000	 59.967374  
513.000000	 59.833908  
512.000000	 59.712362  
511.000000	 59.601235  
510.000000	 59.498858  
509.000000	 59.405803  
508.000000	 59.324359  
507.000000	 59.258460  
506.000000	 59.210824  
505.000000	 59.180212  
504.000000	 59.161686  
503.000000	 59.146857  
502.000000	 59.125423  
501.000000	 59.086871  
500.000000	 59.026265  
499.000000	 58.945631  
498.000000	 58.853077  
497.000000	 58.760118  
496.000000	 58.678364  
495.000000	 58.615398  
494.000000	 58.570241  
493.000000	 58.534240  
492.000000	 58.492398  
491.000000	 58.430075  
490.000000	 58.338427  
489.000000	 58.219289  
488.000000	 58.086228  
487.000000	 57.961654  
486.000000	 57.870697  
485.000000	 57.833933  
484.000000	 57.859992  
483.000000	 57.943892  
482.000000	 58.065009  
481.000000	 58.196854  
480.000000	 58.310985  
479.000000	 58.391308  
478.000000	 58.438158  
477.000000	 58.469748  
476.000000	 58.515620  
475.000000	 58.607959  
474.000000	 58.770203  
473.000000	 59.009289  
472.000000	 59.311699  
471.000000	 59.648346  
470.000000	 59.981036  
469.000000	 60.273528  
468.000000	 60.498881  
467.000000	 60.645556  
466.000000	 60.716795  
465.000000	 60.725760  
464.000000	 60.690307  
463.000000	 60.626721  
462.000000	 60.546183  
461.000000	 60.457420  
460.000000	 60.363626  
459.000000	 60.269832  
458.000000	 60.177111  
457.000000	 60.092067  
456.000000	 60.014581  
455.000000	 59.939098  
454.000000	 59.851741  
453.000000	 59.731745  
452.000000	 59.560227  
451.000000	 59.325313  
450.000000	 59.031248  
449.000000	 58.699226  
448.000000	 58.367061  
447.000000	 58.081483  
446.000000	 57.881879  
445.000000	 57.788610  
444.000000	 57.797122  
443.000000	 57.878160  
442.000000	 57.978534  
441.000000	 58.036780  
440.000000	 58.005809  
439.000000	 57.866954  
438.000000	 57.622504  
437.000000	 57.304883  
436.000000	 56.977033  
435.000000	 56.713294  
434.000000	 56.572294  
433.000000	 56.588530  
432.000000	 56.760120  
431.000000	 57.055044  
430.000000	 57.428121  
429.000000	 57.824468  
428.000000	 58.189296  
427.000000	 58.481621  
426.000000	 58.684158  
425.000000	 58.794927  
424.000000	 58.823704  
423.000000	 58.778381  
422.000000	 58.657097  
421.000000	 58.452534  
420.000000	 58.154845  
419.000000	 57.762098  
418.000000	 57.283735  
417.000000	 56.729197  
416.000000	 56.094670  
415.000000	 55.378222  
414.000000	 54.560494  
413.000000	 53.563904  
412.000000	 52.279615  
411.000000	 50.612258  
410.000000	 48.524999  
409.000000	 46.031165  
408.000000	 43.270015  
407.000000	 40.459895  
406.000000	 37.932443  
405.000000	 36.099410  
404.000000	 35.343718  
403.000000	 35.905623  
402.000000	 37.814164  
401.000000	 40.873765  
400.000000	 44.647789  
399.000000	 48.513960  
398.000000	 51.820659  
397.000000	 54.017448  
396.000000	 54.789590  
395.000000	 54.122042  
394.000000	 52.277493  
393.000000	 49.720311  
392.000000	 47.011876  
391.000000	 44.692754  
390.000000	 43.282699  
389.000000	 43.212723  
388.000000	 44.826173  
387.000000	 48.315811  
386.000000	 53.727197  
385.000000	 60.862755  
384.000000	 69.306015  
383.000000	 78.339171  
382.000000	 87.067532  
381.000000	 94.404888  
380.000000	 99.316143  
379.000000	 100.868988 
378.000000	 98.414945  
377.000000	 91.745209  
376.000000	 81.130146  
375.000000	 67.451620  
374.000000	 52.141833  
373.000000	 36.984372  
372.000000	 23.906636  
371.000000	 14.500665  
370.000000	 9.752011   

