PE IR       SPECTRUM    SPECTRUM    ASCII       PEDS        1.60        
  -1
C-4B09~1.ASC
17/03/28
00:17:19.00
17/03/28
00:17:19.00
tln
$C-4040-8_t0116$<tbV0>[0.0,13.0,8.0,0.0,27,1,0]
370.000000
64









2002,4.07    
MIRTGS : RIGHTBACK : INTERNAL 2
MIR : ON : INTERNAL 2
OPTKBR

0.200000
8
8.000000
FILLER
RATIO
SPECTRUM
UNLOCKED 256

DOUBLE
64
COMBINED
1
0
0


1.000000
RATIO


1
0
TRUE
51149
0
LEFT NOT FITTED RIGHT NOT FITTED 0
NONE
NONE
15600
12.000000
4.427000
51148
TRUE
1 0 8 72 0 0 0 0 

15798.010000






#HDR
-1
-1
#GR
CM-1
%T
0.00002384185791015625
0.0
5000.000000
-1.000000
4631
8
88.403820
32.772850
#DATA
5000.000000	64.556050 
4999.000000	64.495086 
4998.000000	64.430546 
4997.000000	64.368224 
4996.000000	64.315915 
4995.000000	64.279961 
4994.000000	64.265871 
4993.000000	64.275264 
4992.000000	64.308357 
4991.000000	64.363265 
4990.000000	64.438271 
4989.000000	64.531278 
4988.000000	64.640879 
4987.000000	64.765453 
4986.000000	64.902067 
4985.000000	65.045642 
4984.000000	65.188193 
4983.000000	65.319108 
4982.000000	65.426039 
4981.000000	65.496778 
4980.000000	65.521693 
4979.000000	65.495586 
4978.000000	65.419483 
4977.000000	65.300369 
4976.000000	65.150570 
4975.000000	64.985609 
4974.000000	64.822530 
4973.000000	64.677071 
4972.000000	64.562177 
4971.000000	64.485979 
4970.000000	64.452314 
4969.000000	64.459657 
4968.000000	64.501142 
4967.000000	64.566683 
4966.000000	64.643740 
4965.000000	64.720559 
4964.000000	64.786767 
4963.000000	64.836072 
4962.000000	64.866209 
4961.000000	64.878797 
4960.000000	64.877748 
4959.000000	64.867401 
4958.000000	64.850902 
4957.000000	64.828681 
4956.000000	64.798331 
4955.000000	64.755129 
4954.000000	64.693689 
4953.000000	64.609932 
4952.000000	64.502811 
4951.000000	64.375281 
4950.000000	64.234757 
4949.000000	64.091277 
4948.000000	63.957214 
4947.000000	63.843750 
4946.000000	63.761115 
4945.000000	63.715982 
4944.000000	63.712334 
4943.000000	63.750243 
4942.000000	63.827013 
4941.000000	63.936161 
4940.000000	64.069223 
4939.000000	64.215159 
4938.000000	64.363074 
4937.000000	64.502263 
4936.000000	64.624667 
4935.000000	64.724540 
4934.000000	64.800167 
4933.000000	64.853096 
4932.000000	64.887857 
4931.000000	64.910960 
4930.000000	64.928507 
4929.000000	64.944982 
4928.000000	64.963364 
4927.000000	64.984917 
4926.000000	65.009522 
4925.000000	65.036082 
4924.000000	65.063905 
4923.000000	65.092277 
4922.000000	65.120482 
4921.000000	65.147352 
4920.000000	65.170955 
4919.000000	65.188550 
4918.000000	65.197348 
4917.000000	65.194630 
4916.000000	65.179133 
4915.000000	65.150475 
4914.000000	65.110301 
4913.000000	65.061068 
4912.000000	65.004968 
4911.000000	64.945006 
4910.000000	64.884543 
4909.000000	64.828634 
4908.000000	64.782309 
4907.000000	64.754009 
4906.000000	64.753961 
4905.000000	64.792943 
4904.000000	64.879107 
4903.000000	65.014910 
4902.000000	65.194845 
4901.000000	65.403699 
4900.000000	65.618324 
4899.000000	65.811848 
4898.000000	65.958857 
4897.000000	66.041231 
4896.000000	66.051077 
4895.000000	65.992712 
4894.000000	65.879893 
4893.000000	65.734052 
4892.000000	65.576529 
4891.000000	65.425491 
4890.000000	65.290021 
4889.000000	65.171790 
4888.000000	65.063977 
4887.000000	64.956307 
4886.000000	64.838361 
4885.000000	64.704489 
4884.000000	64.556622 
4883.000000	64.403462 
4882.000000	64.260482 
4881.000000	64.144253 
4880.000000	64.070820 
4879.000000	64.050316 
4878.000000	64.084863 
4877.000000	64.166975 
4876.000000	64.280319 
4875.000000	64.403223 
4874.000000	64.511942 
4873.000000	64.586448 
4872.000000	64.615440 
4871.000000	64.599370 
4870.000000	64.549660 
4869.000000	64.486098 
4868.000000	64.431929 
4867.000000	64.407634 
4866.000000	64.425921 
4865.000000	64.488506 
4864.000000	64.586687 
4863.000000	64.703798 
4862.000000	64.821219 
4861.000000	64.922237 
4860.000000	64.996385 
4859.000000	65.041136 
4858.000000	65.062332 
4857.000000	65.069937 
4856.000000	65.073394 
4855.000000	65.078735 
4854.000000	65.086603 
4853.000000	65.092039 
4852.000000	65.086913 
4851.000000	65.062904 
4850.000000	65.015673 
4849.000000	64.944696 
4848.000000	64.854431 
4847.000000	64.752459 
4846.000000	64.648485 
4845.000000	64.552044 
4844.000000	64.471697 
4843.000000	64.413118 
4842.000000	64.379382 
4841.000000	64.371871 
4840.000000	64.390206 
4839.000000	64.431929 
4838.000000	64.493227 
4837.000000	64.568257 
4836.000000	64.650487 
4835.000000	64.732336 
4834.000000	64.807176 
4833.000000	64.869618 
4832.000000	64.916706 
4831.000000	64.947986 
4830.000000	64.965081 
4829.000000	64.971232 
4828.000000	64.969682 
4827.000000	64.962816 
4826.000000	64.952111 
4825.000000	64.938664 
4824.000000	64.923524 
4823.000000	64.908456 
4822.000000	64.895009 
4821.000000	64.884328 
4820.000000	64.876413 
4819.000000	64.869570 
4818.000000	64.859914 
4817.000000	64.842319 
4816.000000	64.811873 
4815.000000	64.765858 
4814.000000	64.704966 
4813.000000	64.634466 
4812.000000	64.563751 
4811.000000	64.504671 
4810.000000	64.468622 
4809.000000	64.463806 
4808.000000	64.492654 
4807.000000	64.551067 
4806.000000	64.628887 
4805.000000	64.712119 
4804.000000	64.786052 
4803.000000	64.838528 
4802.000000	64.862513 
4801.000000	64.857292 
4800.000000	64.827561 
4799.000000	64.782333 
4798.000000	64.732217 
4797.000000	64.687180 
4796.000000	64.654445 
4795.000000	64.637970 
4794.000000	64.638352 
4793.000000	64.654040 
4792.000000	64.682197 
4791.000000	64.719533 
4790.000000	64.762806 
4789.000000	64.808559 
4788.000000	64.853262 
4787.000000	64.892816 
4786.000000	64.923214 
4785.000000	64.940667 
4784.000000	64.943194 
4783.000000	64.931178 
4782.000000	64.907836 
4781.000000	64.879465 
4780.000000	64.853644 
4779.000000	64.837598 
4778.000000	64.836263 
4777.000000	64.851641 
4776.000000	64.881467 
4775.000000	64.919829 
4774.000000	64.958691 
4773.000000	64.989733 
4772.000000	65.006732 
4771.000000	65.007257 
4770.000000	64.992570 
4769.000000	64.967346 
4768.000000	64.937853 
4767.000000	64.910149 
4766.000000	64.888596 
4765.000000	64.874720 
4764.000000	64.867639 
4763.000000	64.864110 
4762.000000	64.860248 
4761.000000	64.852333 
4760.000000	64.837908 
4759.000000	64.816522 
4758.000000	64.788937 
4757.000000	64.758110 
4756.000000	64.728260 
4755.000000	64.705371 
4754.000000	64.695143 
4753.000000	64.702820 
4752.000000	64.732217 
4751.000000	64.784216 
4750.000000	64.856529 
4749.000000	64.943075 
4748.000000	65.034675 
4747.000000	65.120768 
4746.000000	65.191364 
4745.000000	65.239238 
4744.000000	65.261149 
4743.000000	65.258812 
4742.000000	65.238380 
4741.000000	65.207982 
4740.000000	65.175533 
4739.000000	65.146636 
4738.000000	65.123105 
4737.000000	65.103173 
4736.000000	65.082263 
4735.000000	65.055465 
4734.000000	65.019059 
4733.000000	64.972090 
4732.000000	64.916586 
4731.000000	64.857006 
4730.000000	64.799261 
4729.000000	64.748406 
4728.000000	64.708256 
4727.000000	64.679503 
4726.000000	64.661145 
4725.000000	64.651012 
4724.000000	64.647102 
4723.000000	64.648246 
4722.000000	64.654898 
4721.000000	64.668679 
4720.000000	64.691925 
4719.000000	64.725613 
4718.000000	64.769840 
4717.000000	64.822912 
4716.000000	64.881539 
4715.000000	64.941072 
4714.000000	64.996385 
4713.000000	65.042805 
4712.000000	65.076613 
4711.000000	65.096044 
4710.000000	65.100860 
4709.000000	65.092635 
4708.000000	65.074729 
4707.000000	65.051531 
4706.000000	65.027737 
4705.000000	65.006709 
4704.000000	64.991164 
4703.000000	64.981055 
4702.000000	64.974522 
4701.000000	64.967226 
4700.000000	64.954113 
4699.000000	64.930224 
4698.000000	64.892101 
4697.000000	64.839005 
4696.000000	64.773535 
4695.000000	64.701151 
4694.000000	64.628839 
4693.000000	64.564323 
4692.000000	64.513921 
4691.000000	64.482378 
4690.000000	64.471673 
4689.000000	64.481616 
4688.000000	64.510035 
4687.000000	64.553952 
4686.000000	64.610147 
4685.000000	64.675283 
4684.000000	64.746165 
4683.000000	64.819717 
4682.000000	64.893102 
4681.000000	64.962816 
4680.000000	65.024876 
4679.000000	65.075492 
4678.000000	65.110945 
4677.000000	65.128946 
4676.000000	65.128254 
4675.000000	65.109658 
4674.000000	65.075516 
4673.000000	65.030145 
4672.000000	64.979076 
4671.000000	64.928555 
4670.000000	64.884686 
4669.000000	64.852881 
4668.000000	64.837074 
4667.000000	64.839315 
4666.000000	64.859127 
4665.000000	64.893865 
4664.000000	64.938735 
4663.000000	64.987349 
4662.000000	65.032982 
4661.000000	65.069699 
4660.000000	65.093064 
4659.000000	65.100550 
4658.000000	65.092277 
4657.000000	65.070199 
4656.000000	65.037703 
4655.000000	64.998412 
4654.000000	64.955449 
4653.000000	64.910936 
4652.000000	64.866662 
4651.000000	64.824008 
4650.000000	64.784312 
4649.000000	64.749073 
4648.000000	64.720511 
4647.000000	64.700579 
4646.000000	64.690208 
4645.000000	64.689183 
4644.000000	64.695358 
4643.000000	64.705586 
4642.000000	64.715528 
4641.000000	64.721536 
4640.000000	64.720940 
4639.000000	64.713716 
4638.000000	64.702391 
4637.000000	64.691710 
4636.000000	64.687037 
4635.000000	64.693331 
4634.000000	64.713382 
4633.000000	64.747071 
4632.000000	64.791107 
4631.000000	64.839625 
4630.000000	64.885377 
4629.000000	64.921522 
4628.000000	64.942812 
4627.000000	64.946961 
4626.000000	64.934396 
4625.000000	64.908027 
4624.000000	64.871978 
4623.000000	64.830851 
4622.000000	64.788389 
4621.000000	64.746665 
4620.000000	64.706587 
4619.000000	64.668226 
4618.000000	64.632177 
4617.000000	64.599871 
4616.000000	64.574599 
4615.000000	64.560699 
4614.000000	64.563035 
4613.000000	64.585161 
4612.000000	64.628481 
4611.000000	64.690756 
4610.000000	64.766430 
4609.000000	64.846944 
4608.000000	64.922380 
4607.000000	64.983463 
4606.000000	65.023159 
4605.000000	65.037918 
4604.000000	65.028381 
4603.000000	64.999127 
4602.000000	64.957427 
4601.000000	64.911341 
4600.000000	64.868474 
4599.000000	64.834284 
4598.000000	64.811754 
4597.000000	64.800691 
4596.000000	64.799022 
4595.000000	64.802837 
4594.000000	64.807534 
4593.000000	64.809203 
4592.000000	64.804959 
4591.000000	64.794421 
4590.000000	64.779019 
4589.000000	64.762449 
4588.000000	64.749360 
4587.000000	64.744830 
4586.000000	64.752674 
4585.000000	64.775013 
4584.000000	64.811325 
4583.000000	64.859390 
4582.000000	64.915919 
4581.000000	64.977240 
4580.000000	65.039873 
4579.000000	65.100836 
4578.000000	65.157699 
4577.000000	65.208339 
4576.000000	65.250849 
4575.000000	65.283179 
4574.000000	65.303277 
4573.000000	65.309906 
4572.000000	65.302991 
4571.000000	65.284991 
4570.000000	65.260410 
4569.000000	65.235161 
4568.000000	65.215229 
4567.000000	65.206289 
4566.000000	65.211462 
4565.000000	65.230703 
4564.000000	65.260672 
4563.000000	65.296411 
4562.000000	65.331482 
4561.000000	65.359687 
4560.000000	65.375447 
4559.000000	65.374898 
4558.000000	65.356111 
4557.000000	65.318965 
4556.000000	65.266466 
4555.000000	65.204071 
4554.000000	65.140509 
4553.000000	65.086317 
4552.000000	65.053391 
4551.000000	65.052318 
4550.000000	65.090298 
4549.000000	65.168094 
4548.000000	65.278840 
4547.000000	65.407681 
4546.000000	65.533781 
4545.000000	65.633440 
4544.000000	65.684723 
4543.000000	65.671801 
4542.000000	65.588927 
4541.000000	65.441155 
4540.000000	65.243053 
4539.000000	65.015983 
4538.000000	64.784026 
4537.000000	64.569449 
4536.000000	64.389252 
4535.000000	64.253425 
4534.000000	64.165115 
4533.000000	64.121317 
4532.000000	64.115309 
4531.000000	64.138722 
4530.000000	64.182782 
4529.000000	64.240097 
4528.000000	64.304113 
4527.000000	64.369583 
4526.000000	64.431190 
4525.000000	64.484357 
4524.000000	64.525032 
4523.000000	64.550995 
4522.000000	64.561915 
4521.000000	64.560389 
4520.000000	64.551448 
4519.000000	64.541864 
4518.000000	64.539027 
4517.000000	64.549612 
4516.000000	64.578247 
4515.000000	64.626431 
4514.000000	64.692401 
4513.000000	64.771747 
4512.000000	64.858150 
4511.000000	64.944672 
4510.000000	65.024733 
4509.000000	65.092730 
4508.000000	65.144872 
4507.000000	65.179872 
4506.000000	65.198063 
4505.000000	65.200638 
4504.000000	65.190076 
4503.000000	65.169930 
4502.000000	65.144181 
4501.000000	65.117454 
4500.000000	65.093994 
4499.000000	65.077638 
4498.000000	65.070176 
4497.000000	65.071177 
4496.000000	65.077662 
4495.000000	65.084671 
4494.000000	65.086197 
4493.000000	65.076518 
4492.000000	65.052103 
4491.000000	65.012335 
4490.000000	64.959192 
4489.000000	64.897155 
4488.000000	64.832067 
4487.000000	64.770531 
4486.000000	64.718937 
4485.000000	64.682340 
4484.000000	64.663887 
4483.000000	64.663720 
4482.000000	64.679574 
4481.000000	64.705967 
4480.000000	64.734816 
4479.000000	64.757251 
4478.000000	64.765644 
4477.000000	64.754843 
4476.000000	64.722824 
4475.000000	64.672112 
4474.000000	64.609098 
4473.000000	64.543604 
4472.000000	64.486908 
4471.000000	64.450716 
4470.000000	64.444994 
4469.000000	64.477157 
4468.000000	64.550590 
4467.000000	64.664053 
4466.000000	64.811325 
4465.000000	64.982557 
4464.000000	65.164923 
4463.000000	65.343523 
4462.000000	65.503287 
4461.000000	65.631079 
4460.000000	65.716981 
4459.000000	65.756130 
4458.000000	65.748000 
4457.000000	65.698409 
4456.000000	65.615415 
4455.000000	65.508913 
4454.000000	65.387797 
4453.000000	65.260529 
4452.000000	65.133666 
4451.000000	65.013504 
4450.000000	64.905333 
4449.000000	64.814710 
4448.000000	64.746141 
4447.000000	64.702820 
4446.000000	64.685153 
4445.000000	64.689564 
4444.000000	64.712190 
4443.000000	64.749097 
4442.000000	64.799189 
4441.000000	64.863896 
4440.000000	64.943194 
4439.000000	65.034770 
4438.000000	65.134549 
4437.000000	65.236902 
4436.000000	65.333366 
4435.000000	65.415072 
4434.000000	65.479779 
4433.000000	65.527510 
4432.000000	65.556955 
4431.000000	65.567612 
4430.000000	65.554881 
4429.000000	65.517520 
4428.000000	65.468549 
4427.000000	65.423083 
4426.000000	65.393257 
4425.000000	65.385460 
4424.000000	65.402650 
4423.000000	65.435218 
4422.000000	65.462732 
4421.000000	65.459609 
4420.000000	65.401148 
4419.000000	65.275835 
4418.000000	65.090107 
4417.000000	64.875936 
4416.000000	64.685392 
4415.000000	64.580249 
4414.000000	64.619517 
4413.000000	64.833354 
4412.000000	65.225315 
4411.000000	65.769648 
4410.000000	66.429400 
4409.000000	67.189407 
4408.000000	68.039894 
4407.000000	69.008421 
4406.000000	70.086264 
4405.000000	71.211171 
4404.000000	72.233176 
4403.000000	72.924280 
4402.000000	73.031258 
4401.000000	72.345423 
4400.000000	70.770382 
4399.000000	68.388509 
4398.000000	65.440607 
4397.000000	62.289905 
4396.000000	59.343385 
4395.000000	56.956791 
4394.000000	55.380058 
4393.000000	54.711961 
4392.000000	54.898929 
4391.000000	55.766797 
4390.000000	57.060623 
4389.000000	58.511281 
4388.000000	59.877514 
4387.000000	60.994744 
4386.000000	61.801576 
4385.000000	62.338185 
4384.000000	62.712693 
4383.000000	63.059973 
4382.000000	63.490104 
4381.000000	64.056658 
4380.000000	64.744544 
4379.000000	65.477943 
4378.000000	66.169381 
4377.000000	66.730904 
4376.000000	67.126345 
4375.000000	67.353487 
4374.000000	67.445564 
4373.000000	67.449331 
4372.000000	67.399668 
4371.000000	67.318797 
4370.000000	67.212677 
4369.000000	67.077779 
4368.000000	66.922020 
4367.000000	66.750311 
4366.000000	66.571378 
4365.000000	66.393947 
4364.000000	66.228437 
4363.000000	66.076183 
4362.000000	65.928983 
4361.000000	65.779519 
4360.000000	65.623784 
4359.000000	65.462303 
4358.000000	65.301465 
4357.000000	65.145468 
4356.000000	64.998364 
4355.000000	64.867997 
4354.000000	64.763426 
4353.000000	64.687848 
4352.000000	64.641880 
4351.000000	64.623665 
4350.000000	64.630722 
4349.000000	64.658117 
4348.000000	64.702033 
4347.000000	64.761114 
4346.000000	64.834284 
4345.000000	64.916539 
4344.000000	65.001988 
4343.000000	65.083718 
4342.000000	65.154361 
4341.000000	65.206933 
4340.000000	65.236401 
4339.000000	65.240573 
4338.000000	65.221357 
4337.000000	65.184640 
4336.000000	65.138673 
4335.000000	65.092253 
4334.000000	65.053725 
4333.000000	65.029573 
4332.000000	65.022134 
4331.000000	65.029954 
4330.000000	65.049314 
4329.000000	65.075492 
4328.000000	65.103816 
4327.000000	65.130925 
4326.000000	65.156102 
4325.000000	65.180063 
4324.000000	65.203428 
4323.000000	65.225458 
4322.000000	65.243840 
4321.000000	65.254497 
4320.000000	65.252017 
4319.000000	65.231323 
4318.000000	65.189576 
4317.000000	65.127038 
4316.000000	65.047788 
4315.000000	64.959096 
4314.000000	64.870095 
4313.000000	64.790058 
4312.000000	64.726758 
4311.000000	64.684867 
4310.000000	64.664983 
4309.000000	64.664244 
4308.000000	64.677309 
4307.000000	64.697670 
4306.000000	64.719414 
4305.000000	64.738368 
4304.000000	64.753270 
4303.000000	64.765453 
4302.000000	64.778280 
4301.000000	64.796090 
4300.000000	64.822554 
4299.000000	64.859366 
4298.000000	64.905309 
4297.000000	64.956665 
4296.000000	65.007710 
4295.000000	65.051627 
4294.000000	65.082740 
4293.000000	65.097808 
4292.000000	65.097308 
4291.000000	65.085315 
4290.000000	65.068459 
4289.000000	65.054893 
4288.000000	65.051245 
4287.000000	65.061664 
4286.000000	65.085983 
4285.000000	65.120148 
4284.000000	65.157175 
4283.000000	65.189433 
4282.000000	65.210652 
4281.000000	65.217590 
4280.000000	65.211367 
4279.000000	65.196943 
4278.000000	65.181016 
4277.000000	65.169334 
4276.000000	65.164899 
4275.000000	65.166354 
4274.000000	65.168619 
4273.000000	65.163993 
4272.000000	65.144586 
4271.000000	65.105056 
4270.000000	65.044760 
4269.000000	64.968490 
4268.000000	64.885663 
4267.000000	64.807915 
4266.000000	64.746379 
4265.000000	64.708399 
4264.000000	64.695882 
4263.000000	64.704704 
4262.000000	64.725804 
4261.000000	64.747905 
4260.000000	64.760422 
4259.000000	64.756774 
4258.000000	64.735865 
4257.000000	64.702749 
4256.000000	64.666700 
4255.000000	64.639306 
4254.000000	64.630699 
4253.000000	64.646983 
4252.000000	64.687919 
4251.000000	64.747047 
4250.000000	64.812874 
4249.000000	64.871525 
4248.000000	64.910387 
4247.000000	64.920306 
4246.000000	64.898419 
4245.000000	64.848589 
4244.000000	64.780902 
4243.000000	64.708924 
4242.000000	64.646887 
4241.000000	64.606809 
4240.000000	64.595842 
4239.000000	64.615201 
4238.000000	64.660310 
4237.000000	64.722609 
4236.000000	64.791727 
4235.000000	64.857721 
4234.000000	64.913392 
4233.000000	64.955496 
4232.000000	64.983963 
4231.000000	65.000700 
4230.000000	65.008378 
4229.000000	65.008831 
4228.000000	65.002822 
4227.000000	64.989995 
4226.000000	64.970231 
4225.000000	64.944434 
4224.000000	64.915966 
4223.000000	64.890480 
4222.000000	64.875078 
4221.000000	64.876770 
4220.000000	64.900922 
4219.000000	64.949417 
4218.000000	65.018749 
4217.000000	65.100717 
4216.000000	65.184164 
4215.000000	65.257501 
4214.000000	65.311050 
4213.000000	65.339279 
4212.000000	65.341472 
4211.000000	65.322184 
4210.000000	65.289831 
4209.000000	65.254616 
4208.000000	65.225815 
4207.000000	65.210008 
4206.000000	65.209937 
4205.000000	65.224313 
4204.000000	65.249061 
4203.000000	65.278697 
4202.000000	65.307998 
4201.000000	65.334153 
4200.000000	65.357089 
4199.000000	65.378332 
4198.000000	65.399098 
4197.000000	65.418028 
4196.000000	65.430068 
4195.000000	65.425944 
4194.000000	65.394687 
4193.000000	65.326929 
4192.000000	65.219235 
4191.000000	65.076255 
4190.000000	64.912056 
4189.000000	64.748001 
4188.000000	64.609193 
4187.000000	64.518451 
4186.000000	64.491701 
4185.000000	64.533758 
4184.000000	64.637279 
4183.000000	64.783930 
4182.000000	64.948821 
4181.000000	65.105867 
4180.000000	65.233016 
4179.000000	65.315985 
4178.000000	65.349698 
4177.000000	65.337324 
4176.000000	65.288114 
4175.000000	65.213871 
4174.000000	65.125989 
4173.000000	65.033125 
4172.000000	64.940714 
4171.000000	64.851212 
4170.000000	64.764761 
4169.000000	64.680624 
4168.000000	64.598155 
4167.000000	64.518260 
4166.000000	64.443111 
4165.000000	64.377117 
4164.000000	64.325118 
4163.000000	64.292597 
4162.000000	64.283394 
4161.000000	64.299750 
4160.000000	64.340972 
4159.000000	64.403533 
4158.000000	64.480519 
4157.000000	64.563488 
4156.000000	64.643073 
4155.000000	64.711475 
4154.000000	64.763069 
4153.000000	64.796066 
4152.000000	64.812159 
4151.000000	64.816451 
4150.000000	64.816260 
4149.000000	64.818549 
4148.000000	64.828133 
4147.000000	64.847111 
4146.000000	64.874553 
4145.000000	64.906787 
4144.000000	64.938664 
4143.000000	64.964675 
4142.000000	64.980363 
4141.000000	64.983916 
4140.000000	64.976620 
4139.000000	64.961862 
4138.000000	64.944958 
4137.000000	64.931750 
4136.000000	64.927697 
4135.000000	64.936661 
4134.000000	64.960050 
4133.000000	64.997124 
4132.000000	65.044140 
4131.000000	65.095782 
4130.000000	65.145039 
4129.000000	65.185046 
4128.000000	65.209507 
4127.000000	65.214133 
4126.000000	65.196776 
4125.000000	65.158009 
4124.000000	65.100789 
4123.000000	65.029883 
4122.000000	64.950895 
4121.000000	64.869737 
4120.000000	64.792156 
4119.000000	64.723348 
4118.000000	64.667677 
4117.000000	64.628529 
4116.000000	64.608359 
4115.000000	64.608335 
4114.000000	64.628076 
4113.000000	64.664936 
4112.000000	64.714050 
4111.000000	64.768481 
4110.000000	64.819931 
4109.000000	64.860463 
4108.000000	64.883112 
4107.000000	64.884305 
4106.000000	64.864230 
4105.000000	64.827156 
4104.000000	64.780211 
4103.000000	64.732384 
4102.000000	64.692544 
4101.000000	64.668035 
4100.000000	64.663648 
4099.000000	64.680671 
4098.000000	64.717102 
4097.000000	64.767861 
4096.000000	64.826226 
4095.000000	64.884233 
4094.000000	64.934372 
4093.000000	64.969944 
4092.000000	64.986205 
4091.000000	64.980959 
4090.000000	64.955258 
4089.000000	64.913177 
4088.000000	64.861512 
4087.000000	64.809298 
4086.000000	64.766192 
4085.000000	64.740967 
4084.000000	64.739775 
4083.000000	64.765429 
4082.000000	64.816665 
4081.000000	64.888453 
4080.000000	64.972996 
4079.000000	65.061211 
4078.000000	65.144038 
4077.000000	65.213918 
4076.000000	65.265512 
4075.000000	65.295982 
4074.000000	65.305256 
4073.000000	65.295505 
4072.000000	65.270471 
4071.000000	65.235209 
4070.000000	65.194773 
4069.000000	65.154147 
4068.000000	65.117096 
4067.000000	65.086340 
4066.000000	65.062594 
4065.000000	65.045189 
4064.000000	65.031504 
4063.000000	65.018248 
4062.000000	65.002250 
4061.000000	64.981913 
4060.000000	64.957332 
4059.000000	64.931058 
4058.000000	64.907550 
4057.000000	64.892601 
4056.000000	64.891886 
4055.000000	64.909553 
4054.000000	64.946913 
4053.000000	65.001845 
4052.000000	65.069222 
4051.000000	65.141487 
4050.000000	65.210151 
4049.000000	65.267252 
4048.000000	65.306687 
4047.000000	65.325284 
4046.000000	65.323376 
4045.000000	65.304017 
4044.000000	65.271997 
4043.000000	65.232706 
4042.000000	65.191316 
4041.000000	65.151500 
4040.000000	65.115475 
4039.000000	65.083599 
4038.000000	65.055060 
4037.000000	65.028691 
4036.000000	65.003824 
4035.000000	64.980459 
4034.000000	64.959836 
4033.000000	64.943861 
4032.000000	64.935183 
4031.000000	64.936161 
4030.000000	64.948511 
4029.000000	64.972591 
4028.000000	65.007138 
4027.000000	65.049529 
4026.000000	65.095829 
4025.000000	65.141558 
4024.000000	65.182113 
4023.000000	65.213489 
4022.000000	65.232491 
4021.000000	65.237307 
4020.000000	65.227484 
4019.000000	65.204143 
4018.000000	65.169763 
4017.000000	65.127778 
4016.000000	65.082502 
4015.000000	65.038585 
4014.000000	65.000510 
4013.000000	64.972138 
4012.000000	64.955973 
4011.000000	64.952945 
4010.000000	64.962053 
4009.000000	64.980745 
4008.000000	65.004968 
4007.000000	65.029931 
4006.000000	65.050840 
4005.000000	65.063953 
4004.000000	65.067195 
4003.000000	65.060591 
4002.000000	65.046072 
4001.000000	65.026879 
4000.000000	65.006852 
3999.000000	64.989542 
3998.000000	64.977407 
3997.000000	64.971613 
3996.000000	64.971947 
3995.000000	64.977192 
3994.000000	64.985632 
3993.000000	64.995622 
3992.000000	65.005993 
3991.000000	65.016102 
3990.000000	65.025639 
3989.000000	65.034508 
3988.000000	65.042424 
3987.000000	65.048933 
3986.000000	65.053606 
3985.000000	65.056157 
3984.000000	65.056300 
3983.000000	65.054392 
3982.000000	65.051150 
3981.000000	65.047192 
3980.000000	65.042495 
3979.000000	65.036487 
3978.000000	65.027952 
3977.000000	65.015506 
3976.000000	64.998126 
3975.000000	64.975762 
3974.000000	64.949703 
3973.000000	64.922809 
3972.000000	64.899015 
3971.000000	64.882278 
3970.000000	64.875936 
3969.000000	64.881372 
3968.000000	64.897918 
3967.000000	64.922690 
3966.000000	64.951658 
3965.000000	64.980292 
3964.000000	65.004897 
3963.000000	65.023326 
3962.000000	65.035367 
3961.000000	65.042591 
3960.000000	65.047669 
3959.000000	65.053153 
3958.000000	65.061068 
3957.000000	65.071916 
3956.000000	65.085101 
3955.000000	65.098929 
3954.000000	65.111374 
3953.000000	65.120196 
3952.000000	65.123987 
3951.000000	65.121793 
3950.000000	65.113520 
3949.000000	65.099406 
3948.000000	65.079927 
3947.000000	65.056133 
3946.000000	65.029525 
3945.000000	65.002083 
3944.000000	64.976644 
3943.000000	64.956212 
3942.000000	64.943599 
3941.000000	64.940738 
3940.000000	64.948248 
3939.000000	64.964818 
3938.000000	64.987254 
3937.000000	65.011405 
3936.000000	65.032887 
3935.000000	65.048432 
3934.000000	65.056610 
3933.000000	65.058350 
3932.000000	65.056467 
3931.000000	65.055131 
3930.000000	65.058422 
3929.000000	65.069293 
3928.000000	65.088510 
3927.000000	65.114593 
3926.000000	65.143990 
3925.000000	65.172457 
3924.000000	65.195512 
3923.000000	65.209770 
3922.000000	65.213179 
3921.000000	65.205502 
3920.000000	65.188097 
3919.000000	65.163064 
3918.000000	65.133237 
3917.000000	65.101242 
3916.000000	65.069794 
3915.000000	65.041708 
3914.000000	65.019822 
3913.000000	65.006923 
3912.000000	65.005564 
3911.000000	65.017771 
3910.000000	65.043973 
3909.000000	65.082669 
3908.000000	65.130162 
3907.000000	65.180945 
3906.000000	65.228366 
3905.000000	65.265703 
3904.000000	65.287780 
3903.000000	65.291976 
3902.000000	65.279126 
3901.000000	65.253353 
3900.000000	65.221524 
3899.000000	65.191936 
3898.000000	65.172863 
3897.000000	65.170550 
3896.000000	65.188574 
3895.000000	65.226483 
3894.000000	65.280532 
3893.000000	65.343713 
3892.000000	65.407657 
3891.000000	65.463328 
3890.000000	65.502977 
3889.000000	65.520906 
3888.000000	65.514111 
3887.000000	65.482711 
3886.000000	65.429735 
3885.000000	65.360283 
3884.000000	65.280866 
3883.000000	65.198397 
3882.000000	65.119504 
3881.000000	65.049743 
3880.000000	64.993238 
3879.000000	64.952278 
3878.000000	64.927482 
3877.000000	64.917731 
3876.000000	64.920449 
3875.000000	64.932036 
3874.000000	64.948368 
3873.000000	64.965462 
3872.000000	64.980173 
3871.000000	64.990043 
3870.000000	64.993834 
3869.000000	64.991569 
3868.000000	64.984536 
3867.000000	64.974713 
3866.000000	64.964270 
3865.000000	64.955353 
3864.000000	64.949464 
3863.000000	64.947319 
3862.000000	64.948558 
3861.000000	64.952206 
3860.000000	64.956474 
3859.000000	64.959144 
3858.000000	64.958024 
3857.000000	64.951443 
3856.000000	64.938879 
3855.000000	64.920926 
3854.000000	64.900040 
3853.000000	64.879703 
3852.000000	64.864659 
3851.000000	64.859843 
3850.000000	64.869046 
3849.000000	64.893555 
3848.000000	64.931893 
3847.000000	64.979672 
3846.000000	65.029501 
3845.000000	65.072631 
3844.000000	65.100550 
3843.000000	65.106797 
3842.000000	65.088534 
3841.000000	65.047073 
3840.000000	64.987754 
3839.000000	64.918756 
3838.000000	64.849400 
3837.000000	64.787960 
3836.000000	64.740228 
3835.000000	64.708471 
3834.000000	64.691567 
3833.000000	64.685559 
3832.000000	64.685416 
3831.000000	64.686369 
3830.000000	64.685034 
3829.000000	64.680433 
3828.000000	64.673495 
3827.000000	64.667057 
3826.000000	64.664340 
3825.000000	64.668440 
3824.000000	64.681220 
3823.000000	64.703202 
3822.000000	64.733362 
3821.000000	64.769649 
3820.000000	64.809632 
3819.000000	64.850687 
3818.000000	64.890646 
3817.000000	64.927721 
3816.000000	64.960408 
3815.000000	64.987325 
3814.000000	65.007138 
3813.000000	65.018749 
3812.000000	65.021347 
3811.000000	65.015029 
3810.000000	65.000534 
3809.000000	64.979863 
3808.000000	64.955663 
3807.000000	64.930868 
3806.000000	64.908266 
3805.000000	64.890289 
3804.000000	64.878773 
3803.000000	64.874625 
3802.000000	64.878177 
3801.000000	64.889383 
3800.000000	64.907717 
3799.000000	64.932250 
3798.000000	64.961385 
3797.000000	64.992833 
3796.000000	65.023517 
3795.000000	65.050053 
3794.000000	65.069055 
3793.000000	65.078210 
3792.000000	65.076923 
3791.000000	65.066599 
3790.000000	65.050840 
3789.000000	65.034675 
3788.000000	65.023541 
3787.000000	65.021872 
3786.000000	65.032124 
3785.000000	65.054059 
3784.000000	65.085053 
3783.000000	65.120482 
3782.000000	65.155029 
3781.000000	65.183615 
3780.000000	65.202593 
3779.000000	65.210151 
3778.000000	65.206384 
3777.000000	65.193176 
3776.000000	65.173244 
3775.000000	65.149927 
3774.000000	65.126156 
3773.000000	65.104460 
3772.000000	65.086483 
3771.000000	65.073084 
3770.000000	65.064716 
3769.000000	65.061211 
3768.000000	65.062165 
3767.000000	65.067076 
3766.000000	65.075373 
3765.000000	65.086698 
3764.000000	65.100955 
3763.000000	65.118050 
3762.000000	65.137958 
3761.000000	65.160679 
3760.000000	65.185713 
3759.000000	65.211963 
3758.000000	65.237593 
3757.000000	65.260386 
3756.000000	65.277791 
3755.000000	65.287780 
3754.000000	65.288877 
3753.000000	65.281057 
3752.000000	65.265369 
3751.000000	65.244102 
3750.000000	65.219950 
3749.000000	65.195655 
3748.000000	65.173363 
3747.000000	65.154218 
3746.000000	65.138506 
3745.000000	65.125918 
3744.000000	65.116190 
3743.000000	65.109324 
3742.000000	65.105843 
3741.000000	65.106916 
3740.000000	65.113663 
3739.000000	65.126776 
3738.000000	65.145850 
3737.000000	65.169119 
3736.000000	65.193557 
3735.000000	65.215134 
3734.000000	65.229821 
3733.000000	65.234375 
3732.000000	65.227031 
3731.000000	65.208172 
3730.000000	65.180039 
3729.000000	65.146493 
3728.000000	65.112233 
3727.000000	65.081858 
3726.000000	65.059137 
3725.000000	65.046238 
3724.000000	65.043807 
3723.000000	65.050601 
3722.000000	65.064382 
3721.000000	65.081834 
3720.000000	65.099859 
3719.000000	65.115571 
3718.000000	65.126514 
3717.000000	65.131258 
3716.000000	65.129256 
3715.000000	65.120983 
3714.000000	65.107703 
3713.000000	65.091156 
3712.000000	65.073347 
3711.000000	65.056085 
3710.000000	65.040826 
3709.000000	65.028309 
3708.000000	65.018558 
3707.000000	65.011358 
3706.000000	65.006446 
3705.000000	65.003633 
3704.000000	65.003156 
3703.000000	65.005397 
3702.000000	65.010762 
3701.000000	65.019369 
3700.000000	65.031051 
3699.000000	65.044951 
3698.000000	65.060043 
3697.000000	65.075159 
3696.000000	65.089511 
3695.000000	65.102505 
3694.000000	65.114355 
3693.000000	65.125703 
3692.000000	65.137672 
3691.000000	65.151453 
3690.000000	65.167546 
3689.000000	65.185618 
3688.000000	65.204000 
3687.000000	65.220332 
3686.000000	65.231585 
3685.000000	65.235042 
3684.000000	65.229010 
3683.000000	65.213370 
3682.000000	65.190052 
3681.000000	65.162801 
3680.000000	65.136384 
3679.000000	65.115761 
3678.000000	65.105032 
3677.000000	65.106487 
3676.000000	65.120196 
3675.000000	65.144300 
3674.000000	65.175247 
3673.000000	65.209054 
3672.000000	65.242218 
3671.000000	65.271949 
3670.000000	65.296912 
3669.000000	65.316200 
3668.000000	65.329098 
3667.000000	65.334296 
3666.000000	65.329885 
3665.000000	65.313935 
3664.000000	65.285038 
3663.000000	65.243458 
3662.000000	65.191888 
3661.000000	65.135622 
3660.000000	65.081954 
3659.000000	65.038585 
3658.000000	65.012335 
3657.000000	65.007448 
3656.000000	65.024542 
3655.000000	65.060353 
3654.000000	65.108394 
3653.000000	65.160560 
3652.000000	65.208888 
3651.000000	65.247106 
3650.000000	65.271687 
3649.000000	65.281891 
3648.000000	65.279650 
3647.000000	65.268206 
3646.000000	65.251660 
3645.000000	65.233778 
3644.000000	65.217590 
3643.000000	65.205335 
3642.000000	65.198135 
3641.000000	65.196824 
3640.000000	65.201449 
3639.000000	65.211725 
3638.000000	65.226650 
3637.000000	65.244555 
3636.000000	65.263175 
3635.000000	65.279674 
3634.000000	65.291047 
3633.000000	65.294575 
3632.000000	65.288615 
3631.000000	65.273046 
3630.000000	65.249300 
3629.000000	65.220308 
3628.000000	65.190291 
3627.000000	65.163660 
3626.000000	65.144634 
3625.000000	65.136051 
3624.000000	65.139174 
3623.000000	65.152740 
3622.000000	65.173768 
3621.000000	65.197658 
3620.000000	65.218734 
3619.000000	65.231752 
3618.000000	65.232777 
3617.000000	65.220212 
3616.000000	65.194797 
3615.000000	65.159893 
3614.000000	65.120530 
3613.000000	65.082764 
3612.000000	65.052366 
3611.000000	65.033936 
3610.000000	65.030121 
3609.000000	65.041375 
3608.000000	65.066146 
3607.000000	65.101194 
3606.000000	65.142345 
3605.000000	65.184926 
3604.000000	65.224552 
3603.000000	65.257406 
3602.000000	65.280604 
3601.000000	65.292143 
3600.000000	65.290975 
3599.000000	65.277099 
3598.000000	65.251541 
3597.000000	65.216493 
3596.000000	65.174794 
3595.000000	65.130019 
3594.000000	65.085577 
3593.000000	65.044903 
3592.000000	65.010666 
3591.000000	64.984178 
3590.000000	64.965748 
3589.000000	64.954590 
3588.000000	64.949417 
3587.000000	64.948391 
3586.000000	64.950180 
3585.000000	64.953899 
3584.000000	64.959764 
3583.000000	64.968228 
3582.000000	64.980292 
3581.000000	64.996552 
3580.000000	65.017056 
3579.000000	65.040850 
3578.000000	65.065908 
3577.000000	65.089178 
3576.000000	65.107250 
3575.000000	65.116763 
3574.000000	65.115165 
3573.000000	65.101170 
3572.000000	65.075016 
3571.000000	65.038800 
3570.000000	64.995837 
3569.000000	64.950966 
3568.000000	64.909505 
3567.000000	64.877009 
3566.000000	64.858245 
3565.000000	64.857053 
3564.000000	64.875292 
3563.000000	64.913201 
3562.000000	64.969015 
3561.000000	65.039205 
3560.000000	65.119075 
3559.000000	65.202617 
3558.000000	65.283656 
3557.000000	65.355324 
3556.000000	65.410971 
3555.000000	65.444517 
3554.000000	65.451455 
3553.000000	65.429353 
3552.000000	65.378618 
3551.000000	65.303182 
3550.000000	65.210270 
3549.000000	65.110230 
3548.000000	65.014743 
3547.000000	64.935350 
3546.000000	64.880919 
3545.000000	64.856362 
3544.000000	64.861488 
3543.000000	64.891028 
3542.000000	64.936137 
3541.000000	64.986443 
3540.000000	65.032505 
3539.000000	65.067410 
3538.000000	65.088272 
3537.000000	65.095162 
3536.000000	65.091252 
3535.000000	65.080499 
3534.000000	65.067219 
3533.000000	65.054440 
3532.000000	65.044140 
3531.000000	65.037345 
3530.000000	65.034699 
3529.000000	65.036964 
3528.000000	65.044951 
3527.000000	65.059471 
3526.000000	65.080523 
3525.000000	65.106987 
3524.000000	65.135788 
3523.000000	65.162277 
3522.000000	65.181136 
3521.000000	65.187668 
3520.000000	65.179300 
3519.000000	65.156078 
3518.000000	65.120625 
3517.000000	65.077877 
3516.000000	65.033864 
3515.000000	64.994812 
3514.000000	64.965343 
3513.000000	64.948177 
3512.000000	64.943766 
3511.000000	64.950895 
3510.000000	64.967060 
3509.000000	64.989614 
3508.000000	65.015625 
3507.000000	65.043306 
3506.000000	65.071725 
3505.000000	65.100765 
3504.000000	65.130233 
3503.000000	65.159511 
3502.000000	65.187120 
3501.000000	65.210771 
3500.000000	65.227770 
3499.000000	65.235209 
3498.000000	65.230703 
3497.000000	65.213298 
3496.000000	65.183973 
3495.000000	65.145421 
3494.000000	65.102100 
3493.000000	65.059328 
3492.000000	65.022659 
3491.000000	64.996862 
3490.000000	64.985156 
3489.000000	64.988756 
3488.000000	65.006685 
3487.000000	65.036320 
3486.000000	65.073800 
3485.000000	65.114712 
3484.000000	65.154552 
3483.000000	65.188956 
3482.000000	65.214228 
3481.000000	65.227556 
3480.000000	65.227365 
3479.000000	65.213537 
3478.000000	65.187644 
3477.000000	65.152692 
3476.000000	65.113353 
3475.000000	65.075588 
3474.000000	65.045523 
3473.000000	65.028643 
3472.000000	65.028953 
3471.000000	65.048074 
3470.000000	65.084838 
3469.000000	65.135169 
3468.000000	65.192604 
3467.000000	65.249204 
3466.000000	65.296888 
3465.000000	65.328884 
3464.000000	65.340375 
3463.000000	65.329742 
3462.000000	65.298461 
3461.000000	65.251064 
3460.000000	65.194177 
3459.000000	65.135264 
3458.000000	65.081834 
3457.000000	65.039491 
3456.000000	65.011811 
3455.000000	64.998960 
3454.000000	64.998698 
3453.000000	65.006232 
3452.000000	65.016031 
3451.000000	65.022778 
3450.000000	65.022063 
3449.000000	65.011882 
3448.000000	64.992713 
3447.000000	64.967560 
3446.000000	64.940857 
3445.000000	64.918112 
3444.000000	64.904427 
3443.000000	64.903736 
3442.000000	64.917874 
3441.000000	64.946174 
3440.000000	64.985442 
3439.000000	65.030527 
3438.000000	65.075540 
3437.000000	65.114545 
3436.000000	65.142893 
3435.000000	65.157771 
3434.000000	65.158796 
3433.000000	65.147924 
3432.000000	65.128970 
3431.000000	65.106463 
3430.000000	65.084767 
3429.000000	65.067267 
3428.000000	65.055537 
3427.000000	65.049791 
3426.000000	65.048456 
3425.000000	65.049076 
3424.000000	65.048885 
3423.000000	65.045762 
3422.000000	65.038299 
3421.000000	65.026235 
3420.000000	65.010333 
3419.000000	64.992165 
3418.000000	64.973735 
3417.000000	64.957189 
3416.000000	64.944720 
3415.000000	64.938259 
3414.000000	64.939475 
3413.000000	64.949417 
3412.000000	64.968490 
3411.000000	64.995861 
3410.000000	65.029311 
3409.000000	65.065050 
3408.000000	65.098357 
3407.000000	65.123987 
3406.000000	65.137195 
3405.000000	65.134906 
3404.000000	65.116310 
3403.000000	65.082907 
3402.000000	65.038537 
3401.000000	64.988446 
3400.000000	64.938426 
3399.000000	64.893865 
3398.000000	64.858770 
3397.000000	64.835739 
3396.000000	64.825677 
3395.000000	64.828515 
3394.000000	64.843392 
3393.000000	64.869022 
3392.000000	64.903688 
3391.000000	64.945268 
3390.000000	64.991021 
3389.000000	65.037608 
3388.000000	65.081048 
3387.000000	65.117597 
3386.000000	65.144133 
3385.000000	65.159177 
3384.000000	65.163111 
3383.000000	65.158367 
3382.000000	65.148687 
3381.000000	65.138483 
3380.000000	65.131640 
3379.000000	65.130639 
3378.000000	65.136098 
3377.000000	65.146923 
3376.000000	65.160608 
3375.000000	65.174508 
3374.000000	65.186333 
3373.000000	65.195202 
3372.000000	65.201139 
3371.000000	65.204906 
3370.000000	65.207290 
3369.000000	65.208673 
3368.000000	65.208506 
3367.000000	65.205216 
3366.000000	65.196895 
3365.000000	65.181994 
3364.000000	65.159749 
3363.000000	65.131020 
3362.000000	65.097951 
3361.000000	65.063762 
3360.000000	65.032100 
3359.000000	65.006351 
3358.000000	64.988684 
3357.000000	64.979600 
3356.000000	64.978551 
3355.000000	64.984011 
3354.000000	64.993786 
3353.000000	65.005898 
3352.000000	65.018725 
3351.000000	65.032100 
3350.000000	65.046095 
3349.000000	65.061736 
3348.000000	65.080046 
3347.000000	65.102100 
3346.000000	65.128374 
3345.000000	65.158438 
3344.000000	65.190696 
3343.000000	65.222573 
3342.000000	65.250802 
3341.000000	65.271878 
3340.000000	65.283107 
3339.000000	65.283060 
3338.000000	65.271830 
3337.000000	65.251398 
3336.000000	65.225052 
3335.000000	65.196967 
3334.000000	65.171051 
3333.000000	65.150141 
3332.000000	65.135097 
3331.000000	65.125060 
3330.000000	65.117502 
3329.000000	65.109133 
3328.000000	65.096783 
3327.000000	65.078544 
3326.000000	65.054535 
3325.000000	65.026569 
3324.000000	64.998149 
3323.000000	64.973306 
3322.000000	64.956021 
3321.000000	64.949059 
3320.000000	64.953470 
3319.000000	64.968299 
3318.000000	64.990615 
3317.000000	65.016341 
3316.000000	65.040612 
3315.000000	65.058851 
3314.000000	65.067625 
3313.000000	65.065240 
3312.000000	65.051960 
3311.000000	65.029525 
3310.000000	65.001106 
3309.000000	64.970660 
3308.000000	64.942049 
3307.000000	64.918541 
3306.000000	64.902329 
3305.000000	64.894533 
3304.000000	64.895153 
3303.000000	64.903450 
3302.000000	64.917850 
3301.000000	64.936780 
3300.000000	64.958453 
3299.000000	64.981555 
3298.000000	65.004682 
3297.000000	65.026783 
3296.000000	65.046930 
3295.000000	65.064406 
3294.000000	65.078616 
3293.000000	65.089154 
3292.000000	65.096068 
3291.000000	65.099549 
3290.000000	65.100002 
3289.000000	65.097904 
3288.000000	65.093803 
3287.000000	65.088009 
3286.000000	65.080761 
3285.000000	65.072035 
3284.000000	65.061688 
3283.000000	65.049719 
3282.000000	65.036153 
3281.000000	65.021395 
3280.000000	65.006160 
3279.000000	64.991354 
3278.000000	64.978265 
3277.000000	64.968204 
3276.000000	64.962291 
3275.000000	64.961481 
3274.000000	64.966273 
3273.000000	64.976406 
3272.000000	64.991307 
3271.000000	65.009903 
3270.000000	65.030884 
3269.000000	65.052819 
3268.000000	65.074348 
3267.000000	65.094280 
3266.000000	65.111637 
3265.000000	65.125727 
3264.000000	65.136027 
3263.000000	65.142369 
3262.000000	65.144777 
3261.000000	65.143632 
3260.000000	65.139460 
3259.000000	65.133166 
3258.000000	65.125727 
3257.000000	65.118336 
3256.000000	65.111684 
3255.000000	65.106153 
3254.000000	65.101528 
3253.000000	65.097069 
3252.000000	65.091419 
3251.000000	65.082859 
3250.000000	65.069818 
3249.000000	65.051484 
3248.000000	65.027523 
3247.000000	64.998888 
3246.000000	64.967489 
3245.000000	64.936542 
3244.000000	64.909625 
3243.000000	64.890408 
3242.000000	64.881801 
3241.000000	64.885520 
3240.000000	64.901661 
3239.000000	64.928555 
3238.000000	64.962959 
3237.000000	65.000414 
3236.000000	65.035963 
3235.000000	65.065026 
3234.000000	65.084123 
3233.000000	65.091419 
3232.000000	65.086746 
3231.000000	65.071654 
3230.000000	65.048980 
3229.000000	65.022468 
3228.000000	64.996099 
3227.000000	64.973521 
3226.000000	64.957642 
3225.000000	64.950585 
3224.000000	64.953398 
3223.000000	64.966368 
3222.000000	64.988851 
3221.000000	65.019321 
3220.000000	65.055298 
3219.000000	65.093493 
3218.000000	65.129804 
3217.000000	65.159344 
3216.000000	65.177273 
3215.000000	65.179610 
3214.000000	65.164422 
3213.000000	65.132427 
3212.000000	65.087723 
3211.000000	65.037560 
3210.000000	64.990925 
3209.000000	64.957237 
3208.000000	64.943909 
3207.000000	64.955067 
3206.000000	64.989972 
3205.000000	65.043282 
3204.000000	65.105605 
3203.000000	65.165615 
3202.000000	65.212416 
3201.000000	65.238046 
3200.000000	65.238761 
3199.000000	65.215945 
3198.000000	65.175271 
3197.000000	65.125417 
3196.000000	65.075993 
3195.000000	65.035319 
3194.000000	65.009021 
3193.000000	64.999079 
3192.000000	65.004134 
3191.000000	65.020275 
3190.000000	65.042424 
3189.000000	65.065956 
3188.000000	65.087056 
3187.000000	65.104436 
3186.000000	65.118479 
3185.000000	65.131473 
3184.000000	65.146064 
3183.000000	65.164637 
3182.000000	65.188241 
3181.000000	65.216231 
3180.000000	65.246343 
3179.000000	65.274739 
3178.000000	65.297198 
3177.000000	65.309476 
3176.000000	65.308690 
3175.000000	65.293526 
3174.000000	65.264725 
3173.000000	65.224766 
3172.000000	65.177583 
3171.000000	65.128445 
3170.000000	65.082764 
3169.000000	65.045380 
3168.000000	65.019607 
3167.000000	65.006709 
3166.000000	65.005755 
3165.000000	65.013742 
3164.000000	65.026783 
3163.000000	65.040421 
3162.000000	65.051388 
3161.000000	65.057873 
3160.000000	65.060377 
3159.000000	65.060925 
3158.000000	65.062689 
3157.000000	65.068626 
3156.000000	65.080618 
3155.000000	65.098714 
3154.000000	65.120887 
3153.000000	65.143752 
3152.000000	65.162873 
3151.000000	65.174317 
3150.000000	65.175175 
3149.000000	65.164518 
3148.000000	65.142989 
3147.000000	65.112400 
3146.000000	65.075325 
3145.000000	65.034484 
3144.000000	64.992117 
3143.000000	64.950037 
3142.000000	64.910006 
3141.000000	64.873719 
3140.000000	64.842891 
3139.000000	64.819240 
3138.000000	64.804267 
3137.000000	64.798879 
3136.000000	64.802646 
3135.000000	64.814352 
3134.000000	64.831185 
3133.000000	64.850473 
3132.000000	64.869618 
3131.000000	64.887428 
3130.000000	64.903569 
3129.000000	64.919209 
3128.000000	64.936280 
3127.000000	64.956998 
3126.000000	64.982485 
3125.000000	65.013074 
3124.000000	65.047812 
3123.000000	65.084981 
3122.000000	65.122532 
3121.000000	65.158796 
3120.000000	65.193009 
3119.000000	65.225243 
3118.000000	65.256190 
3117.000000	65.286493 
3116.000000	65.316343 
3115.000000	65.345096 
3114.000000	65.371346 
3113.000000	65.393185 
3112.000000	65.408468 
3111.000000	65.416216 
3110.000000	65.416049 
3109.000000	65.408825 
3108.000000	65.395712 
3107.000000	65.378379 
3106.000000	65.357995 
3105.000000	65.335202 
3104.000000	65.309739 
3103.000000	65.281343 
3102.000000	65.249466 
3101.000000	65.214419 
3100.000000	65.177130 
3099.000000	65.139150 
3098.000000	65.102601 
3097.000000	65.069413 
3096.000000	65.041255 
3095.000000	65.018701 
3094.000000	65.002179 
3093.000000	64.991760 
3092.000000	64.987516 
3091.000000	64.989519 
3090.000000	64.997887 
3089.000000	65.012598 
3088.000000	65.032696 
3087.000000	65.056395 
3086.000000	65.081191 
3085.000000	65.104246 
3084.000000	65.122628 
3083.000000	65.134501 
3082.000000	65.139365 
3081.000000	65.138220 
3080.000000	65.133500 
3079.000000	65.128159 
3078.000000	65.125155 
3077.000000	65.126252 
3076.000000	65.132093 
3075.000000	65.141677 
3074.000000	65.152692 
3073.000000	65.162324 
3072.000000	65.168237 
3071.000000	65.168976 
3070.000000	65.164113 
3069.000000	65.154385 
3068.000000	65.141582 
3067.000000	65.127801 
3066.000000	65.115118 
3065.000000	65.105128 
3064.000000	65.098810 
3063.000000	65.096521 
3062.000000	65.098023 
3061.000000	65.102648 
3060.000000	65.109276 
3059.000000	65.116667 
3058.000000	65.123629 
3057.000000	65.128850 
3056.000000	65.131330 
3055.000000	65.130209 
3054.000000	65.125441 
3053.000000	65.117478 
3052.000000	65.107631 
3051.000000	65.097832 
3050.000000	65.090346 
3049.000000	65.087461 
3048.000000	65.090799 
3047.000000	65.101146 
3046.000000	65.118312 
3045.000000	65.140914 
3044.000000	65.166854 
3043.000000	65.193724 
3042.000000	65.219068 
3041.000000	65.240788 
3040.000000	65.257239 
3039.000000	65.267252 
3038.000000	65.270090 
3037.000000	65.265321 
3036.000000	65.252780 
3035.000000	65.232467 
3034.000000	65.205073 
3033.000000	65.172314 
3032.000000	65.136742 
3031.000000	65.101933 
3030.000000	65.071821 
3029.000000	65.050363 
3028.000000	65.040731 
3027.000000	65.044617 
3026.000000	65.061736 
3025.000000	65.089774 
3024.000000	65.124702 
3023.000000	65.161418 
3022.000000	65.194749 
3021.000000	65.220308 
3020.000000	65.235280 
3019.000000	65.238761 
3018.000000	65.231633 
3017.000000	65.216207 
3016.000000	65.195703 
3015.000000	65.173506 
3014.000000	65.152668 
3013.000000	65.135955 
3012.000000	65.125632 
3011.000000	65.123414 
3010.000000	65.130281 
3009.000000	65.146493 
3008.000000	65.171456 
3007.000000	65.203166 
3006.000000	65.238499 
3005.000000	65.273308 
3004.000000	65.303206 
3003.000000	65.324139 
3002.000000	65.333485 
3001.000000	65.330481 
3000.000000	65.316748 
2999.000000	65.295863 
2998.000000	65.272355 
2997.000000	65.250730 
2996.000000	65.234303 
2995.000000	65.224552 
2994.000000	65.220975 
2993.000000	65.221738 
2992.000000	65.223956 
2991.000000	65.224885 
2990.000000	65.222358 
2989.000000	65.215325 
2988.000000	65.203714 
2987.000000	65.188097 
2986.000000	65.169453 
2985.000000	65.148615 
2984.000000	65.126514 
2983.000000	65.104055 
2982.000000	65.082049 
2981.000000	65.061163 
2980.000000	65.042161 
2979.000000	65.025615 
2978.000000	65.011763 
2977.000000	65.000295 
2976.000000	64.990091 
2975.000000	64.979887 
2974.000000	64.968562 
2973.000000	64.955663 
2972.000000	64.941453 
2971.000000	64.927005 
2970.000000	64.913845 
2969.000000	64.903235 
2968.000000	64.895820 
2967.000000	64.891338 
2966.000000	64.888381 
2965.000000	64.885139 
2964.000000	64.879846 
2963.000000	64.871644 
2962.000000	64.860892 
2961.000000	64.849662 
2960.000000	64.841127 
2959.000000	64.839267 
2958.000000	64.847755 
2957.000000	64.869070 
2956.000000	64.903473 
2955.000000	64.948678 
2954.000000	65.000057 
2953.000000	65.051364 
2952.000000	65.095829 
2951.000000	65.127468 
2950.000000	65.142273 
2949.000000	65.139007 
2948.000000	65.119171 
2947.000000	65.086579 
2946.000000	65.046525 
2945.000000	65.004777 
2944.000000	64.966368 
2943.000000	64.934849 
2942.000000	64.911842 
2941.000000	64.897632 
2940.000000	64.890933 
2939.000000	64.889788 
2938.000000	64.892077 
2937.000000	64.896082 
2936.000000	64.900803 
2935.000000	64.905810 
2934.000000	64.911174 
2933.000000	64.916944 
2932.000000	64.922714 
2931.000000	64.927434 
2930.000000	64.929556 
2929.000000	64.927268 
2928.000000	64.918994 
2927.000000	64.903974 
2926.000000	64.882493 
2925.000000	64.855957 
2924.000000	64.826679 
2923.000000	64.797616 
2922.000000	64.771318 
2921.000000	64.749884 
2920.000000	64.734649 
2919.000000	64.726567 
2918.000000	64.725780 
2917.000000	64.732336 
2916.000000	64.745926 
2915.000000	64.766287 
2914.000000	64.792966 
2913.000000	64.824986 
2912.000000	64.860463 
2911.000000	64.897084 
2910.000000	64.931893 
2909.000000	64.962220 
2908.000000	64.986038 
2907.000000	65.002584 
2906.000000	65.012526 
2905.000000	65.017724 
2904.000000	65.020656 
2903.000000	65.023899 
2902.000000	65.029191 
2901.000000	65.036654 
2900.000000	65.044903 
2899.000000	65.051555 
2898.000000	65.053820 
2897.000000	65.049457 
2896.000000	65.037417 
2895.000000	65.018463 
2894.000000	64.995145 
2893.000000	64.971375 
2892.000000	64.951610 
2891.000000	64.939761 
2890.000000	64.938545 
2889.000000	64.949059 
2888.000000	64.970278 
2887.000000	64.999604 
2886.000000	65.033054 
2885.000000	65.066146 
2884.000000	65.094327 
2883.000000	65.113759 
2882.000000	65.122056 
2881.000000	65.118455 
2880.000000	65.104174 
2879.000000	65.081906 
2878.000000	65.055942 
2877.000000	65.031170 
2876.000000	65.012407 
2875.000000	65.003514 
2874.000000	65.006732 
2873.000000	65.022110 
2872.000000	65.047407 
2871.000000	65.078449 
2870.000000	65.109753 
2869.000000	65.135717 
2868.000000	65.151500 
2867.000000	65.154099 
2866.000000	65.142917 
2865.000000	65.119934 
2864.000000	65.089249 
2863.000000	65.056037 
2862.000000	65.025401 
2861.000000	65.001511 
2860.000000	64.986968 
2859.000000	64.982438 
2858.000000	64.986968 
2857.000000	64.998507 
2856.000000	65.014553 
2855.000000	65.032982 
2854.000000	65.052294 
2853.000000	65.071630 
2852.000000	65.090537 
2851.000000	65.108942 
2850.000000	65.126705 
2849.000000	65.143465 
2848.000000	65.158486 
2847.000000	65.170645 
2846.000000	65.178489 
2845.000000	65.180873 
2844.000000	65.176987 
2843.000000	65.166544 
2842.000000	65.149903 
2841.000000	65.128159 
2840.000000	65.103101 
2839.000000	65.076947 
2838.000000	65.052270 
2837.000000	65.031480 
2836.000000	65.016603 
2835.000000	65.009093 
2834.000000	65.009450 
2833.000000	65.017199 
2832.000000	65.030646 
2831.000000	65.047383 
2830.000000	65.064573 
2829.000000	65.079283 
2828.000000	65.089344 
2827.000000	65.093374 
2826.000000	65.091323 
2825.000000	65.084290 
2824.000000	65.074539 
2823.000000	65.064930 
2822.000000	65.058326 
2821.000000	65.056896 
2820.000000	65.061879 
2819.000000	65.073299 
2818.000000	65.089941 
2817.000000	65.109753 
2816.000000	65.130114 
2815.000000	65.148615 
2814.000000	65.163373 
2813.000000	65.173196 
2812.000000	65.177869 
2811.000000	65.177989 
2810.000000	65.174627 
2809.000000	65.169024 
2808.000000	65.162396 
2807.000000	65.155720 
2806.000000	65.149855 
2805.000000	65.145230 
2804.000000	65.142202 
2803.000000	65.140962 
2802.000000	65.141630 
2801.000000	65.144109 
2800.000000	65.148091 
2799.000000	65.152931 
2798.000000	65.157771 
2797.000000	65.161585 
2796.000000	65.163516 
2795.000000	65.162944 
2794.000000	65.159773 
2793.000000	65.154433 
2792.000000	65.147686 
2791.000000	65.140557 
2790.000000	65.133953 
2789.000000	65.128469 
2788.000000	65.124082 
2787.000000	65.120172 
2786.000000	65.115666 
2785.000000	65.109252 
2784.000000	65.099787 
2783.000000	65.086388 
2782.000000	65.069079 
2781.000000	65.048766 
2780.000000	65.027356 
2779.000000	65.006971 
2778.000000	64.990162 
2777.000000	64.979171 
2776.000000	64.975738 
2775.000000	64.980602 
2774.000000	64.993667 
2773.000000	65.014076 
2772.000000	65.040302 
2771.000000	65.070462 
2770.000000	65.102434 
2769.000000	65.134263 
2768.000000	65.164160 
2767.000000	65.190482 
2766.000000	65.211749 
2765.000000	65.226888 
2764.000000	65.235161 
2763.000000	65.236520 
2762.000000	65.231657 
2761.000000	65.221858 
2760.000000	65.209102 
2759.000000	65.195488 
2758.000000	65.183043 
2757.000000	65.173006 
2756.000000	65.165734 
2755.000000	65.160727 
2754.000000	65.156888 
2753.000000	65.152740 
2752.000000	65.147089 
2751.000000	65.139174 
2750.000000	65.128922 
2749.000000	65.117049 
2748.000000	65.104627 
2747.000000	65.093064 
2746.000000	65.083336 
2745.000000	65.076255 
2744.000000	65.072011 
2743.000000	65.070581 
2742.000000	65.071702 
2741.000000	65.075111 
2740.000000	65.080666 
2739.000000	65.088415 
2738.000000	65.098500 
2737.000000	65.110874 
2736.000000	65.125179 
2735.000000	65.140724 
2734.000000	65.156173 
2733.000000	65.170216 
2732.000000	65.181088 
2731.000000	65.187120 
2730.000000	65.186953 
2729.000000	65.179872 
2728.000000	65.166115 
2727.000000	65.146827 
2726.000000	65.124082 
2725.000000	65.100765 
2724.000000	65.080070 
2723.000000	65.064954 
2722.000000	65.057420 
2721.000000	65.058445 
2720.000000	65.067672 
2719.000000	65.083503 
2718.000000	65.103411 
2717.000000	65.124344 
2716.000000	65.143609 
2715.000000	65.159153 
2714.000000	65.169930 
2713.000000	65.175890 
2712.000000	65.178060 
2711.000000	65.178251 
2710.000000	65.178489 
2709.000000	65.180778 
2708.000000	65.186834 
2707.000000	65.197682 
2706.000000	65.213799 
2705.000000	65.234661 
2704.000000	65.259027 
2703.000000	65.284919 
2702.000000	65.309882 
2701.000000	65.331125 
2700.000000	65.346121 
2699.000000	65.352749 
2698.000000	65.349841 
2697.000000	65.337300 
2696.000000	65.315961 
2695.000000	65.287661 
2694.000000	65.254974 
2693.000000	65.220761 
2692.000000	65.187811 
2691.000000	65.158271 
2690.000000	65.133714 
2689.000000	65.114688 
2688.000000	65.101099 
2687.000000	65.092110 
2686.000000	65.086555 
2685.000000	65.083289 
2684.000000	65.081667 
2683.000000	65.081334 
2682.000000	65.082383 
2681.000000	65.085291 
2680.000000	65.090775 
2679.000000	65.099215 
2678.000000	65.110874 
2677.000000	65.125489 
2676.000000	65.142583 
2675.000000	65.161323 
2674.000000	65.180754 
2673.000000	65.200066 
2672.000000	65.218663 
2671.000000	65.235972 
2670.000000	65.251374 
2669.000000	65.264368 
2668.000000	65.274190 
2667.000000	65.280127 
2666.000000	65.281510 
2665.000000	65.277957 
2664.000000	65.269637 
2663.000000	65.257382 
2662.000000	65.242624 
2661.000000	65.227174 
2660.000000	65.212917 
2659.000000	65.201497 
2658.000000	65.193843 
2657.000000	65.190100 
2656.000000	65.189552 
2655.000000	65.190982 
2654.000000	65.192818 
2653.000000	65.193557 
2652.000000	65.192270 
2651.000000	65.188455 
2650.000000	65.182209 
2649.000000	65.174007 
2648.000000	65.164542 
2647.000000	65.154647 
2646.000000	65.144896 
2645.000000	65.135884 
2644.000000	65.128135 
2643.000000	65.122127 
2642.000000	65.118408 
2641.000000	65.117383 
2640.000000	65.119147 
2639.000000	65.123295 
2638.000000	65.128850 
2637.000000	65.134048 
2636.000000	65.136742 
2635.000000	65.134787 
2634.000000	65.126585 
2633.000000	65.111613 
2632.000000	65.090608 
2631.000000	65.065622 
2630.000000	65.039801 
2629.000000	65.016603 
2628.000000	64.999294 
2627.000000	64.990401 
2626.000000	64.991092 
2625.000000	65.001153 
2624.000000	65.019035 
2623.000000	65.042138 
2622.000000	65.067601 
2621.000000	65.092372 
2620.000000	65.114021 
2619.000000	65.130782 
2618.000000	65.141963 
2617.000000	65.147519 
2616.000000	65.148377 
2615.000000	65.145897 
2614.000000	65.141844 
2613.000000	65.137958 
2612.000000	65.135645 
2611.000000	65.135693 
2610.000000	65.138268 
2609.000000	65.142893 
2608.000000	65.148496 
2607.000000	65.153694 
2606.000000	65.157151 
2605.000000	65.157866 
2604.000000	65.155458 
2603.000000	65.150046 
2602.000000	65.142321 
2601.000000	65.133333 
2600.000000	65.124225 
2599.000000	65.116024 
2598.000000	65.109443 
2597.000000	65.104818 
2596.000000	65.101909 
2595.000000	65.100193 
2594.000000	65.099120 
2593.000000	65.098023 
2592.000000	65.096497 
2591.000000	65.094566 
2590.000000	65.092229 
2589.000000	65.089964 
2588.000000	65.088224 
2587.000000	65.087509 
2586.000000	65.088105 
2585.000000	65.090155 
2584.000000	65.093588 
2583.000000	65.098190 
2582.000000	65.103745 
2581.000000	65.109920 
2580.000000	65.116333 
2579.000000	65.122652 
2578.000000	65.128564 
2577.000000	65.133762 
2576.000000	65.138173 
2575.000000	65.141654 
2574.000000	65.144300 
2573.000000	65.146231 
2572.000000	65.147590 
2571.000000	65.148639 
2570.000000	65.149664 
2569.000000	65.150928 
2568.000000	65.152692 
2567.000000	65.155339 
2566.000000	65.159153 
2565.000000	65.164351 
2564.000000	65.171122 
2563.000000	65.179252 
2562.000000	65.188479 
2561.000000	65.198516 
2560.000000	65.208959 
2559.000000	65.219378 
2558.000000	65.229320 
2557.000000	65.238356 
2556.000000	65.246081 
2555.000000	65.252232 
2554.000000	65.256571 
2553.000000	65.259122 
2552.000000	65.260100 
2551.000000	65.259718 
2550.000000	65.258407 
2549.000000	65.256571 
2548.000000	65.254569 
2547.000000	65.252733 
2546.000000	65.251445 
2545.000000	65.251278 
2544.000000	65.252780 
2543.000000	65.256452 
2542.000000	65.262770 
2541.000000	65.271615 
2540.000000	65.282273 
2539.000000	65.293121 
2538.000000	65.302133 
2537.000000	65.306925 
2536.000000	65.305137 
2535.000000	65.295505 
2534.000000	65.278172 
2533.000000	65.255022 
2532.000000	65.229392 
2531.000000	65.205478 
2530.000000	65.187406 
2529.000000	65.178179 
2528.000000	65.178871 
2527.000000	65.188360 
2526.000000	65.203690 
2525.000000	65.220737 
2524.000000	65.235257 
2523.000000	65.243887 
2522.000000	65.245056 
2521.000000	65.239048 
2520.000000	65.227770 
2519.000000	65.214276 
2518.000000	65.201497 
2517.000000	65.191698 
2516.000000	65.185546 
2515.000000	65.181994 
2514.000000	65.178728 
2513.000000	65.173077 
2512.000000	65.162777 
2511.000000	65.146756 
2510.000000	65.125632 
2509.000000	65.101718 
2508.000000	65.078282 
2507.000000	65.058565 
2506.000000	65.044951 
2505.000000	65.038251 
2504.000000	65.037441 
2503.000000	65.040040 
2502.000000	65.042853 
2501.000000	65.042924 
2500.000000	65.038180 
2499.000000	65.028071 
2498.000000	65.013623 
2497.000000	64.997196 
2496.000000	64.981460 
2495.000000	64.969015 
2494.000000	64.961481 
2493.000000	64.959573 
2492.000000	64.963078 
2491.000000	64.971399 
2490.000000	64.983701 
2489.000000	64.999508 
2488.000000	65.018677 
2487.000000	65.041279 
2486.000000	65.067195 
2485.000000	65.095949 
2484.000000	65.126299 
2483.000000	65.156221 
2482.000000	65.183448 
2481.000000	65.205144 
2480.000000	65.218782 
2479.000000	65.222549 
2478.000000	65.215778 
2477.000000	65.199255 
2476.000000	65.175199 
2475.000000	65.147018 
2474.000000	65.118861 
2473.000000	65.094637 
2472.000000	65.077543 
2471.000000	65.069484 
2470.000000	65.070915 
2469.000000	65.080833 
2468.000000	65.097284 
2467.000000	65.117835 
2466.000000	65.140032 
2465.000000	65.161752 
2464.000000	65.181231 
2463.000000	65.197134 
2462.000000	65.208363 
2461.000000	65.214061 
2460.000000	65.213537 
2459.000000	65.206384 
2458.000000	65.192914 
2457.000000	65.174555 
2456.000000	65.153694 
2455.000000	65.133547 
2454.000000	65.117335 
2453.000000	65.107989 
2452.000000	65.106821 
2451.000000	65.113306 
2450.000000	65.125203 
2449.000000	65.138697 
2448.000000	65.149903 
2447.000000	65.155863 
2446.000000	65.155386 
2445.000000	65.149354 
2444.000000	65.140771 
2443.000000	65.134024 
2442.000000	65.133309 
2441.000000	65.141177 
2440.000000	65.157866 
2439.000000	65.180850 
2438.000000	65.205502 
2437.000000	65.226221 
2436.000000	65.237736 
2435.000000	65.236520 
2434.000000	65.222048 
2433.000000	65.196442 
2432.000000	65.163874 
2431.000000	65.129184 
2430.000000	65.096569 
2429.000000	65.068483 
2428.000000	65.045118 
2427.000000	65.025258 
2426.000000	65.006732 
2425.000000	64.988636 
2424.000000	64.971733 
2423.000000	64.959597 
2422.000000	64.957666 
2421.000000	64.972448 
2420.000000	65.009284 
2419.000000	65.070915 
2418.000000	65.155863 
2417.000000	65.258073 
2416.000000	65.367507 
2415.000000	65.471816 
2414.000000	65.558362 
2413.000000	65.616822 
2412.000000	65.640664 
2411.000000	65.628266 
2410.000000	65.582704 
2409.000000	65.511226 
2408.000000	65.423488 
2407.000000	65.330290 
2406.000000	65.241408 
2405.000000	65.165185 
2404.000000	65.106940 
2403.000000	65.069508 
2402.000000	65.052986 
2401.000000	65.055489 
2400.000000	65.073800 
2399.000000	65.103650 
2398.000000	65.140867 
2397.000000	65.181183 
2396.000000	65.221261 
2395.000000	65.258121 
2394.000000	65.289688 
2393.000000	65.314412 
2392.000000	65.331459 
2391.000000	65.340375 
2390.000000	65.341258 
2389.000000	65.334510 
2388.000000	65.321302 
2387.000000	65.303254 
2386.000000	65.282368 
2385.000000	65.260529 
2384.000000	65.239596 
2383.000000	65.220689 
2382.000000	65.204167 
2381.000000	65.189576 
2380.000000	65.176153 
2379.000000	65.163230 
2378.000000	65.150690 
2377.000000	65.139150 
2376.000000	65.129542 
2375.000000	65.123271 
2374.000000	65.121793 
2373.000000	65.125989 
2372.000000	65.135478 
2371.000000	65.148925 
2370.000000	65.164160 
2369.000000	65.178608 
2368.000000	65.190172 
2367.000000	65.197443 
2366.000000	65.199923 
2365.000000	65.198159 
2364.000000	65.193295 
2363.000000	65.186595 
2362.000000	65.179014 
2361.000000	65.171313 
2360.000000	65.163874 
2359.000000	65.157008 
2358.000000	65.151000 
2357.000000	65.146207 
2356.000000	65.143251 
2355.000000	65.142631 
2354.000000	65.144848 
2353.000000	65.150356 
2352.000000	65.159273 
2351.000000	65.171551 
2350.000000	65.186619 
2349.000000	65.203547 
2348.000000	65.220975 
2347.000000	65.237307 
2346.000000	65.250754 
2345.000000	65.259456 
2344.000000	65.262055 
2343.000000	65.257930 
2342.000000	65.247726 
2341.000000	65.233159 
2340.000000	65.217041 
2339.000000	65.202808 
2338.000000	65.193510 
2337.000000	65.191245 
2336.000000	65.196323 
2335.000000	65.207409 
2334.000000	65.221452 
2333.000000	65.234613 
2332.000000	65.243101 
2331.000000	65.244126 
2330.000000	65.236258 
2329.000000	65.219879 
2328.000000	65.196752 
2327.000000	65.169692 
2326.000000	65.141892 
2325.000000	65.116310 
2324.000000	65.095067 
2323.000000	65.079593 
2322.000000	65.070295 
2321.000000	65.067052 
2320.000000	65.069174 
2319.000000	65.075898 
2318.000000	65.086197 
2317.000000	65.099096 
2316.000000	65.113258 
2315.000000	65.127587 
2314.000000	65.141057 
2313.000000	65.153098 
2312.000000	65.163421 
2311.000000	65.172386 
2310.000000	65.180683 
2309.000000	65.189313 
2308.000000	65.199208 
2307.000000	65.210890 
2306.000000	65.224075 
2305.000000	65.237855 
2304.000000	65.250682 
2303.000000	65.260529 
2302.000000	65.265369 
2301.000000	65.263843 
2300.000000	65.255522 
2299.000000	65.241169 
2298.000000	65.222620 
2297.000000	65.202593 
2296.000000	65.183997 
2295.000000	65.169024 
2294.000000	65.158915 
2293.000000	65.153694 
2292.000000	65.152072 
2291.000000	65.151977 
2290.000000	65.150976 
2289.000000	65.147042 
2288.000000	65.139007 
2287.000000	65.127038 
2286.000000	65.112543 
2285.000000	65.097522 
2284.000000	65.084409 
2283.000000	65.075445 
2282.000000	65.072154 
2281.000000	65.075135 
2280.000000	65.084075 
2279.000000	65.097999 
2278.000000	65.115356 
2277.000000	65.134620 
2276.000000	65.154314 
2275.000000	65.173459 
2274.000000	65.191364 
2273.000000	65.208053 
2272.000000	65.224051 
2271.000000	65.240383 
2270.000000	65.258169 
2269.000000	65.278196 
2268.000000	65.300679 
2267.000000	65.324473 
2266.000000	65.347623 
2265.000000	65.366744 
2264.000000	65.378117 
2263.000000	65.378046 
2262.000000	65.364146 
2261.000000	65.335941 
2260.000000	65.295290 
2259.000000	65.246558 
2258.000000	65.195918 
2257.000000	65.150356 
2256.000000	65.116405 
2255.000000	65.098905 
2254.000000	65.099978 
2253.000000	65.118789 
2252.000000	65.151667 
2251.000000	65.192937 
2250.000000	65.236234 
2249.000000	65.275216 
2248.000000	65.305113 
2247.000000	65.322899 
2246.000000	65.327835 
2245.000000	65.320968 
2244.000000	65.304756 
2243.000000	65.282368 
2242.000000	65.256738 
2241.000000	65.230417 
2240.000000	65.204930 
2239.000000	65.181374 
2238.000000	65.160083 
2237.000000	65.141248 
2236.000000	65.124940 
2235.000000	65.111303 
2234.000000	65.100431 
2233.000000	65.092277 
2232.000000	65.086627 
2231.000000	65.082931 
2230.000000	65.080761 
2229.000000	65.079903 
2228.000000	65.080618 
2227.000000	65.083646 
2226.000000	65.089941 
2225.000000	65.100455 
2224.000000	65.115666 
2223.000000	65.135455 
2222.000000	65.158820 
2221.000000	65.184211 
2220.000000	65.209507 
2219.000000	65.232610 
2218.000000	65.252232 
2217.000000	65.267968 
2216.000000	65.280270 
2215.000000	65.290236 
2214.000000	65.299415 
2213.000000	65.309143 
2212.000000	65.320229 
2211.000000	65.332579 
2210.000000	65.345358 
2209.000000	65.357089 
2208.000000	65.366411 
2207.000000	65.372061 
2206.000000	65.373253 
2205.000000	65.369868 
2204.000000	65.362596 
2203.000000	65.352559 
2202.000000	65.341091 
2201.000000	65.329527 
2200.000000	65.318989 
2199.000000	65.310144 
2198.000000	65.303087 
2197.000000	65.297412 
2196.000000	65.292310 
2195.000000	65.286874 
2194.000000	65.280437 
2193.000000	65.272426 
2192.000000	65.262866 
2191.000000	65.251970 
2190.000000	65.240526 
2189.000000	65.229225 
2188.000000	65.218997 
2187.000000	65.210580 
2186.000000	65.204596 
2185.000000	65.201306 
2184.000000	65.200948 
2183.000000	65.203428 
2182.000000	65.208697 
2181.000000	65.216517 
2180.000000	65.226578 
2179.000000	65.238595 
2178.000000	65.252041 
2177.000000	65.266323 
2176.000000	65.280628 
2175.000000	65.293836 
2174.000000	65.304732 
2173.000000	65.311980 
2172.000000	65.314483 
2171.000000	65.311431 
2170.000000	65.302634 
2169.000000	65.288710 
2168.000000	65.271043 
2167.000000	65.251541 
2166.000000	65.232825 
2165.000000	65.217685 
2164.000000	65.208721 
2163.000000	65.207815 
2162.000000	65.215921 
2161.000000	65.232610 
2160.000000	65.256118 
2159.000000	65.283632 
2158.000000	65.311670 
2157.000000	65.336823 
2156.000000	65.356111 
2155.000000	65.368032 
2154.000000	65.372419 
2153.000000	65.370845 
2152.000000	65.365958 
2151.000000	65.360879 
2150.000000	65.358328 
2149.000000	65.359640 
2148.000000	65.364623 
2147.000000	65.371370 
2146.000000	65.377020 
2145.000000	65.378832 
2144.000000	65.375256 
2143.000000	65.366506 
2142.000000	65.354442 
2141.000000	65.341973 
2140.000000	65.331935 
2139.000000	65.326237 
2138.000000	65.325212 
2137.000000	65.327358 
2136.000000	65.330171 
2135.000000	65.330958 
2134.000000	65.327596 
2133.000000	65.319442 
2132.000000	65.307283 
2131.000000	65.293216 
2130.000000	65.279817 
2129.000000	65.269303 
2128.000000	65.262985 
2127.000000	65.260624 
2126.000000	65.260887 
2125.000000	65.261793 
2124.000000	65.261554 
2123.000000	65.259051 
2122.000000	65.253901 
2121.000000	65.246558 
2120.000000	65.237855 
2119.000000	65.228796 
2118.000000	65.220189 
2117.000000	65.212750 
2116.000000	65.206766 
2115.000000	65.202307 
2114.000000	65.199661 
2113.000000	65.199112 
2112.000000	65.200686 
2111.000000	65.204524 
2110.000000	65.210437 
2109.000000	65.218281 
2108.000000	65.227770 
2107.000000	65.238475 
2106.000000	65.249633 
2105.000000	65.260267 
2104.000000	65.269565 
2103.000000	65.276789 
2102.000000	65.281176 
2101.000000	65.282344 
2100.000000	65.280461 
2099.000000	65.276193 
2098.000000	65.270614 
2097.000000	65.265226 
2096.000000	65.261888 
2095.000000	65.261960 
2094.000000	65.265965 
2093.000000	65.273046 
2092.000000	65.281057 
2091.000000	65.286827 
2090.000000	65.286660 
2089.000000	65.276813 
2088.000000	65.254735 
2087.000000	65.219569 
2086.000000	65.173244 
2085.000000	65.119695 
2084.000000	65.065145 
2083.000000	65.016984 
2082.000000	64.982557 
2081.000000	64.967727 
2080.000000	64.975714 
2079.000000	65.006303 
2078.000000	65.056085 
2077.000000	65.118479 
2076.000000	65.185976 
2075.000000	65.250945 
2074.000000	65.307927 
2073.000000	65.354037 
2072.000000	65.389657 
2071.000000	65.417766 
2070.000000	65.442609 
2069.000000	65.468096 
2068.000000	65.495681 
2067.000000	65.523552 
2066.000000	65.546798 
2065.000000	65.558624 
2064.000000	65.552067 
2063.000000	65.522027 
2062.000000	65.467405 
2061.000000	65.391564 
2060.000000	65.301704 
2059.000000	65.207815 
2058.000000	65.120220 
2057.000000	65.047860 
2056.000000	64.996623 
2055.000000	64.968800 
2054.000000	64.963173 
2053.000000	64.975810 
2052.000000	65.001201 
2051.000000	65.033745 
2050.000000	65.068244 
2049.000000	65.101361 
2048.000000	65.130925 
2047.000000	65.156602 
2046.000000	65.178370 
2045.000000	65.197372 
2044.000000	65.214896 
2043.000000	65.232276 
2042.000000	65.250468 
2041.000000	65.269780 
2040.000000	65.290164 
2039.000000	65.310573 
2038.000000	65.329647 
2037.000000	65.345597 
2036.000000	65.356731 
2035.000000	65.361905 
2034.000000	65.360760 
2033.000000	65.353584 
2032.000000	65.341353 
2031.000000	65.325498 
2030.000000	65.307736 
2029.000000	65.289688 
2028.000000	65.272784 
2027.000000	65.258431 
2026.000000	65.247583 
2025.000000	65.240693 
2024.000000	65.237665 
2023.000000	65.238046 
2022.000000	65.241074 
2021.000000	65.245461 
2020.000000	65.249967 
2019.000000	65.253305 
2018.000000	65.254688 
2017.000000	65.253663 
2016.000000	65.250682 
2015.000000	65.246510 
2014.000000	65.242314 
2013.000000	65.239238 
2012.000000	65.238094 
2011.000000	65.239119 
2010.000000	65.242004 
2009.000000	65.246033 
2008.000000	65.250039 
2007.000000	65.252566 
2006.000000	65.252232 
2005.000000	65.247797 
2004.000000	65.238261 
2003.000000	65.222954 
2002.000000	65.201807 
2001.000000	65.175628 
2000.000000	65.145683 
1999.000000	65.114212 
1998.000000	65.083718 
1997.000000	65.057039 
1996.000000	65.036940 
1995.000000	65.025615 
1994.000000	65.024280 
1993.000000	65.033197 
1992.000000	65.051484 
1991.000000	65.077471 
1990.000000	65.108656 
1989.000000	65.142321 
1988.000000	65.175867 
1987.000000	65.207028 
1986.000000	65.233993 
1985.000000	65.255594 
1984.000000	65.271210 
1983.000000	65.280795 
1982.000000	65.284562 
1981.000000	65.283083 
1980.000000	65.277028 
1979.000000	65.267181 
1978.000000	65.254187 
1977.000000	65.238714 
1976.000000	65.221381 
1975.000000	65.203070 
1974.000000	65.184760 
1973.000000	65.167498 
1972.000000	65.152573 
1971.000000	65.141081 
1970.000000	65.134024 
1969.000000	65.131950 
1968.000000	65.135002 
1967.000000	65.142750 
1966.000000	65.154504 
1965.000000	65.169382 
1964.000000	65.186500 
1963.000000	65.204954 
1962.000000	65.224027 
1961.000000	65.243053 
1960.000000	65.261197 
1959.000000	65.277624 
1958.000000	65.291213 
1957.000000	65.300726 
1956.000000	65.305233 
1955.000000	65.304112 
1954.000000	65.297508 
1953.000000	65.286231 
1952.000000	65.271687 
1951.000000	65.255594 
1950.000000	65.239644 
1949.000000	65.225076 
1948.000000	65.212345 
1947.000000	65.201210 
1946.000000	65.191006 
1945.000000	65.180897 
1944.000000	65.170168 
1943.000000	65.158700 
1942.000000	65.146970 
1941.000000	65.135812 
1940.000000	65.126013 
1939.000000	65.117859 
1938.000000	65.111017 
1937.000000	65.104508 
1936.000000	65.096950 
1935.000000	65.087080 
1934.000000	65.074181 
1933.000000	65.058732 
1932.000000	65.042352 
1931.000000	65.027546 
1930.000000	65.017175 
1929.000000	65.013790 
1928.000000	65.019130 
1927.000000	65.033531 
1926.000000	65.055871 
1925.000000	65.083956 
1924.000000	65.114951 
1923.000000	65.146088 
1922.000000	65.175175 
1921.000000	65.200853 
1920.000000	65.222883 
1919.000000	65.241742 
1918.000000	65.258431 
1917.000000	65.273976 
1916.000000	65.289020 
1915.000000	65.304040 
1914.000000	65.318822 
1913.000000	65.332865 
1912.000000	65.345191 
1911.000000	65.355205 
1910.000000	65.362119 
1909.000000	65.365314 
1908.000000	65.364336 
1907.000000	65.359044 
1906.000000	65.349602 
1905.000000	65.336322 
1904.000000	65.319895 
1903.000000	65.301179 
1902.000000	65.281152 
1901.000000	65.261030 
1900.000000	65.241765 
1899.000000	65.224194 
1898.000000	65.209054 
1897.000000	65.196943 
1896.000000	65.188121 
1895.000000	65.182828 
1894.000000	65.181183 
1893.000000	65.183424 
1892.000000	65.189170 
1891.000000	65.198040 
1890.000000	65.209293 
1889.000000	65.222215 
1888.000000	65.235781 
1887.000000	65.249395 
1886.000000	65.262722 
1885.000000	65.275931 
1884.000000	65.289545 
1883.000000	65.304040 
1882.000000	65.319681 
1881.000000	65.335893 
1880.000000	65.351510 
1879.000000	65.364718 
1878.000000	65.373420 
1877.000000	65.375781 
1876.000000	65.370655 
1875.000000	65.357780 
1874.000000	65.337896 
1873.000000	65.312600 
1872.000000	65.283846 
1871.000000	65.253734 
1870.000000	65.223979 
1869.000000	65.195941 
1868.000000	65.170383 
1867.000000	65.147709 
1866.000000	65.128064 
1865.000000	65.111565 
1864.000000	65.098428 
1863.000000	65.088653 
1862.000000	65.082573 
1861.000000	65.079927 
1860.000000	65.080690 
1859.000000	65.084600 
1858.000000	65.091586 
1857.000000	65.101289 
1856.000000	65.113520 
1855.000000	65.127921 
1854.000000	65.144038 
1853.000000	65.160846 
1852.000000	65.177154 
1851.000000	65.191531 
1850.000000	65.202450 
1849.000000	65.208673 
1848.000000	65.209174 
1847.000000	65.203571 
1846.000000	65.192008 
1845.000000	65.175223 
1844.000000	65.154600 
1843.000000	65.131950 
1842.000000	65.109324 
1841.000000	65.088915 
1840.000000	65.072798 
1839.000000	65.062761 
1838.000000	65.060186 
1837.000000	65.065526 
1836.000000	65.078425 
1835.000000	65.097451 
1834.000000	65.120458 
1833.000000	65.144538 
1832.000000	65.166425 
1831.000000	65.183234 
1830.000000	65.192866 
1829.000000	65.194559 
1828.000000	65.188813 
1827.000000	65.177488 
1826.000000	65.163350 
1825.000000	65.149688 
1824.000000	65.139412 
1823.000000	65.134382 
1822.000000	65.135192 
1821.000000	65.140914 
1820.000000	65.149426 
1819.000000	65.157723 
1818.000000	65.162801 
1817.000000	65.162301 
1816.000000	65.154838 
1815.000000	65.140438 
1814.000000	65.120387 
1813.000000	65.096735 
1812.000000	65.072154 
1811.000000	65.049099 
1810.000000	65.029859 
1809.000000	65.016007 
1808.000000	65.008497 
1807.000000	65.007853 
1806.000000	65.013933 
1805.000000	65.026187 
1804.000000	65.043616 
1803.000000	65.064740 
1802.000000	65.087628 
1801.000000	65.110158 
1800.000000	65.130305 
1799.000000	65.146040 
1798.000000	65.156173 
1797.000000	65.160346 
1796.000000	65.159034 
1795.000000	65.153455 
1794.000000	65.145087 
1793.000000	65.135455 
1792.000000	65.125823 
1791.000000	65.116810 
1790.000000	65.108633 
1789.000000	65.101194 
1788.000000	65.094590 
1787.000000	65.089082 
1786.000000	65.085196 
1785.000000	65.083694 
1784.000000	65.085363 
1783.000000	65.090680 
1782.000000	65.099525 
1781.000000	65.111184 
1780.000000	65.124297 
1779.000000	65.137243 
1778.000000	65.148329 
1777.000000	65.156269 
1776.000000	65.160226 
1775.000000	65.160250 
1774.000000	65.156912 
1773.000000	65.151095 
1772.000000	65.143680 
1771.000000	65.135407 
1770.000000	65.126729 
1769.000000	65.117692 
1768.000000	65.108108 
1767.000000	65.097904 
1766.000000	65.087413 
1765.000000	65.077328 
1764.000000	65.068960 
1763.000000	65.063905 
1762.000000	65.063953 
1761.000000	65.070581 
1760.000000	65.084528 
1759.000000	65.105438 
1758.000000	65.131664 
1757.000000	65.160751 
1756.000000	65.189456 
1755.000000	65.214157 
1754.000000	65.231609 
1753.000000	65.239548 
1752.000000	65.236854 
1751.000000	65.223765 
1750.000000	65.201616 
1749.000000	65.172696 
1748.000000	65.139579 
1747.000000	65.104579 
1746.000000	65.069413 
1745.000000	65.035367 
1744.000000	65.003013 
1743.000000	64.972591 
1742.000000	64.944219 
1741.000000	64.917993 
1740.000000	64.894104 
1739.000000	64.872813 
1738.000000	64.854168 
1737.000000	64.838337 
1736.000000	64.825439 
1735.000000	64.816164 
1734.000000	64.811229 
1733.000000	64.812016 
1732.000000	64.820146 
1731.000000	64.837455 
1730.000000	64.864993 
1729.000000	64.902710 
1728.000000	64.948844 
1727.000000	65.000343 
1726.000000	65.052700 
1725.000000	65.101337 
1724.000000	65.142393 
1723.000000	65.173673 
1722.000000	65.195035 
1721.000000	65.208172 
1720.000000	65.216112 
1719.000000	65.222072 
1718.000000	65.228629 
1717.000000	65.236902 
1716.000000	65.246295 
1715.000000	65.255022 
1714.000000	65.260744 
1713.000000	65.261363 
1712.000000	65.255522 
1711.000000	65.243387 
1710.000000	65.226244 
1709.000000	65.206050 
1708.000000	65.184903 
1707.000000	65.164399 
1706.000000	65.145683 
1705.000000	65.129137 
1704.000000	65.114903 
1703.000000	65.103340 
1702.000000	65.095019 
1701.000000	65.090870 
1700.000000	65.091776 
1699.000000	65.097904 
1698.000000	65.108656 
1697.000000	65.122509 
1696.000000	65.137124 
1695.000000	65.149426 
1694.000000	65.156602 
1693.000000	65.156674 
1692.000000	65.148854 
1691.000000	65.133762 
1690.000000	65.113306 
1689.000000	65.090346 
1688.000000	65.068030 
1687.000000	65.049147 
1686.000000	65.035676 
1685.000000	65.028500 
1684.000000	65.027618 
1683.000000	65.032482 
1682.000000	65.042066 
1681.000000	65.055298 
1680.000000	65.071201 
1679.000000	65.088915 
1678.000000	65.107345 
1677.000000	65.125274 
1676.000000	65.141153 
1675.000000	65.153050 
1674.000000	65.159106 
1673.000000	65.157628 
1672.000000	65.147924 
1671.000000	65.130186 
1670.000000	65.106129 
1669.000000	65.078330 
1668.000000	65.050244 
1667.000000	65.025043 
1666.000000	65.005397 
1665.000000	64.992666 
1664.000000	64.986968 
1663.000000	64.987373 
1662.000000	64.992356 
1661.000000	65.000367 
1660.000000	65.010333 
1659.000000	65.021872 
1658.000000	65.035438 
1657.000000	65.051579 
1656.000000	65.070843 
1655.000000	65.093135 
1654.000000	65.117526 
1653.000000	65.142273 
1652.000000	65.164971 
1651.000000	65.183353 
1650.000000	65.195202 
1649.000000	65.199255 
1648.000000	65.195059 
1647.000000	65.182876 
1646.000000	65.163683 
1645.000000	65.138840 
1644.000000	65.110087 
1643.000000	65.079522 
1642.000000	65.049552 
1641.000000	65.022802 
1640.000000	65.001916 
1639.000000	64.989209 
1638.000000	64.986014 
1637.000000	64.992618 
1636.000000	65.007805 
1635.000000	65.029096 
1634.000000	65.052962 
1633.000000	65.075492 
1632.000000	65.092945 
1631.000000	65.102744 
1630.000000	65.103578 
1629.000000	65.096020 
1628.000000	65.082073 
1627.000000	65.064930 
1626.000000	65.048193 
1625.000000	65.034985 
1624.000000	65.027737 
1623.000000	65.027332 
1622.000000	65.033555 
1621.000000	65.044689 
1620.000000	65.058398 
1619.000000	65.071964 
1618.000000	65.083003 
1617.000000	65.089869 
1616.000000	65.091919 
1615.000000	65.089535 
1614.000000	65.083670 
1613.000000	65.075469 
1612.000000	65.065884 
1611.000000	65.055298 
1610.000000	65.043640 
1609.000000	65.030717 
1608.000000	65.016603 
1607.000000	65.001964 
1606.000000	64.988303 
1605.000000	64.977574 
1604.000000	64.971804 
1603.000000	64.972496 
1602.000000	64.980006 
1601.000000	64.993214 
1600.000000	65.009737 
1599.000000	65.026354 
1598.000000	65.039777 
1597.000000	65.047597 
1596.000000	65.049004 
1595.000000	65.044784 
1594.000000	65.037226 
1593.000000	65.029549 
1592.000000	65.024781 
1591.000000	65.025019 
1590.000000	65.030694 
1589.000000	65.040516 
1588.000000	65.051507 
1587.000000	65.060091 
1586.000000	65.062546 
1585.000000	65.056133 
1584.000000	65.039753 
1583.000000	65.014052 
1582.000000	64.981389 
1581.000000	64.945244 
1580.000000	64.909768 
1579.000000	64.878940 
1578.000000	64.855909 
1577.000000	64.842581 
1576.000000	64.839458 
1575.000000	64.845824 
1574.000000	64.859747 
1573.000000	64.878511 
1572.000000	64.899039 
1571.000000	64.917945 
1570.000000	64.931917 
1569.000000	64.938187 
1568.000000	64.934825 
1567.000000	64.921331 
1566.000000	64.898443 
1565.000000	64.868497 
1564.000000	64.835214 
1563.000000	64.802932 
1562.000000	64.775848 
1561.000000	64.757275 
1560.000000	64.749026 
1559.000000	64.751219 
1558.000000	64.762425 
1557.000000	64.780092 
1556.000000	64.801311 
1555.000000	64.823579 
1554.000000	64.845466 
1553.000000	64.866471 
1552.000000	64.886784 
1551.000000	64.906597 
1550.000000	64.925622 
1549.000000	64.942789 
1548.000000	64.956426 
1547.000000	64.964771 
1546.000000	64.966893 
1545.000000	64.963364 
1544.000000	64.956474 
1543.000000	64.950132 
1542.000000	64.948916 
1541.000000	64.957141 
1540.000000	64.977478 
1539.000000	65.010309 
1538.000000	65.053153 
1537.000000	65.101313 
1536.000000	65.148377 
1535.000000	65.187740 
1534.000000	65.213751 
1533.000000	65.223169 
1532.000000	65.215182 
1531.000000	65.191769 
1530.000000	65.156912 
1529.000000	65.115809 
1528.000000	65.073752 
1527.000000	65.034985 
1526.000000	65.002393 
1525.000000	64.977216 
1524.000000	64.959049 
1523.000000	64.946508 
1522.000000	64.937663 
1521.000000	64.930796 
1520.000000	64.925146 
1519.000000	64.920973 
1518.000000	64.919328 
1517.000000	64.921832 
1516.000000	64.929914 
1515.000000	64.944696 
1514.000000	64.966058 
1513.000000	64.992809 
1512.000000	65.022921 
1511.000000	65.053749 
1510.000000	65.082478 
1509.000000	65.106654 
1508.000000	65.124535 
1507.000000	65.135264 
1506.000000	65.138864 
1505.000000	65.136289 
1504.000000	65.129351 
1503.000000	65.120387 
1502.000000	65.111994 
1501.000000	65.106821 
1500.000000	65.107226 
1499.000000	65.114927 
1498.000000	65.130591 
1497.000000	65.153312 
1496.000000	65.180563 
1495.000000	65.208625 
1494.000000	65.233516 
1493.000000	65.251564 
1492.000000	65.260386 
1491.000000	65.259647 
1490.000000	65.250802 
1489.000000	65.236711 
1488.000000	65.220570 
1487.000000	65.205216 
1486.000000	65.192294 
1485.000000	65.182280 
1484.000000	65.174174 
1483.000000	65.166425 
1482.000000	65.156960 
1481.000000	65.144371 
1480.000000	65.127897 
1479.000000	65.107560 
1478.000000	65.084552 
1477.000000	65.060782 
1476.000000	65.038704 
1475.000000	65.020537 
1474.000000	65.007996 
1473.000000	65.001749 
1472.000000	65.001535 
1471.000000	65.006184 
1470.000000	65.013885 
1469.000000	65.022778 
1468.000000	65.031480 
1467.000000	65.039205 
1466.000000	65.046024 
1465.000000	65.052819 
1464.000000	65.060687 
1463.000000	65.070414 
1462.000000	65.082406 
1461.000000	65.095949 
1460.000000	65.109300 
1459.000000	65.119600 
1458.000000	65.123677 
1457.000000	65.118336 
1456.000000	65.101456 
1455.000000	65.072512 
1454.000000	65.032792 
1453.000000	64.985775 
1452.000000	64.936256 
1451.000000	64.889907 
1450.000000	64.851927 
1449.000000	64.826416 
1448.000000	64.815568 
1447.000000	64.819502 
1446.000000	64.836215 
1445.000000	64.862298 
1444.000000	64.893698 
1443.000000	64.926266 
1442.000000	64.956450 
1441.000000	64.981341 
1440.000000	64.999151 
1439.000000	65.009069 
1438.000000	65.011119 
1437.000000	65.005946 
1436.000000	64.994549 
1435.000000	64.978051 
1434.000000	64.957571 
1433.000000	64.934515 
1432.000000	64.910244 
1431.000000	64.886379 
1430.000000	64.864540 
1429.000000	64.846181 
1428.000000	64.832592 
1427.000000	64.824461 
1426.000000	64.821887 
1425.000000	64.824414 
1424.000000	64.831256 
1423.000000	64.841246 
1422.000000	64.853310 
1421.000000	64.866566 
1420.000000	64.880156 
1419.000000	64.892864 
1418.000000	64.903426 
1417.000000	64.910268 
1416.000000	64.911723 
1415.000000	64.906454 
1414.000000	64.893794 
1413.000000	64.874410 
1412.000000	64.850544 
1411.000000	64.825797 
1410.000000	64.804577 
1409.000000	64.791202 
1408.000000	64.788913 
1407.000000	64.798784 
1406.000000	64.819407 
1405.000000	64.847159 
1404.000000	64.876604 
1403.000000	64.902210 
1402.000000	64.919352 
1401.000000	64.925622 
1400.000000	64.921188 
1399.000000	64.908981 
1398.000000	64.893603 
1397.000000	64.880180 
1396.000000	64.872980 
1395.000000	64.874219 
1394.000000	64.883661 
1393.000000	64.898610 
1392.000000	64.914941 
1391.000000	64.927935 
1390.000000	64.933824 
1389.000000	64.930605 
1388.000000	64.918732 
1387.000000	64.900565 
1386.000000	64.879965 
1385.000000	64.861202 
1384.000000	64.847922 
1383.000000	64.842581 
1382.000000	64.845848 
1381.000000	64.856886 
1380.000000	64.873552 
1379.000000	64.893317 
1378.000000	64.913535 
1377.000000	64.931988 
1376.000000	64.946866 
1375.000000	64.956998 
1374.000000	64.961791 
1373.000000	64.960932 
1372.000000	64.954757 
1371.000000	64.943766 
1370.000000	64.929056 
1369.000000	64.912319 
1368.000000	64.895558 
1367.000000	64.880752 
1366.000000	64.869475 
1365.000000	64.862775 
1364.000000	64.860653 
1363.000000	64.862394 
1362.000000	64.866614 
1361.000000	64.871788 
1360.000000	64.876699 
1359.000000	64.880704 
1358.000000	64.883995 
1357.000000	64.887642 
1356.000000	64.892816 
1355.000000	64.900541 
1354.000000	64.911174 
1353.000000	64.924502 
1352.000000	64.939546 
1351.000000	64.954853 
1350.000000	64.968895 
1349.000000	64.980077 
1348.000000	64.987707 
1347.000000	64.991283 
1346.000000	64.990592 
1345.000000	64.985370 
1344.000000	64.975333 
1343.000000	64.960193 
1342.000000	64.939832 
1341.000000	64.914798 
1340.000000	64.886522 
1339.000000	64.857482 
1338.000000	64.831018 
1337.000000	64.810705 
1336.000000	64.799451 
1335.000000	64.798688 
1334.000000	64.807868 
1333.000000	64.824128 
1332.000000	64.842987 
1331.000000	64.859175 
1330.000000	64.868283 
1329.000000	64.867329 
1328.000000	64.856100 
1327.000000	64.837336 
1326.000000	64.816379 
1325.000000	64.799308 
1324.000000	64.792013 
1323.000000	64.798855 
1322.000000	64.821434 
1321.000000	64.858222 
1320.000000	64.904880 
1319.000000	64.955520 
1318.000000	65.003585 
1317.000000	65.043544 
1316.000000	65.071392 
1315.000000	65.085339 
1314.000000	65.085721 
1313.000000	65.074563 
1312.000000	65.054893 
1311.000000	65.029883 
1310.000000	65.002655 
1309.000000	64.976000 
1308.000000	64.951992 
1307.000000	64.931821 
1306.000000	64.916348 
1305.000000	64.905762 
1304.000000	64.899492 
1303.000000	64.895915 
1302.000000	64.892721 
1301.000000	64.887022 
1300.000000	64.875793 
1299.000000	64.856457 
1298.000000	64.827394 
1297.000000	64.788556 
1296.000000	64.741730 
1295.000000	64.690446 
1294.000000	64.639115 
1293.000000	64.592647 
1292.000000	64.555621 
1291.000000	64.531517 
1290.000000	64.521884 
1289.000000	64.526677 
1288.000000	64.544224 
1287.000000	64.571785 
1286.000000	64.605808 
1285.000000	64.643168 
1284.000000	64.681434 
1283.000000	64.719128 
1282.000000	64.755439 
1281.000000	64.790034 
1280.000000	64.822769 
1279.000000	64.853405 
1278.000000	64.881396 
1277.000000	64.905881 
1276.000000	64.925551 
1275.000000	64.939618 
1274.000000	64.947199 
1273.000000	64.947986 
1272.000000	64.941740 
1271.000000	64.928841 
1270.000000	64.909672 
1269.000000	64.884781 
1268.000000	64.854884 
1267.000000	64.820957 
1266.000000	64.784431 
1265.000000	64.747190 
1264.000000	64.711594 
1263.000000	64.680361 
1262.000000	64.655900 
1261.000000	64.639830 
1260.000000	64.632987 
1259.000000	64.634943 
1258.000000	64.644479 
1257.000000	64.659690 
1256.000000	64.678549 
1255.000000	64.699125 
1254.000000	64.719986 
1253.000000	64.740180 
1252.000000	64.758992 
1251.000000	64.775753 
1250.000000	64.789867 
1249.000000	64.800643 
1248.000000	64.807558 
1247.000000	64.809989 
1246.000000	64.807796 
1245.000000	64.801168 
1244.000000	64.790892 
1243.000000	64.777994 
1242.000000	64.763736 
1241.000000	64.749479 
1240.000000	64.736342 
1239.000000	64.725399 
1238.000000	64.717435 
1237.000000	64.713144 
1236.000000	64.713072 
1235.000000	64.717793 
1234.000000	64.727473 
1233.000000	64.741969 
1232.000000	64.760756 
1231.000000	64.782905 
1230.000000	64.807176 
1229.000000	64.832139 
1228.000000	64.856457 
1227.000000	64.878821 
1226.000000	64.898180 
1225.000000	64.913702 
1224.000000	64.924931 
1223.000000	64.931821 
1222.000000	64.934825 
1221.000000	64.934825 
1220.000000	64.932751 
1219.000000	64.929676 
1218.000000	64.926338 
1217.000000	64.923548 
1216.000000	64.921450 
1215.000000	64.920020 
1214.000000	64.918518 
1213.000000	64.916372 
1212.000000	64.912819 
1211.000000	64.907264 
1210.000000	64.899301 
1209.000000	64.888834 
1208.000000	64.875984 
1207.000000	64.861249 
1206.000000	64.845252 
1205.000000	64.828729 
1204.000000	64.812660 
1203.000000	64.798307 
1202.000000	64.786696 
1201.000000	64.778637 
1200.000000	64.774465 
1199.000000	64.773964 
1198.000000	64.775991 
1197.000000	64.779162 
1196.000000	64.782238 
1195.000000	64.784836 
1194.000000	64.787340 
1193.000000	64.791250 
1192.000000	64.798879 
1191.000000	64.812564 
1190.000000	64.834022 
1189.000000	64.863371 
1188.000000	64.899206 
1187.000000	64.938116 
1186.000000	64.975595 
1185.000000	65.006422 
1184.000000	65.025973 
1183.000000	65.030908 
1182.000000	65.020203 
1181.000000	64.994788 
1180.000000	64.957571 
1179.000000	64.912557 
1178.000000	64.864444 
1177.000000	64.817500 
1176.000000	64.775037 
1175.000000	64.739108 
1174.000000	64.710640 
1173.000000	64.689397 
1172.000000	64.674377 
1171.000000	64.664125 
1170.000000	64.657092 
1169.000000	64.652109 
1168.000000	64.648413 
1167.000000	64.645457 
1166.000000	64.642930 
1165.000000	64.640355 
1164.000000	64.637374 
1163.000000	64.633202 
1162.000000	64.627361 
1161.000000	64.619302 
1160.000000	64.609193 
1159.000000	64.597821 
1158.000000	64.586710 
1157.000000	64.578032 
1156.000000	64.574289 
1155.000000	64.577603 
1154.000000	64.589500 
1153.000000	64.610457 
1152.000000	64.639687 
1151.000000	64.675140 
1150.000000	64.713835 
1149.000000	64.752316 
1148.000000	64.787316 
1147.000000	64.816188 
1146.000000	64.836502 
1145.000000	64.846467 
1144.000000	64.845323 
1143.000000	64.833498 
1142.000000	64.812421 
1141.000000	64.784884 
1140.000000	64.754772 
1139.000000	64.726734 
1138.000000	64.705562 
1137.000000	64.695096 
1136.000000	64.697742 
1135.000000	64.713573 
1134.000000	64.740204 
1133.000000	64.773106 
1132.000000	64.806628 
1131.000000	64.835190 
1130.000000	64.854288 
1129.000000	64.861440 
1128.000000	64.856410 
1127.000000	64.841222 
1126.000000	64.819502 
1125.000000	64.795517 
1124.000000	64.773106 
1123.000000	64.755606 
1122.000000	64.745259 
1121.000000	64.743471 
1120.000000	64.750599 
1119.000000	64.766359 
1118.000000	64.789462 
1117.000000	64.817762 
1116.000000	64.848327 
1115.000000	64.877271 
1114.000000	64.900898 
1113.000000	64.915657 
1112.000000	64.919924 
1111.000000	64.914441 
1110.000000	64.902544 
1109.000000	64.889979 
1108.000000	64.883160 
1107.000000	64.887952 
1106.000000	64.907407 
1105.000000	64.941191 
1104.000000	64.984631 
1103.000000	65.029835 
1102.000000	65.067052 
1101.000000	65.087294 
1100.000000	65.084171 
1099.000000	65.055775 
1098.000000	65.004897 
1097.000000	64.938545 
1096.000000	64.866662 
1095.000000	64.800024 
1094.000000	64.748120 
1093.000000	64.717245 
1092.000000	64.710259 
1091.000000	64.726185 
1090.000000	64.761090 
1089.000000	64.808845 
1088.000000	64.862537 
1087.000000	64.915466 
1086.000000	64.961481 
1085.000000	64.996123 
1084.000000	65.016484 
1083.000000	65.021824 
1082.000000	65.012979 
1081.000000	64.992547 
1080.000000	64.964318 
1079.000000	64.932847 
1078.000000	64.903163 
1077.000000	64.879465 
1076.000000	64.865231 
1075.000000	64.861893 
1074.000000	64.869451 
1073.000000	64.885711 
1072.000000	64.907264 
1071.000000	64.929318 
1070.000000	64.946842 
1069.000000	64.955043 
1068.000000	64.950132 
1067.000000	64.929890 
1066.000000	64.894151 
1065.000000	64.844799 
1064.000000	64.785552 
1063.000000	64.721870 
1062.000000	64.659905 
1061.000000	64.605522 
1060.000000	64.563488 
1059.000000	64.536643 
1058.000000	64.525651 
1057.000000	64.529514 
1056.000000	64.545941 
1055.000000	64.571523 
1054.000000	64.602756 
1053.000000	64.636325 
1052.000000	64.669728 
1051.000000	64.700698 
1050.000000	64.727568 
1049.000000	64.748644 
1048.000000	64.762663 
1047.000000	64.768743 
1046.000000	64.766669 
1045.000000	64.756822 
1044.000000	64.740681 
1043.000000	64.720654 
1042.000000	64.699649 
1041.000000	64.680695 
1040.000000	64.666152 
1039.000000	64.657211 
1038.000000	64.653444 
1037.000000	64.652872 
1036.000000	64.652466 
1035.000000	64.648818 
1034.000000	64.638996 
1033.000000	64.621353 
1032.000000	64.595937 
1031.000000	64.564752 
1030.000000	64.530968 
1029.000000	64.499044 
1028.000000	64.473271 
1027.000000	64.457774 
1026.000000	64.455342 
1025.000000	64.467597 
1024.000000	64.494585 
1023.000000	64.534902 
1022.000000	64.585971 
1021.000000	64.643859 
1020.000000	64.703726 
1019.000000	64.760112 
1018.000000	64.807438 
1017.000000	64.840841 
1016.000000	64.856672 
1015.000000	64.853501 
1014.000000	64.832448 
1013.000000	64.797258 
1012.000000	64.753603 
1011.000000	64.707827 
1010.000000	64.665675 
1009.000000	64.631223 
1008.000000	64.606118 
1007.000000	64.589452 
1006.000000	64.578604 
1005.000000	64.570045 
1004.000000	64.560842 
1003.000000	64.549612 
1002.000000	64.537048 
1001.000000	64.525461 
1000.000000	64.518356 
999.000000	 64.518880 
998.000000	 64.529228 
997.000000	 64.549732 
996.000000	 64.578628 
995.000000	 64.612507 
994.000000	 64.646959 
993.000000	 64.677715 
992.000000	 64.701151 
991.000000	 64.715147 
990.000000	 64.718914 
989.000000	 64.712858 
988.000000	 64.698696 
987.000000	 64.678978 
986.000000	 64.656805 
985.000000	 64.635229 
984.000000	 64.616847 
983.000000	 64.603257 
982.000000	 64.595174 
981.000000	 64.591860 
980.000000	 64.591312 
979.000000	 64.590764 
978.000000	 64.587187 
977.000000	 64.578318 
976.000000	 64.563179 
975.000000	 64.542651 
974.000000	 64.519333 
973.000000	 64.497256 
972.000000	 64.481043 
971.000000	 64.474511 
970.000000	 64.479851 
969.000000	 64.496731 
968.000000	 64.522075 
967.000000	 64.550662 
966.000000	 64.576458 
965.000000	 64.593529 
964.000000	 64.597654 
963.000000	 64.587020 
962.000000	 64.562749 
961.000000	 64.528799 
960.000000	 64.490985 
959.000000	 64.455652 
958.000000	 64.428210 
957.000000	 64.412236 
956.000000	 64.408659 
955.000000	 64.416027 
954.000000	 64.430904 
953.000000	 64.449024 
952.000000	 64.466285 
951.000000	 64.479517 
950.000000	 64.486885 
949.000000	 64.487576 
948.000000	 64.482092 
947.000000	 64.471054 
946.000000	 64.455676 
945.000000	 64.437341 
944.000000	 64.418053 
943.000000	 64.400196 
942.000000	 64.386820 
941.000000	 64.381265 
940.000000	 64.386606 
939.000000	 64.405035 
938.000000	 64.437103 
937.000000	 64.480972 
936.000000	 64.532685 
935.000000	 64.586758 
934.000000	 64.636898 
933.000000	 64.677071 
932.000000	 64.702677 
931.000000	 64.711236 
930.000000	 64.702582 
929.000000	 64.678716 
928.000000	 64.643335 
927.000000	 64.600777 
926.000000	 64.555239 
925.000000	 64.510059 
924.000000	 64.467716 
923.000000	 64.429688 
922.000000	 64.397025 
921.000000	 64.370203 
920.000000	 64.349150 
919.000000	 64.333248 
918.000000	 64.321446 
917.000000	 64.312982 
916.000000	 64.306139 
915.000000	 64.300441 
914.000000	 64.295983 
913.000000	 64.294767 
912.000000	 64.299869 
911.000000	 64.314961 
910.000000	 64.343214 
909.000000	 64.385938 
908.000000	 64.441800 
907.000000	 64.506077 
906.000000	 64.571332 
905.000000	 64.628601 
904.000000	 64.669322 
903.000000	 64.687967 
902.000000	 64.682912 
901.000000	 64.657115 
900.000000	 64.616703 
899.000000	 64.569211 
898.000000	 64.520907 
897.000000	 64.475440 
896.000000	 64.432525 
895.000000	 64.388871 
894.000000	 64.339232 
893.000000	 64.279127 
892.000000	 64.206528 
891.000000	 64.122939 
890.000000	 64.034056 
889.000000	 63.947534 
888.000000	 63.872861 
887.000000	 63.818502 
886.000000	 63.790893 
885.000000	 63.792562 
884.000000	 63.822197 
883.000000	 63.874459 
882.000000	 63.941431 
881.000000	 64.013957 
880.000000	 64.082908 
879.000000	 64.140486 
878.000000	 64.181041 
877.000000	 64.201521 
876.000000	 64.201974 
875.000000	 64.185047 
874.000000	 64.155912 
873.000000	 64.120674 
872.000000	 64.085459 
871.000000	 64.054703 
870.000000	 64.031219 
869.000000	 64.014768 
868.000000	 64.002704 
867.000000	 63.990044 
866.000000	 63.971471 
865.000000	 63.942170 
864.000000	 63.898015 
863.000000	 63.838362 
862.000000	 63.765144 
861.000000	 63.685154 
860.000000	 63.608074 
859.000000	 63.546013 
858.000000	 63.510465 
857.000000	 63.510107 
856.000000	 63.548564 
855.000000	 63.622713 
854.000000	 63.722562 
853.000000	 63.833570 
852.000000	 63.939476 
851.000000	 64.026045 
850.000000	 64.083909 
849.000000	 64.111304 
848.000000	 64.113712 
847.000000	 64.102101 
846.000000	 64.089465 
845.000000	 64.087367 
844.000000	 64.102554 
843.000000	 64.135980 
842.000000	 64.182639 
841.000000	 64.234232 
840.000000	 64.281177 
839.000000	 64.317083 
838.000000	 64.338850 
837.000000	 64.347767 
836.000000	 64.347028 
835.000000	 64.340734 
834.000000	 64.330363 
833.000000	 64.313459 
832.000000	 64.284086 
831.000000	 64.234805 
830.000000	 64.159297 
829.000000	 64.055466 
828.000000	 63.927221 
827.000000	 63.785505 
826.000000	 63.645529 
825.000000	 63.523602 
824.000000	 63.433575 
823.000000	 63.383626 
822.000000	 63.375210 
821.000000	 63.403010 
820.000000	 63.456773 
819.000000	 63.524007 
818.000000	 63.593196 
817.000000	 63.656091 
816.000000	 63.707351 
815.000000	 63.745427 
814.000000	 63.770604 
813.000000	 63.784933 
812.000000	 63.790225 
811.000000	 63.788676 
810.000000	 63.782477 
809.000000	 63.774180 
808.000000	 63.767504 
807.000000	 63.766002 
806.000000	 63.773059 
805.000000	 63.790750 
804.000000	 63.818812 
803.000000	 63.855552 
802.000000	 63.897681 
801.000000	 63.942146 
800.000000	 63.986563 
799.000000	 64.030456 
798.000000	 64.074850 
797.000000	 64.121770 
796.000000	 64.172935 
795.000000	 64.228081 
794.000000	 64.284181 
793.000000	 64.335727 
792.000000	 64.375734 
791.000000	 64.397621 
790.000000	 64.396977 
789.000000	 64.373373 
788.000000	 64.330816 
787.000000	 64.277458 
786.000000	 64.223790 
785.000000	 64.179658 
784.000000	 64.152550 
783.000000	 64.146709 
782.000000	 64.161753 
781.000000	 64.193654 
780.000000	 64.234638 
779.000000	 64.275693 
778.000000	 64.307284 
777.000000	 64.321994 
776.000000	 64.315176 
775.000000	 64.285540 
774.000000	 64.235329 
773.000000	 64.169740 
772.000000	 64.095473 
771.000000	 64.019179 
770.000000	 63.946628 
769.000000	 63.881969 
768.000000	 63.827562 
767.000000	 63.784146 
766.000000	 63.750839 
765.000000	 63.725399 
764.000000	 63.705277 
763.000000	 63.687443 
762.000000	 63.668012 
761.000000	 63.643217 
760.000000	 63.609409 
759.000000	 63.564682 
758.000000	 63.508009 
757.000000	 63.441729 
756.000000	 63.370823 
755.000000	 63.303232 
754.000000	 63.248252 
753.000000	 63.215255 
752.000000	 63.210916 
751.000000	 63.238739 
750.000000	 63.297080 
749.000000	 63.380885 
748.000000	 63.482141 
747.000000	 63.592123 
746.000000	 63.702583 
745.000000	 63.806819 
744.000000	 63.899922 
743.000000	 63.978052 
742.000000	 64.037823 
741.000000	 64.075469 
740.000000	 64.086818 
739.000000	 64.068341 
738.000000	 64.017891 
737.000000	 63.936066 
736.000000	 63.826775 
735.000000	 63.698482 
734.000000	 63.562560 
733.000000	 63.432168 
732.000000	 63.319420 
731.000000	 63.233780 
730.000000	 63.180112 
729.000000	 63.157582 
728.000000	 63.161110 
727.000000	 63.181900 
726.000000	 63.211131 
725.000000	 63.241195 
724.000000	 63.267946 
723.000000	 63.290286 
722.000000	 63.310217 
721.000000	 63.330626 
720.000000	 63.353800 
719.000000	 63.379621 
718.000000	 63.405489 
717.000000	 63.426613 
716.000000	 63.437151 
715.000000	 63.431811 
714.000000	 63.408112 
713.000000	 63.367438 
712.000000	 63.314247 
711.000000	 63.255476 
710.000000	 63.198971 
709.000000	 63.152170 
708.000000	 63.120174 
707.000000	 63.105416 
706.000000	 63.107895 
705.000000	 63.125228 
704.000000	 63.154315 
703.000000	 63.191270 
702.000000	 63.231086 
701.000000	 63.268923 
700.000000	 63.300061 
699.000000	 63.321089 
698.000000	 63.329386 
697.000000	 63.324809 
696.000000	 63.309550 
695.000000	 63.287878 
694.000000	 63.265395 
693.000000	 63.246965 
692.000000	 63.235807 
691.000000	 63.231492 
690.000000	 63.230323 
689.000000	 63.225603 
688.000000	 63.209462 
687.000000	 63.175058 
686.000000	 63.118815 
685.000000	 63.041448 
684.000000	 62.948369 
683.000000	 62.848162 
682.000000	 62.751269 
681.000000	 62.666726 
680.000000	 62.601423 
679.000000	 62.559103 
678.000000	 62.540769 
677.000000	 62.545061 
676.000000	 62.569499 
675.000000	 62.611079 
674.000000	 62.666654 
673.000000	 62.732458 
672.000000	 62.804150 
671.000000	 62.876224 
670.000000	 62.942290 
669.000000	 62.995529 
668.000000	 63.029527 
667.000000	 63.039469 
666.000000	 63.023424 
665.000000	 62.983465 
664.000000	 62.924909 
663.000000	 62.855648 
662.000000	 62.784743 
661.000000	 62.720704 
660.000000	 62.669515 
659.000000	 62.633419 
658.000000	 62.611103 
657.000000	 62.598323 
656.000000	 62.588977 
655.000000	 62.576603 
654.000000	 62.556195 
653.000000	 62.524962 
652.000000	 62.482190 
651.000000	 62.429618 
650.000000	 62.370181 
649.000000	 62.307953 
648.000000	 62.246608 
647.000000	 62.190294 
646.000000	 62.142109 
645.000000	 62.105464 
644.000000	 62.083649 
643.000000	 62.079787 
642.000000	 62.096023 
641.000000	 62.133145 
640.000000	 62.189817 
639.000000	 62.262296 
638.000000	 62.344455 
637.000000	 62.428569 
636.000000	 62.506413 
635.000000	 62.570738 
634.000000	 62.616610 
633.000000	 62.642264 
632.000000	 62.649130 
631.000000	 62.641739 
630.000000	 62.626147 
629.000000	 62.608885 
628.000000	 62.594819 
627.000000	 62.587690 
626.000000	 62.587690 
625.000000	 62.592458 
624.000000	 62.596535 
623.000000	 62.593770 
622.000000	 62.577962 
621.000000	 62.544536 
620.000000	 62.491893 
619.000000	 62.421512 
618.000000	 62.338995 
617.000000	 62.252616 
616.000000	 62.172985 
615.000000	 62.110471 
614.000000	 62.074303 
613.000000	 62.070965 
612.000000	 62.102437 
611.000000	 62.165498 
610.000000	 62.251377 
609.000000	 62.347221 
608.000000	 62.437295 
607.000000	 62.506079 
606.000000	 62.540912 
605.000000	 62.534976 
604.000000	 62.488651 
603.000000	 62.409806 
602.000000	 62.312483 
601.000000	 62.213897 
600.000000	 62.131452 
599.000000	 62.078189 
598.000000	 62.061381 
597.000000	 62.079977 
596.000000	 62.126493 
595.000000	 62.187504 
594.000000	 62.248134 
593.000000	 62.294054 
592.000000	 62.314677 
591.000000	 62.304592 
590.000000	 62.263774 
589.000000	 62.196850 
588.000000	 62.111043 
587.000000	 62.014627 
586.000000	 61.915349 
585.000000	 61.819934 
584.000000	 61.733937 
583.000000	 61.661887 
582.000000	 61.607599 
581.000000	 61.574602 
580.000000	 61.566138 
579.000000	 61.584377 
578.000000	 61.629557 
577.000000	 61.698937 
576.000000	 61.786508 
575.000000	 61.882877 
574.000000	 61.976552 
573.000000	 62.055730 
572.000000	 62.110257 
571.000000	 62.133002 
570.000000	 62.121105 
569.000000	 62.076830 
568.000000	 62.006139 
567.000000	 61.918044 
566.000000	 61.821651 
565.000000	 61.725401 
564.000000	 61.634969 
563.000000	 61.553597 
562.000000	 61.482143 
561.000000	 61.419653 
560.000000	 61.366081 
559.000000	 61.323380 
558.000000	 61.295342 
557.000000	 61.286449 
556.000000	 61.300158 
555.000000	 61.337065 
554.000000	 61.394023 
553.000000	 61.464142 
552.000000	 61.539268 
551.000000	 61.611819 
550.000000	 61.677551 
549.000000	 61.736202 
548.000000	 61.791729 
547.000000	 61.849880 
546.000000	 61.915707 
545.000000	 61.990261 
544.000000	 62.069988 
543.000000	 62.145590 
542.000000	 62.204527 
541.000000	 62.233114 
540.000000	 62.222552 
539.000000	 62.168669 
538.000000	 62.074899 
537.000000	 61.949563 
536.000000	 61.804723 
535.000000	 61.652708 
534.000000	 61.503720 
533.000000	 61.364579 
532.000000	 61.238312 
531.000000	 61.125802 
530.000000	 61.027860 
529.000000	 60.945343 
528.000000	 60.879826 
527.000000	 60.832500 
526.000000	 60.803341 
525.000000	 60.789895 
524.000000	 60.787153 
523.000000	 60.788083 
522.000000	 60.784983 
521.000000	 60.772323 
520.000000	 60.746955 
519.000000	 60.709285 
518.000000	 60.660696 
517.000000	 60.603094 
516.000000	 60.536003 
515.000000	 60.455155 
514.000000	 60.354065 
513.000000	 60.226178 
512.000000	 60.068774 
511.000000	 59.884738 
510.000000	 59.685349 
509.000000	 59.489011 
508.000000	 59.318375 
507.000000	 59.195494 
506.000000	 59.136247 
505.000000	 59.145069 
504.000000	 59.214925 
503.000000	 59.328246 
502.000000	 59.461140 
501.000000	 59.588217 
500.000000	 59.689903 
499.000000	 59.756112 
498.000000	 59.786200 
497.000000	 59.787297 
496.000000	 59.771418 
495.000000	 59.750628 
494.000000	 59.733486 
493.000000	 59.721660 
492.000000	 59.712481 
491.000000	 59.697937 
490.000000	 59.668612 
489.000000	 59.615373 
488.000000	 59.532713 
487.000000	 59.420585 
486.000000	 59.284424 
485.000000	 59.135961 
484.000000	 58.988881 
483.000000	 58.859753 
482.000000	 58.764290 
481.000000	 58.715915 
480.000000	 58.722066 
479.000000	 58.784866 
478.000000	 58.900380 
477.000000	 59.059047 
476.000000	 59.246182 
475.000000	 59.445953 
474.000000	 59.643101 
473.000000	 59.825658 
472.000000	 59.985923 
471.000000	 60.121345 
470.000000	 60.233330 
469.000000	 60.327482 
468.000000	 60.410332 
467.000000	 60.486841 
466.000000	 60.557699 
465.000000	 60.622382 
464.000000	 60.676002 
463.000000	 60.712623 
462.000000	 60.723233 
461.000000	 60.701537 
460.000000	 60.640525 
459.000000	 60.536980 
458.000000	 60.388422 
457.000000	 60.196280 
456.000000	 59.963440 
455.000000	 59.697318 
454.000000	 59.406113 
453.000000	 59.100103 
452.000000	 58.789062 
451.000000	 58.482885 
450.000000	 58.189606 
449.000000	 57.914471 
448.000000	 57.663726 
447.000000	 57.445597 
446.000000	 57.270550 
445.000000	 57.150387 
444.000000	 57.105207 
443.000000	 57.158660 
442.000000	 57.332181 
441.000000	 57.637190 
440.000000	 58.062624 
439.000000	 58.573961 
438.000000	 59.124755 
437.000000	 59.659385 
436.000000	 60.111570 
435.000000	 60.422849 
434.000000	 60.567831 
433.000000	 60.546731 
432.000000	 60.380554 
431.000000	 60.104799 
430.000000	 59.765839 
429.000000	 59.404063 
428.000000	 59.054255 
427.000000	 58.732509 
426.000000	 58.431935 
425.000000	 58.141899 
424.000000	 57.875323 
423.000000	 57.634854 
422.000000	 57.412505 
421.000000	 57.187676 
420.000000	 56.931400 
419.000000	 56.606173 
418.000000	 56.184768 
417.000000	 55.651926 
416.000000	 55.030775 
415.000000	 54.417252 
414.000000	 53.982996 
413.000000	 53.932142 
412.000000	 54.476475 
411.000000	 55.776667 
410.000000	 57.907962 
409.000000	 60.839366 
408.000000	 64.416861 
407.000000	 68.369746 
406.000000	 72.347044 
405.000000	 76.020765 
404.000000	 79.061532 
403.000000	 81.268644 
402.000000	 82.444787 
401.000000	 82.440185 
400.000000	 81.094169 
399.000000	 78.285789 
398.000000	 73.962235 
397.000000	 68.202567 
396.000000	 61.295223 
395.000000	 53.768372 
394.000000	 46.343660 
393.000000	 39.842081 
392.000000	 35.091710 
391.000000	 32.772850 
390.000000	 33.381676 
389.000000	 37.087821 
388.000000	 43.716931 
387.000000	 52.672767 
386.000000	 62.896490 
385.000000	 73.024582 
384.000000	 81.481504 
383.000000	 86.892056 
382.000000	 88.403820 
381.000000	 85.907912 
380.000000	 80.069088 
379.000000	 72.173690 
378.000000	 63.847017 
377.000000	 56.659793 
376.000000	 51.754260 
375.000000	 49.687719 
374.000000	 50.437688 
373.000000	 53.465008 
372.000000	 58.037233 
371.000000	 63.307881 
370.000000	 68.531346 

