PE IR       SPECTRUM    SPECTRUM    ASCII       PEDS        1.60        
  -1
C-1AE4~1.ASC
17/03/27
15:21:42.00
17/03/27
15:21:42.00
tln
$C-4040-8_t0011$<tbV0>[-13.0,-13.0,8.0,0.0,27,1,0]
370.000000
64









2002,4.07    
MIRTGS : RIGHTBACK : INTERNAL 2
MIR : ON : INTERNAL 2
OPTKBR

0.200000
8
8.000000
FILLER
RATIO
SPECTRUM
UNLOCKED 256

DOUBLE
64
COMBINED
1
0
0


1.000000
RATIO


1
0
TRUE
51149
0
LEFT NOT FITTED RIGHT NOT FITTED 0
NONE
NONE
15600
12.000000
4.427000
51148
TRUE
1 0 8 72 0 0 0 0 

15798.010000






#HDR
-1
-1
#GR
CM-1
%T
0.00002384185791015625
0.0
5000.000000
-1.000000
4631
8
86.505103
40.422487
#DATA
5000.000000	64.542293 
4999.000000	64.445257 
4998.000000	64.366197 
4997.000000	64.314770 
4996.000000	64.299941 
4995.000000	64.328193 
4994.000000	64.401817 
4993.000000	64.516496 
4992.000000	64.662265 
4991.000000	64.824438 
4990.000000	64.985442 
4989.000000	65.127062 
4988.000000	65.234136 
4987.000000	65.296816 
4986.000000	65.312147 
4985.000000	65.284013 
4984.000000	65.221285 
4983.000000	65.135264 
4982.000000	65.037226 
4981.000000	64.936208 
4980.000000	64.837336 
4979.000000	64.742803 
4978.000000	64.653038 
4977.000000	64.569282 
4976.000000	64.496660 
4975.000000	64.443039 
4974.000000	64.417910 
4973.000000	64.428281 
4972.000000	64.475893 
4971.000000	64.553952 
4970.000000	64.646697 
4969.000000	64.732265 
4968.000000	64.785766 
4967.000000	64.787554 
4966.000000	64.728069 
4965.000000	64.611864 
4964.000000	64.456319 
4963.000000	64.288735 
4962.000000	64.139723 
4961.000000	64.035391 
4960.000000	63.990974 
4959.000000	64.007592 
4958.000000	64.072418 
4957.000000	64.164757 
4956.000000	64.261531 
4955.000000	64.343333 
4954.000000	64.397501 
4953.000000	64.416837 
4952.000000	64.398527 
4951.000000	64.340829 
4950.000000	64.242339 
4949.000000	64.100527 
4948.000000	63.915014 
4947.000000	63.691163 
4946.000000	63.442373 
4945.000000	63.189148 
4944.000000	62.958860 
4943.000000	62.780547 
4942.000000	62.680697 
4941.000000	62.676262 
4940.000000	62.772393 
4939.000000	62.959337 
4938.000000	63.214945 
4937.000000	63.508081 
4936.000000	63.804125 
4935.000000	64.070558 
4934.000000	64.281535 
4933.000000	64.420485 
4932.000000	64.482355 
4931.000000	64.472532 
4930.000000	64.405894 
4929.000000	64.303374 
4928.000000	64.189839 
4927.000000	64.089536 
4926.000000	64.022684 
4925.000000	64.002346 
4924.000000	64.032816 
4923.000000	64.110231 
4922.000000	64.224576 
4921.000000	64.362931 
4920.000000	64.511919 
4919.000000	64.661145 
4918.000000	64.803671 
4917.000000	64.936852 
4916.000000	65.060067 
4915.000000	65.173625 
4914.000000	65.275907 
4913.000000	65.363836 
4912.000000	65.433645 
4911.000000	65.481901 
4910.000000	65.508246 
4909.000000	65.515255 
4908.000000	65.510797 
4907.000000	65.502762 
4906.000000	65.498423 
4905.000000	65.499496 
4904.000000	65.501761 
4903.000000	65.496659 
4902.000000	65.474319 
4901.000000	65.426754 
4900.000000	65.351033 
4899.000000	65.251684 
4898.000000	65.140032 
4897.000000	65.031695 
4896.000000	64.942121 
4895.000000	64.882540 
4894.000000	64.856481 
4893.000000	64.858770 
4892.000000	64.877009 
4891.000000	64.895105 
4890.000000	64.897990 
4889.000000	64.874744 
4888.000000	64.822912 
4887.000000	64.748287 
4886.000000	64.664793 
4885.000000	64.588689 
4884.000000	64.536809 
4883.000000	64.521837 
4882.000000	64.549803 
4881.000000	64.618682 
4880.000000	64.718699 
4879.000000	64.835309 
4878.000000	64.951229 
4877.000000	65.050053 
4876.000000	65.118861 
4875.000000	65.150284 
4874.000000	65.143585 
4873.000000	65.104198 
4872.000000	65.042257 
4871.000000	64.969992 
4870.000000	64.900231 
4869.000000	64.843010 
4868.000000	64.804077 
4867.000000	64.783716 
4866.000000	64.778113 
4865.000000	64.780855 
4864.000000	64.784908 
4863.000000	64.785480 
4862.000000	64.781069 
4861.000000	64.774155 
4860.000000	64.769649 
4859.000000	64.773392 
4858.000000	64.789056 
4857.000000	64.817190 
4856.000000	64.854216 
4855.000000	64.893317 
4854.000000	64.926266 
4853.000000	64.945745 
4852.000000	64.947509 
4851.000000	64.931964 
4850.000000	64.904332 
4849.000000	64.873266 
4848.000000	64.848637 
4847.000000	64.838910 
4846.000000	64.848780 
4845.000000	64.878916 
4844.000000	64.925456 
4843.000000	64.981603 
4842.000000	65.038681 
4841.000000	65.088462 
4840.000000	65.124082 
4839.000000	65.141272 
4838.000000	65.138459 
4837.000000	65.116214 
4836.000000	65.076708 
4835.000000	65.023422 
4834.000000	64.960336 
4833.000000	64.891791 
4832.000000	64.821958 
4831.000000	64.755225 
4830.000000	64.695453 
4829.000000	64.645791 
4828.000000	64.608597 
4827.000000	64.584708 
4826.000000	64.574241 
4825.000000	64.576268 
4824.000000	64.589309 
4823.000000	64.611291 
4822.000000	64.640116 
4821.000000	64.673662 
4820.000000	64.709687 
4819.000000	64.745736 
4818.000000	64.779090 
4817.000000	64.806747 
4816.000000	64.826178 
4815.000000	64.835405 
4814.000000	64.833331 
4813.000000	64.820098 
4812.000000	64.797234 
4811.000000	64.767885 
4810.000000	64.736056 
4809.000000	64.706587 
4808.000000	64.684152 
4807.000000	64.672613 
4806.000000	64.674592 
4805.000000	64.690804 
4804.000000	64.720153 
4803.000000	64.759182 
4802.000000	64.802408 
4801.000000	64.843130 
4800.000000	64.874482 
4799.000000	64.891004 
4798.000000	64.889526 
4797.000000	64.870500 
4796.000000	64.837813 
4795.000000	64.798688 
4794.000000	64.761972 
4793.000000	64.736437 
4792.000000	64.728832 
4791.000000	64.742445 
4790.000000	64.776539 
4789.000000	64.826178 
4788.000000	64.883613 
4787.000000	64.939975 
4786.000000	64.987564 
4785.000000	65.020990 
4784.000000	65.038919 
4783.000000	65.043282 
4782.000000	65.038919 
4781.000000	65.032005 
4780.000000	65.028214 
4779.000000	65.031290 
4778.000000	65.041875 
4777.000000	65.058517 
4776.000000	65.076780 
4775.000000	65.091276 
4774.000000	65.096497 
4773.000000	65.088725 
4772.000000	65.066576 
4771.000000	65.031623 
4770.000000	64.987611 
4769.000000	64.939379 
4768.000000	64.891767 
4767.000000	64.848613 
4766.000000	64.811873 
4765.000000	64.781618 
4764.000000	64.756894 
4763.000000	64.736795 
4762.000000	64.720940 
4761.000000	64.710354 
4760.000000	64.707016 
4759.000000	64.713811 
4758.000000	64.732718 
4757.000000	64.764881 
4756.000000	64.809560 
4755.000000	64.864706 
4754.000000	64.926576 
4753.000000	64.990949 
4752.000000	65.053749 
4751.000000	65.111327 
4750.000000	65.161395 
4749.000000	65.202069 
4748.000000	65.231728 
4747.000000	65.248322 
4746.000000	65.250253 
4745.000000	65.235924 
4744.000000	65.204811 
4743.000000	65.157818 
4742.000000	65.098047 
4741.000000	65.029978 
4740.000000	64.959239 
4739.000000	64.891481 
4738.000000	64.831614 
4737.000000	64.782643 
4736.000000	64.745545 
4735.000000	64.719080 
4734.000000	64.700913 
4733.000000	64.688014 
4732.000000	64.678215 
4731.000000	64.669775 
4730.000000	64.663004 
4729.000000	64.659428 
4728.000000	64.662384 
4727.000000	64.674854 
4726.000000	64.699745 
4725.000000	64.738798 
4724.000000	64.791893 
4723.000000	64.856839 
4722.000000	64.928698 
4721.000000	65.000867 
4720.000000	65.065526 
4719.000000	65.115118 
4718.000000	65.143823 
4717.000000	65.148878 
4716.000000	65.131378 
4715.000000	65.096139 
4714.000000	65.050578 
4713.000000	65.003013 
4712.000000	64.961171 
4711.000000	64.930176 
4710.000000	64.911460 
4709.000000	64.902400 
4708.000000	64.897775 
4707.000000	64.890980 
4706.000000	64.875555 
4705.000000	64.847278 
4704.000000	64.804816 
4703.000000	64.750719 
4702.000000	64.690136 
4701.000000	64.630556 
4700.000000	64.579343 
4699.000000	64.543414 
4698.000000	64.527535 
4697.000000	64.534235 
4696.000000	64.563083 
4695.000000	64.611339 
4694.000000	64.674520 
4693.000000	64.746570 
4692.000000	64.820480 
4691.000000	64.889287 
4690.000000	64.946699 
4689.000000	64.987921 
4688.000000	65.009880 
4687.000000	65.012311 
4686.000000	64.997673 
4685.000000	64.971089 
4684.000000	64.939069 
4683.000000	64.908671 
4682.000000	64.885902 
4681.000000	64.874768 
4680.000000	64.876580 
4679.000000	64.890003 
4678.000000	64.911532 
4677.000000	64.936757 
4676.000000	64.961528 
4675.000000	64.983129 
4674.000000	65.000414 
4673.000000	65.013813 
4672.000000	65.024518 
4671.000000	65.033435 
4670.000000	65.040755 
4669.000000	65.045499 
4668.000000	65.045857 
4667.000000	65.039539 
4666.000000	65.025019 
4665.000000	65.002560 
4664.000000	64.974141 
4663.000000	64.943695 
4662.000000	64.915728 
4661.000000	64.894318 
4660.000000	64.881896 
4659.000000	64.878845 
4658.000000	64.882993 
4657.000000	64.890384 
4656.000000	64.896678 
4655.000000	64.898204 
4654.000000	64.893054 
4653.000000	64.881372 
4652.000000	64.864635 
4651.000000	64.845681 
4650.000000	64.827036 
4649.000000	64.811182 
4648.000000	64.799523 
4647.000000	64.792990 
4646.000000	64.792323 
4645.000000	64.798355 
4644.000000	64.812469 
4643.000000	64.836049 
4642.000000	64.870023 
4641.000000	64.913964 
4640.000000	64.965605 
4639.000000	65.020895 
4638.000000	65.074133 
4637.000000	65.119695 
4636.000000	65.153098 
4635.000000	65.171933 
4634.000000	65.176606 
4633.000000	65.169692 
4632.000000	65.155410 
4631.000000	65.138196 
4630.000000	65.121912 
4629.000000	65.109157 
4628.000000	65.101051 
4627.000000	65.097880 
4626.000000	65.099358 
4625.000000	65.105199 
4624.000000	65.115237 
4623.000000	65.129184 
4622.000000	65.146660 
4621.000000	65.166974 
4620.000000	65.188980 
4619.000000	65.211176 
4618.000000	65.231919 
4617.000000	65.250015 
4616.000000	65.264487 
4615.000000	65.275168 
4614.000000	65.281915 
4613.000000	65.284776 
4612.000000	65.283060 
4611.000000	65.275406 
4610.000000	65.259909 
4609.000000	65.234875 
4608.000000	65.199685 
4607.000000	65.155363 
4606.000000	65.105009 
4605.000000	65.053677 
4604.000000	65.007185 
4603.000000	64.971113 
4602.000000	64.949393 
4601.000000	64.943289 
4600.000000	64.950776 
4599.000000	64.966893 
4598.000000	64.984703 
4597.000000	64.997148 
4596.000000	64.998316 
4595.000000	64.985132 
4594.000000	64.958143 
4593.000000	64.920997 
4592.000000	64.879465 
4591.000000	64.839363 
4590.000000	64.805054 
4589.000000	64.778399 
4588.000000	64.758253 
4587.000000	64.741659 
4586.000000	64.725279 
4585.000000	64.706826 
4584.000000	64.686250 
4583.000000	64.666128 
4582.000000	64.651107 
4581.000000	64.646291 
4580.000000	64.655375 
4579.000000	64.679622 
4578.000000	64.716911 
4577.000000	64.762330 
4576.000000	64.809012 
4575.000000	64.849853 
4574.000000	64.878940 
4573.000000	64.892911 
4572.000000	64.891290 
4571.000000	64.875745 
4570.000000	64.849805 
4569.000000	64.817476 
4568.000000	64.782857 
4567.000000	64.749360 
4566.000000	64.719653 
4565.000000	64.696264 
4564.000000	64.680957 
4563.000000	64.675641 
4562.000000	64.680790 
4561.000000	64.695882 
4560.000000	64.717960 
4559.000000	64.741945 
4558.000000	64.761447 
4557.000000	64.769649 
4556.000000	64.761352 
4555.000000	64.733934 
4554.000000	64.688825 
4553.000000	64.631485 
4552.000000	64.569783 
4551.000000	64.512062 
4550.000000	64.465212 
4549.000000	64.433145 
4548.000000	64.415955 
4547.000000	64.410686 
4546.000000	64.412307 
4545.000000	64.415764 
4544.000000	64.418125 
4543.000000	64.419031 
4542.000000	64.420628 
4541.000000	64.426064 
4540.000000	64.437723 
4539.000000	64.455723 
4538.000000	64.477181 
4537.000000	64.496469 
4536.000000	64.506316 
4535.000000	64.500164 
4534.000000	64.474511 
4533.000000	64.430308 
4532.000000	64.372897 
4531.000000	64.311695 
4530.000000	64.257407 
4529.000000	64.220976 
4528.000000	64.211058 
4527.000000	64.232397 
4526.000000	64.284658 
4525.000000	64.362525 
4524.000000	64.456772 
4523.000000	64.555311 
4522.000000	64.645457 
4521.000000	64.715623 
4520.000000	64.757537 
4519.000000	64.767360 
4518.000000	64.746475 
4517.000000	64.700222 
4516.000000	64.637613 
4515.000000	64.569687 
4514.000000	64.508080 
4513.000000	64.464044 
4512.000000	64.445376 
4511.000000	64.457559 
4510.000000	64.499688 
4509.000000	64.565253 
4508.000000	64.642143 
4507.000000	64.715361 
4506.000000	64.769935 
4505.000000	64.794611 
4504.000000	64.783644 
4503.000000	64.737749 
4502.000000	64.662957 
4501.000000	64.568686 
4500.000000	64.465117 
4499.000000	64.361000 
4498.000000	64.262795 
4497.000000	64.174461 
4496.000000	64.098691 
4495.000000	64.037919 
4494.000000	63.995337 
4493.000000	63.974690 
4492.000000	63.978838 
4491.000000	64.009046 
4490.000000	64.061665 
4489.000000	64.130353 
4488.000000	64.204978 
4487.000000	64.277195 
4486.000000	64.342331 
4485.000000	64.401078 
4484.000000	64.463019 
4483.000000	64.537453 
4482.000000	64.627194 
4481.000000	64.726948 
4480.000000	64.823961 
4479.000000	64.899730 
4478.000000	64.934158 
4477.000000	64.913463 
4476.000000	64.837193 
4475.000000	64.716124 
4474.000000	64.571094 
4473.000000	64.426136 
4472.000000	64.302086 
4471.000000	64.213728 
4470.000000	64.167690 
4469.000000	64.161276 
4468.000000	64.184927 
4467.000000	64.230632 
4466.000000	64.294219 
4465.000000	64.372563 
4464.000000	64.465475 
4463.000000	64.570093 
4462.000000	64.686226 
4461.000000	64.806461 
4460.000000	64.930891 
4459.000000	65.066599 
4458.000000	65.234899 
4457.000000	65.466356 
4456.000000	65.795278 
4455.000000	66.250443 
4454.000000	66.842198 
4453.000000	67.554259 
4452.000000	68.341541 
4451.000000	69.138050 
4450.000000	69.865179 
4449.000000	70.451736 
4448.000000	70.840668 
4447.000000	71.003746 
4446.000000	70.936512 
4445.000000	70.659780 
4444.000000	70.202374 
4443.000000	69.595432 
4442.000000	68.865060 
4441.000000	68.033051 
4440.000000	67.124032 
4439.000000	66.170001 
4438.000000	65.219020 
4437.000000	64.330339 
4436.000000	63.565635 
4435.000000	62.978315 
4434.000000	62.593674 
4433.000000	62.410879 
4432.000000	62.398886 
4431.000000	62.509799 
4430.000000	62.682533 
4429.000000	62.863469 
4428.000000	63.011097 
4427.000000	63.106775 
4426.000000	63.144469 
4425.000000	63.137269 
4424.000000	63.105225 
4423.000000	63.070607 
4422.000000	63.050222 
4421.000000	63.047432 
4420.000000	63.049364 
4419.000000	63.037300 
4418.000000	62.996840 
4417.000000	62.914371 
4416.000000	62.782430 
4415.000000	62.607717 
4414.000000	62.409973 
4413.000000	62.216186 
4412.000000	62.053632 
4411.000000	61.943030 
4410.000000	61.892199 
4409.000000	61.893081 
4408.000000	61.924433 
4407.000000	61.957049 
4406.000000	61.962532 
4405.000000	61.924886 
4404.000000	61.839795 
4403.000000	61.717581 
4402.000000	61.574292 
4401.000000	61.416864 
4400.000000	61.253213 
4399.000000	61.071491 
4398.000000	60.882234 
4397.000000	60.708260 
4396.000000	60.620856 
4395.000000	60.718607 
4394.000000	61.135292 
4393.000000	62.003111 
4392.000000	63.417983 
4391.000000	65.400147 
4390.000000	67.863965 
4389.000000	70.614194 
4388.000000	73.366546 
4387.000000	75.794768 
4386.000000	77.593255 
4385.000000	78.534984 
4384.000000	78.525233 
4383.000000	77.611374 
4382.000000	75.971889 
4381.000000	73.868608 
4380.000000	71.601748 
4379.000000	69.440937 
4378.000000	67.595410 
4377.000000	66.174983 
4376.000000	65.212798 
4375.000000	64.662194 
4374.000000	64.441299 
4373.000000	64.451384 
4372.000000	64.598941 
4371.000000	64.818000 
4370.000000	65.059709 
4369.000000	65.303921 
4368.000000	65.527987 
4367.000000	65.724706 
4366.000000	65.884590 
4365.000000	66.004085 
4364.000000	66.079998 
4363.000000	66.113758 
4362.000000	66.110992 
4361.000000	66.074728 
4360.000000	66.004991 
4359.000000	65.903449 
4358.000000	65.773844 
4357.000000	65.618705 
4356.000000	65.442156 
4355.000000	65.257573 
4354.000000	65.083026 
4353.000000	64.934754 
4352.000000	64.825510 
4351.000000	64.760828 
4350.000000	64.738893 
4349.000000	64.754796 
4348.000000	64.798712 
4347.000000	64.851260 
4346.000000	64.895081 
4345.000000	64.921998 
4344.000000	64.930820 
4343.000000	64.924001 
4342.000000	64.908933 
4341.000000	64.893770 
4340.000000	64.885616 
4339.000000	64.888119 
4338.000000	64.900088 
4337.000000	64.915919 
4336.000000	64.927792 
4335.000000	64.928412 
4334.000000	64.912128 
4333.000000	64.877057 
4332.000000	64.825820 
4331.000000	64.765238 
4330.000000	64.704751 
4329.000000	64.654183 
4328.000000	64.621257 
4327.000000	64.609503 
4326.000000	64.618778 
4325.000000	64.644145 
4324.000000	64.676618 
4323.000000	64.705395 
4322.000000	64.720606 
4321.000000	64.715409 
4320.000000	64.686489 
4319.000000	64.635801 
4318.000000	64.569807 
4317.000000	64.498090 
4316.000000	64.430594 
4315.000000	64.375877 
4314.000000	64.339184 
4313.000000	64.321327 
4312.000000	64.319181 
4311.000000	64.326500 
4310.000000	64.335775 
4309.000000	64.340043 
4308.000000	64.334893 
4307.000000	64.318823 
4306.000000	64.293694 
4305.000000	64.264202 
4304.000000	64.236593 
4303.000000	64.217185 
4302.000000	64.211177 
4301.000000	64.221715 
4300.000000	64.249634 
4299.000000	64.293408 
4298.000000	64.349699 
4297.000000	64.413404 
4296.000000	64.479136 
4295.000000	64.541554 
4294.000000	64.596867 
4293.000000	64.642643 
4292.000000	64.678812 
4291.000000	64.706993 
4290.000000	64.729905 
4289.000000	64.750790 
4288.000000	64.771628 
4287.000000	64.793157 
4286.000000	64.813566 
4285.000000	64.829254 
4284.000000	64.835286 
4283.000000	64.827299 
4282.000000	64.802098 
4281.000000	64.758968 
4280.000000	64.700198 
4279.000000	64.631128 
4278.000000	64.558982 
4277.000000	64.491772 
4276.000000	64.436244 
4275.000000	64.397048 
4274.000000	64.375734 
4273.000000	64.371180 
4272.000000	64.379930 
4271.000000	64.397597 
4270.000000	64.419579 
4269.000000	64.442491 
4268.000000	64.464282 
4267.000000	64.484477 
4266.000000	64.503359 
4265.000000	64.521503 
4264.000000	64.538431 
4263.000000	64.552807 
4262.000000	64.562559 
4261.000000	64.565253 
4260.000000	64.558935 
4259.000000	64.543247 
4258.000000	64.519858 
4257.000000	64.492249 
4256.000000	64.465188 
4255.000000	64.443492 
4254.000000	64.430975 
4253.000000	64.428949 
4252.000000	64.435911 
4251.000000	64.447736 
4250.000000	64.458942 
4249.000000	64.464020 
4248.000000	64.459681 
4247.000000	64.445424 
4246.000000	64.424562 
4245.000000	64.403390 
4244.000000	64.390087 
4243.000000	64.392185 
4242.000000	64.414715 
4241.000000	64.458799 
4240.000000	64.520978 
4239.000000	64.593863 
4238.000000	64.667701 
4237.000000	64.732575 
4236.000000	64.780282 
4235.000000	64.806246 
4234.000000	64.809632 
4233.000000	64.793181 
4232.000000	64.761686 
4231.000000	64.720582 
4230.000000	64.674472 
4229.000000	64.626216 
4228.000000	64.577221 
4227.000000	64.528131 
4226.000000	64.479684 
4225.000000	64.433622 
4224.000000	64.393115 
4223.000000	64.362239 
4222.000000	64.344906 
4221.000000	64.343762 
4220.000000	64.358854 
4219.000000	64.387679 
4218.000000	64.424943 
4217.000000	64.464259 
4216.000000	64.499592 
4215.000000	64.526963 
4214.000000	64.544939 
4213.000000	64.555025 
4212.000000	64.560437 
4211.000000	64.565134 
4210.000000	64.572238 
4209.000000	64.582753 
4208.000000	64.595055 
4207.000000	64.605545 
4206.000000	64.609885 
4205.000000	64.604187 
4204.000000	64.586400 
4203.000000	64.556598 
4202.000000	64.517474 
4201.000000	64.472794 
4200.000000	64.426612 
4199.000000	64.382410 
4198.000000	64.342832 
4197.000000	64.309144 
4196.000000	64.281749 
4195.000000	64.261102 
4194.000000	64.247727 
4193.000000	64.241886 
4192.000000	64.243412 
4191.000000	64.251160 
4190.000000	64.263224 
4189.000000	64.276480 
4188.000000	64.288210 
4187.000000	64.295864 
4186.000000	64.299297 
4185.000000	64.300942 
4184.000000	64.305710 
4183.000000	64.319539 
4182.000000	64.348077 
4181.000000	64.394712 
4180.000000	64.459395 
4179.000000	64.537715 
4178.000000	64.622569 
4177.000000	64.705538 
4176.000000	64.779090 
4175.000000	64.838433 
4174.000000	64.881825 
4173.000000	64.910602 
4172.000000	64.928436 
4171.000000	64.940047 
4170.000000	64.950013 
4169.000000	64.961647 
4168.000000	64.977359 
4167.000000	64.997816 
4166.000000	65.022516 
4165.000000	65.049290 
4164.000000	65.076017 
4163.000000	65.099692 
4162.000000	65.117430 
4161.000000	65.126371 
4160.000000	65.124416 
4159.000000	65.110278 
4158.000000	65.084028 
4157.000000	65.046691 
4156.000000	65.000557 
4155.000000	64.948558 
4154.000000	64.893841 
4153.000000	64.839482 
4152.000000	64.787960 
4151.000000	64.742040 
4150.000000	64.704728 
4149.000000	64.679408 
4148.000000	64.669275 
4147.000000	64.676833 
4146.000000	64.703011 
4145.000000	64.746069 
4144.000000	64.801645 
4143.000000	64.863491 
4142.000000	64.924883 
4141.000000	64.979362 
4140.000000	65.022349 
4139.000000	65.051841 
4138.000000	65.068888 
4137.000000	65.076398 
4136.000000	65.078592 
4135.000000	65.080237 
4134.000000	65.084958 
4133.000000	65.094923 
4132.000000	65.110087 
4131.000000	65.129470 
4130.000000	65.150499 
4129.000000	65.170574 
4128.000000	65.186929 
4127.000000	65.197539 
4126.000000	65.201401 
4125.000000	65.198445 
4124.000000	65.190029 
4123.000000	65.178251 
4122.000000	65.166330 
4121.000000	65.157985 
4120.000000	65.156435 
4119.000000	65.163755 
4118.000000	65.180277 
4117.000000	65.204596 
4116.000000	65.233755 
4115.000000	65.263628 
4114.000000	65.289902 
4113.000000	65.308547 
4112.000000	65.316605 
4111.000000	65.312290 
4110.000000	65.295124 
4109.000000	65.265679 
4108.000000	65.225791 
4107.000000	65.178012 
4106.000000	65.125131 
4105.000000	65.069937 
4104.000000	65.015268 
4103.000000	64.963769 
4102.000000	64.917707 
4101.000000	64.879274 
4100.000000	64.850258 
4099.000000	64.832139 
4098.000000	64.825820 
4097.000000	64.831590 
4096.000000	64.848732 
4095.000000	64.875531 
4094.000000	64.909195 
4093.000000	64.945960 
4092.000000	64.981508 
4091.000000	65.011787 
4090.000000	65.033769 
4089.000000	65.046191 
4088.000000	65.049624 
4087.000000	65.046858 
4086.000000	65.041804 
4085.000000	65.038704 
4084.000000	65.040397 
4083.000000	65.048027 
4082.000000	65.060043 
4081.000000	65.072989 
4080.000000	65.082168 
4079.000000	65.083074 
4078.000000	65.072917 
4077.000000	65.051412 
4076.000000	65.021586 
4075.000000	64.988636 
4074.000000	64.959239 
4073.000000	64.939546 
4072.000000	64.934134 
4071.000000	64.944744 
4070.000000	64.970207 
4069.000000	65.006589 
4068.000000	65.048742 
4067.000000	65.091347 
4066.000000	65.130138 
4065.000000	65.162682 
4064.000000	65.188431 
4063.000000	65.208220 
4062.000000	65.223908 
4061.000000	65.237307 
4060.000000	65.249729 
4059.000000	65.261387 
4058.000000	65.272116 
4057.000000	65.280818 
4056.000000	65.286779 
4055.000000	65.288805 
4054.000000	65.285825 
4053.000000	65.276527 
4052.000000	65.260148 
4051.000000	65.236139 
4050.000000	65.204596 
4049.000000	65.166783 
4048.000000	65.125226 
4047.000000	65.083765 
4046.000000	65.046763 
4045.000000	65.018582 
4044.000000	65.002560 
4043.000000	65.000557 
4042.000000	65.012168 
4041.000000	65.035080 
4040.000000	65.065312 
4039.000000	65.098047 
4038.000000	65.128493 
4037.000000	65.152525 
4036.000000	65.167236 
4035.000000	65.171360 
4034.000000	65.165185 
4033.000000	65.149998 
4032.000000	65.128135 
4031.000000	65.102720 
4030.000000	65.077471 
4029.000000	65.056467 
4028.000000	65.043544 
4027.000000	65.042090 
4026.000000	65.054297 
4025.000000	65.080499 
4024.000000	65.119194 
4023.000000	65.167093 
4022.000000	65.219521 
4021.000000	65.270924 
4020.000000	65.316152 
4019.000000	65.350961 
4018.000000	65.372967 
4017.000000	65.381932 
4016.000000	65.379714 
4015.000000	65.369629 
4014.000000	65.355825 
4013.000000	65.342187 
4012.000000	65.331673 
4011.000000	65.325736 
4010.000000	65.324139 
4009.000000	65.325355 
4008.000000	65.327000 
4007.000000	65.326809 
4006.000000	65.323042 
4005.000000	65.314817 
4004.000000	65.302634 
4003.000000	65.288019 
4002.000000	65.272831 
4001.000000	65.258884 
4000.000000	65.247154 
3999.000000	65.237617 
3998.000000	65.229535 
3997.000000	65.221452 
3996.000000	65.212178 
3995.000000	65.200901 
3994.000000	65.187811 
3993.000000	65.173721 
3992.000000	65.160179 
3991.000000	65.148425 
3990.000000	65.139031 
3989.000000	65.131545 
3988.000000	65.124607 
3987.000000	65.116214 
3986.000000	65.104365 
3985.000000	65.087485 
3984.000000	65.065050 
3983.000000	65.037775 
3982.000000	65.007424 
3981.000000	64.976310 
3980.000000	64.946866 
3979.000000	64.920854 
3978.000000	64.899468 
3977.000000	64.882922 
3976.000000	64.871096 
3975.000000	64.863491 
3974.000000	64.860129 
3973.000000	64.861369 
3972.000000	64.868116 
3971.000000	64.880919 
3970.000000	64.899849 
3969.000000	64.923906 
3968.000000	64.950752 
3967.000000	64.976859 
3966.000000	64.998483 
3965.000000	65.012574 
3964.000000	65.017700 
3963.000000	65.014624 
3962.000000	65.006327 
3961.000000	64.997076 
3960.000000	64.991545 
3959.000000	64.993715 
3958.000000	65.005111 
3957.000000	65.024447 
3956.000000	65.048336 
3955.000000	65.071964 
3954.000000	65.090584 
3953.000000	65.100598 
3952.000000	65.101051 
3951.000000	65.093541 
3950.000000	65.081524 
3949.000000	65.069079 
3948.000000	65.059709 
3947.000000	65.054821 
3946.000000	65.053439 
3945.000000	65.052103 
3944.000000	65.046477 
3943.000000	65.031981 
3942.000000	65.005707 
3941.000000	64.967179 
3940.000000	64.918732 
3939.000000	64.865183 
3938.000000	64.812684 
3937.000000	64.767956 
3936.000000	64.736318 
3935.000000	64.721918 
3934.000000	64.726710 
3933.000000	64.750909 
3932.000000	64.792919 
3931.000000	64.849948 
3930.000000	64.918422 
3929.000000	64.993977 
3928.000000	65.071821 
3927.000000	65.146899 
3926.000000	65.214157 
3925.000000	65.269136 
3924.000000	65.308427 
3923.000000	65.330290 
3922.000000	65.334653 
3921.000000	65.323567 
3920.000000	65.300345 
3919.000000	65.269446 
3918.000000	65.235519 
3917.000000	65.202951 
3916.000000	65.175390 
3915.000000	65.155529 
3914.000000	65.145111 
3913.000000	65.145063 
3912.000000	65.155267 
3911.000000	65.174746 
3910.000000	65.201377 
3909.000000	65.232181 
3908.000000	65.263366 
3907.000000	65.290594 
3906.000000	65.310025 
3905.000000	65.318751 
3904.000000	65.315508 
3903.000000	65.300631 
3902.000000	65.276455 
3901.000000	65.246510 
3900.000000	65.215206 
3899.000000	65.186524 
3898.000000	65.163230 
3897.000000	65.146255 
3896.000000	65.134954 
3895.000000	65.127229 
3894.000000	65.120196 
3893.000000	65.111136 
3892.000000	65.098237 
3891.000000	65.081167 
3890.000000	65.060997 
3889.000000	65.039873 
3888.000000	65.020084 
3887.000000	65.003800 
3886.000000	64.992284 
3885.000000	64.985895 
3884.000000	64.983654 
3883.000000	64.984250 
3882.000000	64.986300 
3881.000000	64.989614 
3880.000000	64.995312 
3879.000000	65.005469 
3878.000000	65.022397 
3877.000000	65.047693 
3876.000000	65.081334 
3875.000000	65.121078 
3874.000000	65.162634 
3873.000000	65.200614 
3872.000000	65.229511 
3871.000000	65.245509 
3870.000000	65.246987 
3869.000000	65.234899 
3868.000000	65.212273 
3867.000000	65.183758 
3866.000000	65.154600 
3865.000000	65.129232 
3864.000000	65.111184 
3863.000000	65.102481 
3862.000000	65.104079 
3861.000000	65.116381 
3860.000000	65.138721 
3859.000000	65.169930 
3858.000000	65.207409 
3857.000000	65.247249 
3856.000000	65.284371 
3855.000000	65.312623 
3854.000000	65.326786 
3853.000000	65.323567 
3852.000000	65.302944 
3851.000000	65.268373 
3850.000000	65.226197 
3849.000000	65.184211 
3848.000000	65.149998 
3847.000000	65.129113 
3846.000000	65.124320 
3845.000000	65.135407 
3844.000000	65.159678 
3843.000000	65.192842 
3842.000000	65.230345 
3841.000000	65.267825 
3840.000000	65.302014 
3839.000000	65.330410 
3838.000000	65.351033 
3837.000000	65.362024 
3836.000000	65.361881 
3835.000000	65.349102 
3834.000000	65.322899 
3833.000000	65.283155 
3832.000000	65.231776 
3831.000000	65.171718 
3830.000000	65.107250 
3829.000000	65.043044 
3828.000000	64.983296 
3827.000000	64.931893 
3826.000000	64.891910 
3825.000000	64.865469 
3824.000000	64.853310 
3823.000000	64.855194 
3822.000000	64.869832 
3821.000000	64.894604 
3820.000000	64.925956 
3819.000000	64.959716 
3818.000000	64.991998 
3817.000000	65.019488 
3816.000000	65.040445 
3815.000000	65.054726 
3814.000000	65.064358 
3813.000000	65.072607 
3812.000000	65.083527 
3811.000000	65.101027 
3810.000000	65.127396 
3809.000000	65.163135 
3808.000000	65.205979 
3807.000000	65.251779 
3806.000000	65.294528 
3805.000000	65.328526 
3804.000000	65.348219 
3803.000000	65.349698 
3802.000000	65.331244 
3801.000000	65.294075 
3800.000000	65.241503 
3799.000000	65.178275 
3798.000000	65.109992 
3797.000000	65.042471 
3796.000000	64.980340 
3795.000000	64.926433 
3794.000000	64.881777 
3793.000000	64.845824 
3792.000000	64.816808 
3791.000000	64.792776 
3790.000000	64.771699 
3789.000000	64.752602 
3788.000000	64.735436 
3787.000000	64.721465 
3786.000000	64.712166 
3785.000000	64.709186 
3784.000000	64.713191 
3783.000000	64.724493 
3782.000000	64.741754 
3781.000000	64.763832 
3780.000000	64.789295 
3779.000000	64.817905 
3778.000000	64.850044 
3777.000000	64.887189 
3776.000000	64.931035 
3775.000000	64.982938 
3774.000000	65.042853 
3773.000000	65.109181 
3772.000000	65.178871 
3771.000000	65.247321 
3770.000000	65.309429 
3769.000000	65.359902 
3768.000000	65.394186 
3767.000000	65.409326 
3766.000000	65.404701 
3765.000000	65.381622 
3764.000000	65.343546 
3763.000000	65.295982 
3762.000000	65.245795 
3761.000000	65.200567 
3760.000000	65.167260 
3759.000000	65.151667 
3758.000000	65.156865 
3757.000000	65.182709 
3756.000000	65.225648 
3755.000000	65.279269 
3754.000000	65.335559 
3753.000000	65.386533 
3752.000000	65.425586 
3751.000000	65.448641 
3750.000000	65.454435 
3749.000000	65.444159 
3748.000000	65.420627 
3747.000000	65.387392 
3746.000000	65.348052 
3745.000000	65.305995 
3744.000000	65.264177 
3743.000000	65.225362 
3742.000000	65.192270 
3741.000000	65.167689 
3740.000000	65.153455 
3739.000000	65.150260 
3738.000000	65.157055 
3737.000000	65.171170 
3736.000000	65.188002 
3735.000000	65.202307 
3734.000000	65.209221 
3733.000000	65.205979 
3732.000000	65.192365 
3731.000000	65.171217 
3730.000000	65.147233 
3729.000000	65.126204 
3728.000000	65.113210 
3727.000000	65.111565 
3726.000000	65.122103 
3725.000000	65.143418 
3724.000000	65.172338 
3723.000000	65.205216 
3722.000000	65.238833 
3721.000000	65.271091 
3720.000000	65.301060 
3719.000000	65.329074 
3718.000000	65.355682 
3717.000000	65.380954 
3716.000000	65.403819 
3715.000000	65.421795 
3714.000000	65.431547 
3713.000000	65.429902 
3712.000000	65.414881 
3711.000000	65.386605 
3710.000000	65.347599 
3709.000000	65.302872 
3708.000000	65.258860 
3707.000000	65.221905 
3706.000000	65.196776 
3705.000000	65.185713 
3704.000000	65.188050 
3703.000000	65.200304 
3702.000000	65.217542 
3701.000000	65.234351 
3700.000000	65.246677 
3699.000000	65.252637 
3698.000000	65.252923 
3697.000000	65.249872 
3696.000000	65.246891 
3695.000000	65.246868 
3694.000000	65.251159 
3693.000000	65.258955 
3692.000000	65.267539 
3691.000000	65.273261 
3690.000000	65.272593 
3689.000000	65.263223 
3688.000000	65.245151 
3687.000000	65.220880 
3686.000000	65.194916 
3685.000000	65.172791 
3684.000000	65.159869 
3683.000000	65.160107 
3682.000000	65.175366 
3681.000000	65.204954 
3680.000000	65.245985 
3679.000000	65.293574 
3678.000000	65.342164 
3677.000000	65.385913 
3676.000000	65.419936 
3675.000000	65.440702 
3674.000000	65.446305 
3673.000000	65.436649 
3672.000000	65.413427 
3671.000000	65.379738 
3670.000000	65.339946 
3669.000000	65.298724 
3668.000000	65.261030 
3667.000000	65.230679 
3666.000000	65.210390 
3665.000000	65.200662 
3664.000000	65.200090 
3663.000000	65.205812 
3662.000000	65.214252 
3661.000000	65.222239 
3660.000000	65.227961 
3659.000000	65.231537 
3658.000000	65.234851 
3657.000000	65.241074 
3656.000000	65.253543 
3655.000000	65.274286 
3654.000000	65.302777 
3653.000000	65.335512 
3652.000000	65.366339 
3651.000000	65.387868 
3650.000000	65.393066 
3649.000000	65.377402 
3648.000000	65.340018 
3647.000000	65.284061 
3646.000000	65.216135 
3645.000000	65.144801 
3644.000000	65.078830 
3643.000000	65.025091 
3642.000000	64.987874 
3641.000000	64.968490 
3640.000000	64.965867 
3639.000000	64.977335 
3638.000000	64.999890 
3637.000000	65.030598 
3636.000000	65.066957 
3635.000000	65.106463 
3634.000000	65.146231 
3633.000000	65.182805 
3632.000000	65.212178 
3631.000000	65.230417 
3630.000000	65.234875 
3629.000000	65.224885 
3628.000000	65.202760 
3627.000000	65.173101 
3626.000000	65.141916 
3625.000000	65.115022 
3624.000000	65.096926 
3623.000000	65.089726 
3622.000000	65.092754 
3621.000000	65.103173 
3620.000000	65.117335 
3619.000000	65.131545 
3618.000000	65.143299 
3617.000000	65.151119 
3616.000000	65.155029 
3615.000000	65.155363 
3614.000000	65.152215 
3613.000000	65.144991 
3612.000000	65.132284 
3611.000000	65.112519 
3610.000000	65.084457 
3609.000000	65.048146 
3608.000000	65.005612 
3607.000000	64.960455 
3606.000000	64.917445 
3605.000000	64.881205 
3604.000000	64.855313 
3603.000000	64.841866 
3602.000000	64.841437 
3601.000000	64.852786 
3600.000000	64.874053 
3599.000000	64.903020 
3598.000000	64.938187 
3597.000000	64.978313 
3596.000000	65.022850 
3595.000000	65.071082 
3594.000000	65.121698 
3593.000000	65.172600 
3592.000000	65.220403 
3591.000000	65.260696 
3590.000000	65.288567 
3589.000000	65.300226 
3588.000000	65.293145 
3587.000000	65.267443 
3586.000000	65.225601 
3585.000000	65.172672 
3584.000000	65.114903 
3583.000000	65.058922 
3582.000000	65.010404 
3581.000000	64.973068 
3580.000000	64.948153 
3579.000000	64.934587 
3578.000000	64.929366 
3577.000000	64.928698 
3576.000000	64.928913 
3575.000000	64.927530 
3574.000000	64.923286 
3573.000000	64.916658 
3572.000000	64.909100 
3571.000000	64.902853 
3570.000000	64.899873 
3569.000000	64.901781 
3568.000000	64.909553 
3567.000000	64.923763 
3566.000000	64.944267 
3565.000000	64.970445 
3564.000000	65.001487 
3563.000000	65.036153 
3562.000000	65.072631 
3561.000000	65.108633 
3560.000000	65.141606 
3559.000000	65.168833 
3558.000000	65.188050 
3557.000000	65.197324 
3556.000000	65.195775 
3555.000000	65.183544 
3554.000000	65.162134 
3553.000000	65.133547 
3552.000000	65.100336 
3551.000000	65.065073 
3550.000000	65.030193 
3549.000000	64.997529 
3548.000000	64.968276 
3547.000000	64.943051 
3546.000000	64.921998 
3545.000000	64.905261 
3544.000000	64.892911 
3543.000000	64.884686 
3542.000000	64.880228 
3541.000000	64.879012 
3540.000000	64.880514 
3539.000000	64.883613 
3538.000000	64.887213 
3537.000000	64.890098 
3536.000000	64.891481 
3535.000000	64.890789 
3534.000000	64.888334 
3533.000000	64.885139 
3532.000000	64.882874 
3531.000000	64.883470 
3530.000000	64.888787 
3529.000000	64.900016 
3528.000000	64.917421 
3527.000000	64.940071 
3526.000000	64.965915 
3525.000000	64.992141 
3524.000000	65.015697 
3523.000000	65.033555 
3522.000000	65.043258 
3521.000000	65.042877 
3520.000000	65.031528 
3519.000000	65.009045 
3518.000000	64.976072 
3517.000000	64.933800 
3516.000000	64.884209 
3515.000000	64.829802 
3514.000000	64.773058 
3513.000000	64.716815 
3512.000000	64.664125 
3511.000000	64.618206 
3510.000000	64.581918 
3509.000000	64.557862 
3508.000000	64.547634 
3507.000000	64.551782 
3506.000000	64.569282 
3505.000000	64.597702 
3504.000000	64.633107 
3503.000000	64.671063 
3502.000000	64.706897 
3501.000000	64.736843 
3500.000000	64.758300 
3499.000000	64.770102 
3498.000000	64.772295 
3497.000000	64.765810 
3496.000000	64.752101 
3495.000000	64.732480 
3494.000000	64.708209 
3493.000000	64.680504 
3492.000000	64.651060 
3491.000000	64.622473 
3490.000000	64.598274 
3489.000000	64.582991 
3488.000000	64.580965 
3487.000000	64.595317 
3486.000000	64.626836 
3485.000000	64.673280 
3484.000000	64.729714 
3483.000000	64.788746 
3482.000000	64.842700 
3481.000000	64.884757 
3480.000000	64.910960 
3479.000000	64.920616 
3478.000000	64.916992 
3477.000000	64.905929 
3476.000000	64.894652 
3475.000000	64.890027 
3474.000000	64.896798 
3473.000000	64.916729 
3472.000000	64.948105 
3471.000000	64.986729 
3470.000000	65.026760 
3469.000000	65.062284 
3468.000000	65.088891 
3467.000000	65.104603 
3466.000000	65.109968 
3465.000000	65.107822 
3464.000000	65.102505 
3463.000000	65.098452 
3462.000000	65.099453 
3461.000000	65.107464 
3460.000000	65.122628 
3459.000000	65.142726 
3458.000000	65.164494 
3457.000000	65.183615 
3456.000000	65.196394 
3455.000000	65.199899 
3454.000000	65.192604 
3453.000000	65.174531 
3452.000000	65.147280 
3451.000000	65.113615 
3450.000000	65.076541 
3449.000000	65.039467 
3448.000000	65.005707 
3447.000000	64.977836 
3446.000000	64.957571 
3445.000000	64.945483 
3444.000000	64.940905 
3443.000000	64.942193 
3442.000000	64.947056 
3441.000000	64.952850 
3440.000000	64.957380 
3439.000000	64.959144 
3438.000000	64.957404 
3437.000000	64.952397 
3436.000000	64.945125 
3435.000000	64.936661 
3434.000000	64.927840 
3433.000000	64.918899 
3432.000000	64.909338 
3431.000000	64.898395 
3430.000000	64.885044 
3429.000000	64.868807 
3428.000000	64.849925 
3427.000000	64.829564 
3426.000000	64.809632 
3425.000000	64.792275 
3424.000000	64.779543 
3423.000000	64.772462 
3422.000000	64.771318 
3421.000000	64.775300 
3420.000000	64.783024 
3419.000000	64.792919 
3418.000000	64.803457 
3417.000000	64.813399 
3416.000000	64.822173 
3415.000000	64.829802 
3414.000000	64.836406 
3413.000000	64.842057 
3412.000000	64.846873 
3411.000000	64.850902 
3410.000000	64.854121 
3409.000000	64.856481 
3408.000000	64.858198 
3407.000000	64.859652 
3406.000000	64.861416 
3405.000000	64.864182 
3404.000000	64.868164 
3403.000000	64.873337 
3402.000000	64.879155 
3401.000000	64.884781 
3400.000000	64.889121 
3399.000000	64.890837 
3398.000000	64.888548 
3397.000000	64.881157 
3396.000000	64.868116 
3395.000000	64.849591 
3394.000000	64.826607 
3393.000000	64.801311 
3392.000000	64.776515 
3391.000000	64.755511 
3390.000000	64.741444 
3389.000000	64.736843 
3388.000000	64.743185 
3387.000000	64.760756 
3386.000000	64.788484 
3385.000000	64.824128 
3384.000000	64.864253 
3383.000000	64.904904 
3382.000000	64.941906 
3381.000000	64.971232 
3380.000000	64.989590 
3379.000000	64.994883 
3378.000000	64.986443 
3377.000000	64.965295 
3376.000000	64.934062 
3375.000000	64.896631 
3374.000000	64.857602 
3373.000000	64.821720 
3372.000000	64.793181 
3371.000000	64.774894 
3370.000000	64.768266 
3369.000000	64.773201 
3368.000000	64.788031 
3367.000000	64.809894 
3366.000000	64.835453 
3365.000000	64.861345 
3364.000000	64.884567 
3363.000000	64.902687 
3362.000000	64.914035 
3361.000000	64.917659 
3360.000000	64.912986 
3359.000000	64.899897 
3358.000000	64.878678 
3357.000000	64.850211 
3356.000000	64.816403 
3355.000000	64.779758 
3354.000000	64.743518 
3353.000000	64.710950 
3352.000000	64.685082 
3351.000000	64.667963 
3350.000000	64.659881 
3349.000000	64.659905 
3348.000000	64.665818 
3347.000000	64.675116 
3346.000000	64.685440 
3345.000000	64.695572 
3344.000000	64.705252 
3343.000000	64.715671 
3342.000000	64.728498 
3341.000000	64.745593 
3340.000000	64.767885 
3339.000000	64.795231 
3338.000000	64.826059 
3337.000000	64.857816 
3336.000000	64.887499 
3335.000000	64.912247 
3334.000000	64.929938 
3333.000000	64.939689 
3332.000000	64.941525 
3331.000000	64.936184 
3330.000000	64.924573 
3329.000000	64.907431 
3328.000000	64.885020 
3327.000000	64.857530 
3326.000000	64.825344 
3325.000000	64.789319 
3324.000000	64.751410 
3323.000000	64.714694 
3322.000000	64.683151 
3321.000000	64.660668 
3320.000000	64.650487 
3319.000000	64.654088 
3318.000000	64.670920 
3317.000000	64.698290 
3316.000000	64.732003 
3315.000000	64.766740 
3314.000000	64.797687 
3313.000000	64.821290 
3312.000000	64.835953 
3311.000000	64.841961 
3310.000000	64.841246 
3309.000000	64.836454 
3308.000000	64.830279 
3307.000000	64.824533 
3306.000000	64.819884 
3305.000000	64.815926 
3304.000000	64.811682 
3303.000000	64.806079 
3302.000000	64.798736 
3301.000000	64.790225 
3300.000000	64.782118 
3299.000000	64.776682 
3298.000000	64.776110 
3297.000000	64.781808 
3296.000000	64.793896 
3295.000000	64.810919 
3294.000000	64.829897 
3293.000000	64.846968 
3292.000000	64.858174 
3291.000000	64.860463 
3290.000000	64.852356 
3289.000000	64.834523 
3288.000000	64.809656 
3287.000000	64.782142 
3286.000000	64.757132 
3285.000000	64.739584 
3284.000000	64.733076 
3283.000000	64.739203 
3282.000000	64.757537 
3281.000000	64.785361 
3280.000000	64.818787 
3279.000000	64.853334 
3278.000000	64.885163 
3277.000000	64.911556 
3276.000000	64.931440 
3275.000000	64.945101 
3274.000000	64.953756 
3273.000000	64.958882 
3272.000000	64.961266 
3271.000000	64.961147 
3270.000000	64.957785 
3269.000000	64.949965 
3268.000000	64.936423 
3267.000000	64.916706 
3266.000000	64.891362 
3265.000000	64.862465 
3264.000000	64.832878 
3263.000000	64.805674 
3262.000000	64.783406 
3261.000000	64.767360 
3260.000000	64.757490 
3259.000000	64.752459 
3258.000000	64.750027 
3257.000000	64.748001 
3256.000000	64.744687 
3255.000000	64.739632 
3254.000000	64.733576 
3253.000000	64.728283 
3252.000000	64.725661 
3251.000000	64.727044 
3250.000000	64.732623 
3249.000000	64.741015 
3248.000000	64.749479 
3247.000000	64.754509 
3246.000000	64.752388 
3245.000000	64.740538 
3244.000000	64.718174 
3243.000000	64.686870 
3242.000000	64.650154 
3241.000000	64.613342 
3240.000000	64.582228 
3239.000000	64.562296 
3238.000000	64.557266 
3237.000000	64.568448 
3236.000000	64.594292 
3235.000000	64.630866 
3234.000000	64.672541 
3233.000000	64.713263 
3232.000000	64.747691 
3231.000000	64.772462 
3230.000000	64.786720 
3229.000000	64.791965 
3228.000000	64.791369 
3227.000000	64.789009 
3226.000000	64.788627 
3225.000000	64.792752 
3224.000000	64.802026 
3223.000000	64.815449 
3222.000000	64.830374 
3221.000000	64.843606 
3220.000000	64.852046 
3219.000000	64.853549 
3218.000000	64.847326 
3217.000000	64.833855 
3216.000000	64.814400 
3215.000000	64.791035 
3214.000000	64.765572 
3213.000000	64.739513 
3212.000000	64.713764 
3211.000000	64.688801 
3210.000000	64.664936 
3209.000000	64.642643 
3208.000000	64.622974 
3207.000000	64.607214 
3206.000000	64.597344 
3205.000000	64.595293 
3204.000000	64.602637 
3203.000000	64.619660 
3202.000000	64.645171 
3201.000000	64.676547 
3200.000000	64.709711 
3199.000000	64.740109 
3198.000000	64.763474 
3197.000000	64.777016 
3196.000000	64.779925 
3195.000000	64.773702 
3194.000000	64.761710 
3193.000000	64.748406 
3192.000000	64.738678 
3191.000000	64.736247 
3190.000000	64.743208 
3189.000000	64.759111 
3188.000000	64.781999 
3187.000000	64.808082 
3186.000000	64.833092 
3185.000000	64.852809 
3184.000000	64.864182 
3183.000000	64.865350 
3182.000000	64.855647 
3181.000000	64.835786 
3180.000000	64.807343 
3179.000000	64.772748 
3178.000000	64.734911 
3177.000000	64.697146 
3176.000000	64.662933 
3175.000000	64.635443 
3174.000000	64.617228 
3173.000000	64.609622 
3172.000000	64.612722 
3171.000000	64.625263 
3170.000000	64.645123 
3169.000000	64.669322 
3168.000000	64.695143 
3167.000000	64.720439 
3166.000000	64.744305 
3165.000000	64.766860 
3164.000000	64.789152 
3163.000000	64.812493 
3162.000000	64.837980 
3161.000000	64.866018 
3160.000000	64.895915 
3159.000000	64.926123 
3158.000000	64.954161 
3157.000000	64.977693 
3156.000000	64.994454 
3155.000000	65.003037 
3154.000000	65.002679 
3153.000000	64.993691 
3152.000000	64.976906 
3151.000000	64.953756 
3150.000000	64.925837 
3149.000000	64.894819 
3148.000000	64.862060 
3147.000000	64.828801 
3146.000000	64.796161 
3145.000000	64.765429 
3144.000000	64.738154 
3143.000000	64.716362 
3142.000000	64.702105 
3141.000000	64.697432 
3140.000000	64.703893 
3139.000000	64.722299 
3138.000000	64.752006 
3137.000000	64.791107 
3136.000000	64.836168 
3135.000000	64.883255 
3134.000000	64.927887 
3133.000000	64.966320 
3132.000000	64.995932 
3131.000000	65.015673 
3130.000000	65.026187 
3129.000000	65.029311 
3128.000000	65.027642 
3127.000000	65.023636 
3126.000000	65.019202 
3125.000000	65.015244 
3124.000000	65.012121 
3123.000000	65.009379 
3122.000000	65.006327 
3121.000000	65.002059 
3120.000000	64.995670 
3119.000000	64.986395 
3118.000000	64.973783 
3117.000000	64.957451 
3116.000000	64.937448 
3115.000000	64.914345 
3114.000000	64.889430 
3113.000000	64.864659 
3112.000000	64.842796 
3111.000000	64.826631 
3110.000000	64.818882 
3109.000000	64.821529 
3108.000000	64.835309 
3107.000000	64.859175 
3106.000000	64.890623 
3105.000000	64.926123 
3104.000000	64.961290 
3103.000000	64.991760 
3102.000000	65.013504 
3101.000000	65.023708 
3100.000000	65.020847 
3099.000000	65.004825 
3098.000000	64.977002 
3097.000000	64.940285 
3096.000000	64.898562 
3095.000000	64.856338 
3094.000000	64.818167 
3093.000000	64.787888 
3092.000000	64.767956 
3091.000000	64.759278 
3090.000000	64.760780 
3089.000000	64.769649 
3088.000000	64.781904 
3087.000000	64.793324 
3086.000000	64.800071 
3085.000000	64.799690 
3084.000000	64.791464 
3083.000000	64.776492 
3082.000000	64.757084 
3081.000000	64.736437 
3080.000000	64.717555 
3079.000000	64.702868 
3078.000000	64.693641 
3077.000000	64.690160 
3076.000000	64.691710 
3075.000000	64.697170 
3074.000000	64.705300 
3073.000000	64.715194 
3072.000000	64.725971 
3071.000000	64.737343 
3070.000000	64.749121 
3069.000000	64.761137 
3068.000000	64.772963 
3067.000000	64.784026 
3066.000000	64.793682 
3065.000000	64.801430 
3064.000000	64.807081 
3063.000000	64.810681 
3062.000000	64.812588 
3061.000000	64.813446 
3060.000000	64.813995 
3059.000000	64.814710 
3058.000000	64.816021 
3057.000000	64.818000 
3056.000000	64.820623 
3055.000000	64.823627 
3054.000000	64.826846 
3053.000000	64.830279 
3052.000000	64.833903 
3051.000000	64.837551 
3050.000000	64.840936 
3049.000000	64.843750 
3048.000000	64.845347 
3047.000000	64.844942 
3046.000000	64.841723 
3045.000000	64.835166 
3044.000000	64.825081 
3043.000000	64.811658 
3042.000000	64.795517 
3041.000000	64.777469 
3040.000000	64.758419 
3039.000000	64.739203 
3038.000000	64.720177 
3037.000000	64.701533 
3036.000000	64.683270 
3035.000000	64.665484 
3034.000000	64.648556 
3033.000000	64.633369 
3032.000000	64.621162 
3031.000000	64.613723 
3030.000000	64.612889 
3029.000000	64.620304 
3028.000000	64.637255 
3027.000000	64.664196 
3026.000000	64.700317 
3025.000000	64.743709 
3024.000000	64.791488 
3023.000000	64.839959 
3022.000000	64.885163 
3021.000000	64.923381 
3020.000000	64.951825 
3019.000000	64.968872 
3018.000000	64.974617 
3017.000000	64.970159 
3016.000000	64.957642 
3015.000000	64.939355 
3014.000000	64.917659 
3013.000000	64.894247 
3012.000000	64.870262 
3011.000000	64.846444 
3010.000000	64.823484 
3009.000000	64.802336 
3008.000000	64.784502 
3007.000000	64.771795 
3006.000000	64.766073 
3005.000000	64.768505 
3004.000000	64.778995 
3003.000000	64.795637 
3002.000000	64.814972 
3001.000000	64.832448 
3000.000000	64.843535 
2999.000000	64.844417 
2998.000000	64.833521 
2997.000000	64.811706 
2996.000000	64.782404 
2995.000000	64.750576 
2994.000000	64.722037 
2993.000000	64.701938 
2992.000000	64.693737 
2991.000000	64.698171 
2990.000000	64.713382 
2989.000000	64.735555 
2988.000000	64.759802 
2987.000000	64.781427 
2986.000000	64.796757 
2985.000000	64.804100 
2984.000000	64.803624 
2983.000000	64.797043 
2982.000000	64.786911 
2981.000000	64.775633 
2980.000000	64.765119 
2979.000000	64.756155 
2978.000000	64.748477 
2977.000000	64.741063 
2976.000000	64.732742 
2975.000000	64.722609 
2974.000000	64.710426 
2973.000000	64.696431 
2972.000000	64.681410 
2971.000000	64.666485 
2970.000000	64.652538 
2969.000000	64.640188 
2968.000000	64.629626 
2967.000000	64.620590 
2966.000000	64.612674 
2965.000000	64.605116 
2964.000000	64.597630 
2963.000000	64.589738 
2962.000000	64.581084 
2961.000000	64.571213 
2960.000000	64.559793 
2959.000000	64.546704 
2958.000000	64.532208 
2957.000000	64.517021 
2956.000000	64.502286 
2955.000000	64.489626 
2954.000000	64.480996 
2953.000000	64.477920 
2952.000000	64.481282 
2951.000000	64.491534 
2950.000000	64.508247 
2949.000000	64.530038 
2948.000000	64.555120 
2947.000000	64.581108 
2946.000000	64.605569 
2945.000000	64.626383 
2944.000000	64.642357 
2943.000000	64.652991 
2942.000000	64.658856 
2941.000000	64.661526 
2940.000000	64.662837 
2939.000000	64.664506 
2938.000000	64.667606 
2937.000000	64.672517 
2936.000000	64.678382 
2935.000000	64.683747 
2934.000000	64.686584 
2933.000000	64.685297 
2932.000000	64.678668 
2931.000000	64.666557 
2930.000000	64.649558 
2929.000000	64.629125 
2928.000000	64.606904 
2927.000000	64.584398 
2926.000000	64.562654 
2925.000000	64.542078 
2924.000000	64.523029 
2923.000000	64.505648 
2922.000000	64.490365 
2921.000000	64.477801 
2920.000000	64.468574 
2919.000000	64.463376 
2918.000000	64.462256 
2917.000000	64.464950 
2916.000000	64.470791 
2915.000000	64.478826 
2914.000000	64.488077 
2913.000000	64.497804 
2912.000000	64.507460 
2911.000000	64.516854 
2910.000000	64.525794 
2909.000000	64.534354 
2908.000000	64.542770 
2907.000000	64.551067 
2906.000000	64.559197 
2905.000000	64.566659 
2904.000000	64.572858 
2903.000000	64.576959 
2902.000000	64.578199 
2901.000000	64.575815 
2900.000000	64.569282 
2899.000000	64.558553 
2898.000000	64.544320 
2897.000000	64.527654 
2896.000000	64.510011 
2895.000000	64.493227 
2894.000000	64.479303 
2893.000000	64.469909 
2892.000000	64.466667 
2891.000000	64.470529 
2890.000000	64.481806 
2889.000000	64.500379 
2888.000000	64.525175 
2887.000000	64.554500 
2886.000000	64.585685 
2885.000000	64.615392 
2884.000000	64.639687 
2883.000000	64.654731 
2882.000000	64.657425 
2881.000000	64.645981 
2880.000000	64.620757 
2879.000000	64.584350 
2878.000000	64.541506 
2877.000000	64.498209 
2876.000000	64.461231 
2875.000000	64.436769 
2874.000000	64.429283 
2873.000000	64.440703 
2872.000000	64.470314 
2871.000000	64.514780 
2870.000000	64.568710 
2869.000000	64.625287 
2868.000000	64.677643 
2867.000000	64.719510 
2866.000000	64.746165 
2865.000000	64.754772 
2864.000000	64.744448 
2863.000000	64.716672 
2862.000000	64.674639 
2861.000000	64.622998 
2860.000000	64.567279 
2859.000000	64.512991 
2858.000000	64.465117 
2857.000000	64.427328 
2856.000000	64.401674 
2855.000000	64.388680 
2854.000000	64.387536 
2853.000000	64.396691 
2852.000000	64.414119 
2851.000000	64.438343 
2850.000000	64.468789 
2849.000000	64.505648 
2848.000000	64.549350 
2847.000000	64.600396 
2846.000000	64.658641 
2845.000000	64.722752 
2844.000000	64.789962 
2843.000000	64.856171 
2842.000000	64.916348 
2841.000000	64.965558 
2840.000000	64.999485 
2839.000000	65.015459 
2838.000000	65.012717 
2837.000000	64.992713 
2836.000000	64.958357 
2835.000000	64.914107 
2834.000000	64.864897 
2833.000000	64.815759 
2832.000000	64.771151 
2831.000000	64.734864 
2830.000000	64.709496 
2829.000000	64.696812 
2828.000000	64.697051 
2827.000000	64.708971 
2826.000000	64.729952 
2825.000000	64.756274 
2824.000000	64.783525 
2823.000000	64.807367 
2822.000000	64.824104 
2821.000000	64.831304 
2820.000000	64.828038 
2819.000000	64.814996 
2818.000000	64.794111 
2817.000000	64.768218 
2816.000000	64.740753 
2815.000000	64.714956 
2814.000000	64.693546 
2813.000000	64.678096 
2812.000000	64.669299 
2811.000000	64.666557 
2810.000000	64.668226 
2809.000000	64.672136 
2808.000000	64.676213 
2807.000000	64.678788 
2806.000000	64.678716 
2805.000000	64.675688 
2804.000000	64.669847 
2803.000000	64.661836 
2802.000000	64.652466 
2801.000000	64.642643 
2800.000000	64.632940 
2799.000000	64.624023 
2798.000000	64.616441 
2797.000000	64.610838 
2796.000000	64.607977 
2795.000000	64.608454 
2794.000000	64.612650 
2793.000000	64.620614 
2792.000000	64.631915 
2791.000000	64.645504 
2790.000000	64.659929 
2789.000000	64.673566 
2788.000000	64.685106 
2787.000000	64.693617 
2786.000000	64.698839 
2785.000000	64.701008 
2784.000000	64.700675 
2783.000000	64.698791 
2782.000000	64.696192 
2781.000000	64.693379 
2780.000000	64.690613 
2779.000000	64.688038 
2778.000000	64.685606 
2777.000000	64.683413 
2776.000000	64.681816 
2775.000000	64.681267 
2774.000000	64.682197 
2773.000000	64.684820 
2772.000000	64.689040 
2771.000000	64.694261 
2770.000000	64.699769 
2769.000000	64.704585 
2768.000000	64.708018 
2767.000000	64.709615 
2766.000000	64.709281 
2765.000000	64.707326 
2764.000000	64.704227 
2763.000000	64.700579 
2762.000000	64.696907 
2761.000000	64.693689 
2760.000000	64.691281 
2759.000000	64.689826 
2758.000000	64.689373 
2757.000000	64.689826 
2756.000000	64.690828 
2755.000000	64.692044 
2754.000000	64.693164 
2753.000000	64.693903 
2752.000000	64.694094 
2751.000000	64.693880 
2750.000000	64.693522 
2749.000000	64.693522 
2748.000000	64.694499 
2747.000000	64.696860 
2746.000000	64.700794 
2745.000000	64.705944 
2744.000000	64.711618 
2743.000000	64.716863 
2742.000000	64.720678 
2741.000000	64.722275 
2740.000000	64.721298 
2739.000000	64.718031 
2738.000000	64.713120 
2737.000000	64.707636 
2736.000000	64.702796 
2735.000000	64.699459 
2734.000000	64.698100 
2733.000000	64.698743 
2732.000000	64.700603 
2731.000000	64.702415 
2730.000000	64.702582 
2729.000000	64.699554 
2728.000000	64.692330 
2727.000000	64.680552 
2726.000000	64.664936 
2725.000000	64.647030 
2724.000000	64.629292 
2723.000000	64.614224 
2722.000000	64.604210 
2721.000000	64.600968 
2720.000000	64.604973 
2719.000000	64.615583 
2718.000000	64.631104 
2717.000000	64.648914 
2716.000000	64.666318 
2715.000000	64.680838 
2714.000000	64.690780 
2713.000000	64.695453 
2712.000000	64.695191 
2711.000000	64.691138 
2710.000000	64.684844 
2709.000000	64.677858 
2708.000000	64.671444 
2707.000000	64.666223 
2706.000000	64.662384 
2705.000000	64.659833 
2704.000000	64.658308 
2703.000000	64.657926 
2702.000000	64.659190 
2701.000000	64.662933 
2700.000000	64.670324 
2699.000000	64.682412 
2698.000000	64.699816 
2697.000000	64.722323 
2696.000000	64.748835 
2695.000000	64.777159 
2694.000000	64.804720 
2693.000000	64.828681 
2692.000000	64.846587 
2691.000000	64.856719 
2690.000000	64.858508 
2689.000000	64.852356 
2688.000000	64.839506 
2687.000000	64.821696 
2686.000000	64.800643 
2685.000000	64.777946 
2684.000000	64.754629 
2683.000000	64.731383 
2682.000000	64.708471 
2681.000000	64.686226 
2680.000000	64.665031 
2679.000000	64.645504 
2678.000000	64.628696 
2677.000000	64.615678 
2676.000000	64.607620 
2675.000000	64.605426 
2674.000000	64.609575 
2673.000000	64.619994 
2672.000000	64.635896 
2671.000000	64.655947 
2670.000000	64.678287 
2669.000000	64.700651 
2668.000000	64.720702 
2667.000000	64.736080 
2666.000000	64.744710 
2665.000000	64.745330 
2664.000000	64.737272 
2663.000000	64.720773 
2662.000000	64.696884 
2661.000000	64.667415 
2660.000000	64.634776 
2659.000000	64.601778 
2658.000000	64.571142 
2657.000000	64.545369 
2656.000000	64.526462 
2655.000000	64.515566 
2654.000000	64.512968 
2653.000000	64.518046 
2652.000000	64.529132 
2651.000000	64.544081 
2650.000000	64.560437 
2649.000000	64.576148 
2648.000000	64.589381 
2647.000000	64.599323 
2646.000000	64.606022 
2645.000000	64.610195 
2644.000000	64.613032 
2643.000000	64.615559 
2642.000000	64.618277 
2641.000000	64.620876 
2640.000000	64.622426 
2639.000000	64.621829 
2638.000000	64.618468 
2637.000000	64.612650 
2636.000000	64.605665 
2635.000000	64.599776 
2634.000000	64.597630 
2633.000000	64.601707 
2632.000000	64.613318 
2631.000000	64.632058 
2630.000000	64.655709 
2629.000000	64.680624 
2628.000000	64.702391 
2627.000000	64.716649 
2626.000000	64.719796 
2625.000000	64.710235 
2624.000000	64.688372 
2623.000000	64.656281 
2622.000000	64.617681 
2621.000000	64.576721 
2620.000000	64.537787 
2619.000000	64.504885 
2618.000000	64.480686 
2617.000000	64.466619 
2616.000000	64.462518 
2615.000000	64.466691 
2614.000000	64.476251 
2613.000000	64.487600 
2612.000000	64.497280 
2611.000000	64.502573 
2610.000000	64.502167 
2609.000000	64.496159 
2608.000000	64.486169 
2607.000000	64.474534 
2606.000000	64.463829 
2605.000000	64.456272 
2604.000000	64.453125 
2603.000000	64.454746 
2602.000000	64.460659 
2601.000000	64.469981 
2600.000000	64.481854 
2599.000000	64.495611 
2598.000000	64.510774 
2597.000000	64.527034 
2596.000000	64.543771 
2595.000000	64.559960 
2594.000000	64.573812 
2593.000000	64.583420 
2592.000000	64.586925 
2591.000000	64.583420 
2590.000000	64.573287 
2589.000000	64.558243 
2588.000000	64.540886 
2587.000000	64.524340 
2586.000000	64.511585 
2585.000000	64.504718 
2584.000000	64.504671 
2583.000000	64.511132 
2582.000000	64.522647 
2581.000000	64.537215 
2580.000000	64.552855 
2579.000000	64.567804 
2578.000000	64.580821 
2577.000000	64.591288 
2576.000000	64.599108 
2575.000000	64.604473 
2574.000000	64.607763 
2573.000000	64.609479 
2572.000000	64.610004 
2571.000000	64.610171 
2570.000000	64.610409 
2569.000000	64.611077 
2568.000000	64.612054 
2567.000000	64.612793 
2566.000000	64.612722 
2565.000000	64.611363 
2564.000000	64.608693 
2563.000000	64.605116 
2562.000000	64.601445 
2561.000000	64.598464 
2560.000000	64.596700 
2559.000000	64.596104 
2558.000000	64.595937 
2557.000000	64.594864 
2556.000000	64.591383 
2555.000000	64.584374 
2554.000000	64.573097 
2553.000000	64.557766 
2552.000000	64.539456 
2551.000000	64.519882 
2550.000000	64.501285 
2549.000000	64.485716 
2548.000000	64.474844 
2547.000000	64.469528 
2546.000000	64.469861 
2545.000000	64.475178 
2544.000000	64.484262 
2543.000000	64.495563 
2542.000000	64.507198 
2541.000000	64.517283 
2540.000000	64.524149 
2539.000000	64.526581 
2538.000000	64.524388 
2537.000000	64.518165 
2536.000000	64.509344 
2535.000000	64.499831 
2534.000000	64.491629 
2533.000000	64.486217 
2532.000000	64.484286 
2531.000000	64.485597 
2530.000000	64.489293 
2529.000000	64.494037 
2528.000000	64.498543 
2527.000000	64.501667 
2526.000000	64.502787 
2525.000000	64.501810 
2524.000000	64.499068 
2523.000000	64.495325 
2522.000000	64.491462 
2521.000000	64.488530 
2520.000000	64.487624 
2519.000000	64.489865 
2518.000000	64.496135 
2517.000000	64.507222 
2516.000000	64.523196 
2515.000000	64.543437 
2514.000000	64.566326 
2513.000000	64.589548 
2512.000000	64.610099 
2511.000000	64.625191 
2510.000000	64.632391 
2509.000000	64.630532 
2508.000000	64.619660 
2507.000000	64.601039 
2506.000000	64.576888 
2505.000000	64.549922 
2504.000000	64.522695 
2503.000000	64.497375 
2502.000000	64.475393 
2501.000000	64.457559 
2500.000000	64.444184 
2499.000000	64.435267 
2498.000000	64.430832 
2497.000000	64.430928 
2496.000000	64.435529 
2495.000000	64.444327 
2494.000000	64.456486 
2493.000000	64.470553 
2492.000000	64.484167 
2491.000000	64.494705 
2490.000000	64.499425 
2489.000000	64.496350 
2488.000000	64.484691 
2487.000000	64.465284 
2486.000000	64.440417 
2485.000000	64.413690 
2484.000000	64.389157 
2483.000000	64.370751 
2482.000000	64.361023 
2481.000000	64.361143 
2480.000000	64.370369 
2479.000000	64.386653 
2478.000000	64.406991 
2477.000000	64.428305 
2476.000000	64.448046 
2475.000000	64.464998 
2474.000000	64.479041 
2473.000000	64.491200 
2472.000000	64.502811 
2471.000000	64.515471 
2470.000000	64.530301 
2469.000000	64.547991 
2468.000000	64.568543 
2467.000000	64.591598 
2466.000000	64.616084 
2465.000000	64.640569 
2464.000000	64.663124 
2463.000000	64.681577 
2462.000000	64.693546 
2461.000000	64.696836 
2460.000000	64.689779 
2459.000000	64.671826 
2458.000000	64.643812 
2457.000000	64.607906 
2456.000000	64.567589 
2455.000000	64.527058 
2454.000000	64.490795 
2453.000000	64.462590 
2452.000000	64.445137 
2451.000000	64.439702 
2450.000000	64.445781 
2449.000000	64.461612 
2448.000000	64.484143 
2447.000000	64.509606 
2446.000000	64.533972 
2445.000000	64.553427 
2444.000000	64.564418 
2443.000000	64.564371 
2442.000000	64.551830 
2441.000000	64.527249 
2440.000000	64.492726 
2439.000000	64.452099 
2438.000000	64.410662 
2437.000000	64.374279 
2436.000000	64.348602 
2435.000000	64.337730 
2434.000000	64.343833 
2433.000000	64.366388 
2432.000000	64.402222 
2431.000000	64.446234 
2430.000000	64.492249 
2429.000000	64.534425 
2428.000000	64.568114 
2427.000000	64.590549 
2426.000000	64.601206 
2425.000000	64.601349 
2424.000000	64.593625 
2423.000000	64.580869 
2422.000000	64.565277 
2421.000000	64.548110 
2420.000000	64.529895 
2419.000000	64.510250 
2418.000000	64.488649 
2417.000000	64.464831 
2416.000000	64.439344 
2415.000000	64.413356 
2414.000000	64.388632 
2413.000000	64.366841 
2412.000000	64.349412 
2411.000000	64.336895 
2410.000000	64.329195 
2409.000000	64.325523 
2408.000000	64.325165 
2407.000000	64.327192 
2406.000000	64.331269 
2405.000000	64.337491 
2404.000000	64.346408 
2403.000000	64.358329 
2402.000000	64.373660 
2401.000000	64.391851 
2400.000000	64.412093 
2399.000000	64.433073 
2398.000000	64.453530 
2397.000000	64.472126 
2396.000000	64.488101 
2395.000000	64.501261 
2394.000000	64.511728 
2393.000000	64.519977 
2392.000000	64.526367 
2391.000000	64.530992 
2390.000000	64.533782 
2389.000000	64.534521 
2388.000000	64.533138 
2387.000000	64.529895 
2386.000000	64.525580 
2385.000000	64.521265 
2384.000000	64.518165 
2383.000000	64.517354 
2382.000000	64.519357 
2381.000000	64.524149 
2380.000000	64.530849 
2379.000000	64.538121 
2378.000000	64.544439 
2377.000000	64.548492 
2376.000000	64.549350 
2375.000000	64.546823 
2374.000000	64.541292 
2373.000000	64.533686 
2372.000000	64.525246 
2371.000000	64.517307 
2370.000000	64.511132 
2369.000000	64.507627 
2368.000000	64.507412 
2367.000000	64.510536 
2366.000000	64.516592 
2365.000000	64.524531 
2364.000000	64.532828 
2363.000000	64.539384 
2362.000000	64.541983 
2361.000000	64.538645 
2360.000000	64.528155 
2359.000000	64.510297 
2358.000000	64.486241 
2357.000000	64.458107 
2356.000000	64.428925 
2355.000000	64.401865 
2354.000000	64.379692 
2353.000000	64.364027 
2352.000000	64.355373 
2351.000000	64.352917 
2350.000000	64.355182 
2349.000000	64.360213 
2348.000000	64.366531 
2347.000000	64.373207 
2346.000000	64.380407 
2345.000000	64.388990 
2344.000000	64.400315 
2343.000000	64.415383 
2342.000000	64.434647 
2341.000000	64.457440 
2340.000000	64.482116 
2339.000000	64.506340 
2338.000000	64.527487 
2337.000000	64.543294 
2336.000000	64.552259 
2335.000000	64.554047 
2334.000000	64.549446 
2333.000000	64.540076 
2332.000000	64.527893 
2331.000000	64.514946 
2330.000000	64.503097 
2329.000000	64.493656 
2328.000000	64.487433 
2327.000000	64.484786 
2326.000000	64.485764 
2325.000000	64.490008 
2324.000000	64.497017 
2323.000000	64.505863 
2322.000000	64.515233 
2321.000000	64.523720 
2320.000000	64.529609 
2319.000000	64.531421 
2318.000000	64.528226 
2317.000000	64.519906 
2316.000000	64.507222 
2315.000000	64.491724 
2314.000000	64.475679 
2313.000000	64.461398 
2312.000000	64.450764 
2311.000000	64.445018 
2310.000000	64.444446 
2309.000000	64.448237 
2308.000000	64.454936 
2307.000000	64.462637 
2306.000000	64.469480 
2305.000000	64.473986 
2304.000000	64.475345 
2303.000000	64.473366 
2302.000000	64.468359 
2301.000000	64.461159 
2300.000000	64.452719 
2299.000000	64.443778 
2298.000000	64.434695 
2297.000000	64.425635 
2296.000000	64.416313 
2295.000000	64.406394 
2294.000000	64.395356 
2293.000000	64.383006 
2292.000000	64.369344 
2291.000000	64.354896 
2290.000000	64.340662 
2289.000000	64.327764 
2288.000000	64.317512 
2287.000000	64.311051 
2286.000000	64.309191 
2285.000000	64.312076 
2284.000000	64.319300 
2283.000000	64.329957 
2282.000000	64.342713 
2281.000000	64.356207 
2280.000000	64.369177 
2279.000000	64.380693 
2278.000000	64.390325 
2277.000000	64.398002 
2276.000000	64.404034 
2275.000000	64.408659 
2274.000000	64.412188 
2273.000000	64.414501 
2272.000000	64.415287 
2271.000000	64.414119 
2270.000000	64.410591 
2269.000000	64.404582 
2268.000000	64.396262 
2267.000000	64.386296 
2266.000000	64.375829 
2265.000000	64.366102 
2264.000000	64.358234 
2263.000000	64.352965 
2262.000000	64.350605 
2261.000000	64.350748 
2260.000000	64.352631 
2259.000000	64.355063 
2258.000000	64.356946 
2257.000000	64.357566 
2256.000000	64.356660 
2255.000000	64.354538 
2254.000000	64.351844 
2253.000000	64.349484 
2252.000000	64.348244 
2251.000000	64.348602 
2250.000000	64.350414 
2249.000000	64.352917 
2248.000000	64.355015 
2247.000000	64.355468 
2246.000000	64.353132 
2245.000000	64.347267 
2244.000000	64.338016 
2243.000000	64.326047 
2242.000000	64.312839 
2241.000000	64.300203 
2240.000000	64.290046 
2239.000000	64.283871 
2238.000000	64.282560 
2237.000000	64.286184 
2236.000000	64.293789 
2235.000000	64.303827 
2234.000000	64.314150 
2233.000000	64.322590 
2232.000000	64.327216 
2231.000000	64.326786 
2230.000000	64.320802 
2229.000000	64.309620 
2228.000000	64.294409 
2227.000000	64.277005 
2226.000000	64.259600 
2225.000000	64.244484 
2224.000000	64.233708 
2223.000000	64.228963 
2222.000000	64.231228 
2221.000000	64.240694 
2220.000000	64.256668 
2219.000000	64.277648 
2218.000000	64.301633 
2217.000000	64.326333 
2216.000000	64.349412 
2215.000000	64.369130 
2214.000000	64.384460 
2213.000000	64.395189 
2212.000000	64.402031 
2211.000000	64.406037 
2210.000000	64.408469 
2209.000000	64.410138 
2208.000000	64.411520 
2207.000000	64.412236 
2206.000000	64.411616 
2205.000000	64.408707 
2204.000000	64.402961 
2203.000000	64.394378 
2202.000000	64.383721 
2201.000000	64.372277 
2200.000000	64.361763 
2199.000000	64.353823 
2198.000000	64.349579 
2197.000000	64.349341 
2196.000000	64.352369 
2195.000000	64.356780 
2194.000000	64.359974 
2193.000000	64.359354 
2192.000000	64.352750 
2191.000000	64.339089 
2190.000000	64.318680 
2189.000000	64.293122 
2188.000000	64.265084 
2187.000000	64.237594 
2186.000000	64.213752 
2185.000000	64.195704 
2184.000000	64.184808 
2183.000000	64.181566 
2182.000000	64.185786 
2181.000000	64.196562 
2180.000000	64.212894 
2179.000000	64.233565 
2178.000000	64.257359 
2177.000000	64.282798 
2176.000000	64.308118 
2175.000000	64.331293 
2174.000000	64.350152 
2173.000000	64.362835 
2172.000000	64.368295 
2171.000000	64.366364 
2170.000000	64.358353 
2169.000000	64.346599 
2168.000000	64.334106 
2167.000000	64.323616 
2166.000000	64.317393 
2165.000000	64.316511 
2164.000000	64.321017 
2163.000000	64.329695 
2162.000000	64.340853 
2161.000000	64.352107 
2160.000000	64.361357 
2159.000000	64.366650 
2158.000000	64.366555 
2157.000000	64.360308 
2156.000000	64.347863 
2155.000000	64.329981 
2154.000000	64.308118 
2153.000000	64.284372 
2152.000000	64.261078 
2151.000000	64.240646 
2150.000000	64.225149 
2149.000000	64.215993 
2148.000000	64.213728 
2147.000000	64.218044 
2146.000000	64.227771 
2145.000000	64.241385 
2144.000000	64.257287 
2143.000000	64.274048 
2142.000000	64.290332 
2141.000000	64.305090 
2140.000000	64.317250 
2139.000000	64.325714 
2138.000000	64.329433 
2137.000000	64.327597 
2136.000000	64.319705 
2135.000000	64.306163 
2134.000000	64.288091 
2133.000000	64.267206 
2132.000000	64.245581 
2131.000000	64.225316 
2130.000000	64.208221 
2129.000000	64.195322 
2128.000000	64.187049 
2127.000000	64.183187 
2126.000000	64.183115 
2125.000000	64.186143 
2124.000000	64.191770 
2123.000000	64.199614 
2122.000000	64.209532 
2121.000000	64.221382 
2120.000000	64.234638 
2119.000000	64.248347 
2118.000000	64.261031 
2117.000000	64.271068 
2116.000000	64.276981 
2115.000000	64.277720 
2114.000000	64.272975 
2113.000000	64.263319 
2112.000000	64.250302 
2111.000000	64.235973 
2110.000000	64.222359 
2109.000000	64.211440 
2108.000000	64.204502 
2107.000000	64.202117 
2106.000000	64.204263 
2105.000000	64.210295 
2104.000000	64.219284 
2103.000000	64.230108 
2102.000000	64.241719 
2101.000000	64.253115 
2100.000000	64.263272 
2099.000000	64.271116 
2098.000000	64.275455 
2097.000000	64.275217 
2096.000000	64.269661 
2095.000000	64.258551 
2094.000000	64.242482 
2093.000000	64.222836 
2092.000000	64.201688 
2091.000000	64.181423 
2090.000000	64.164566 
2089.000000	64.153099 
2088.000000	64.148473 
2087.000000	64.151501 
2086.000000	64.162278 
2085.000000	64.180374 
2084.000000	64.204907 
2083.000000	64.234471 
2082.000000	64.267039 
2081.000000	64.299988 
2080.000000	64.330077 
2079.000000	64.353871 
2078.000000	64.368104 
2077.000000	64.370369 
2076.000000	64.359736 
2075.000000	64.337205 
2074.000000	64.305686 
2073.000000	64.269828 
2072.000000	64.234876 
2071.000000	64.205837 
2070.000000	64.186239 
2069.000000	64.177656 
2068.000000	64.179325 
2067.000000	64.188480 
2066.000000	64.201140 
2065.000000	64.213395 
2064.000000	64.222168 
2063.000000	64.226007 
2062.000000	64.225196 
2061.000000	64.221358 
2060.000000	64.216685 
2059.000000	64.213204 
2058.000000	64.211893 
2057.000000	64.212536 
2056.000000	64.213871 
2055.000000	64.213967 
2054.000000	64.210963 
2053.000000	64.203763 
2052.000000	64.192533 
2051.000000	64.178681 
2050.000000	64.164352 
2049.000000	64.152169 
2048.000000	64.144563 
2047.000000	64.143037 
2046.000000	64.147949 
2045.000000	64.158391 
2044.000000	64.172554 
2043.000000	64.187860 
2042.000000	64.201879 
2041.000000	64.212465 
2040.000000	64.218235 
2039.000000	64.218759 
2038.000000	64.214634 
2037.000000	64.207243 
2036.000000	64.198327 
2035.000000	64.189696 
2034.000000	64.182782 
2033.000000	64.178490 
2032.000000	64.176607 
2031.000000	64.176177 
2030.000000	64.175605 
2029.000000	64.173007 
2028.000000	64.166498 
2027.000000	64.155173 
2026.000000	64.138984 
2025.000000	64.119005 
2024.000000	64.097237 
2023.000000	64.076161 
2022.000000	64.058327 
2021.000000	64.045572 
2020.000000	64.038896 
2019.000000	64.038157 
2018.000000	64.042210 
2017.000000	64.049530 
2016.000000	64.058351 
2015.000000	64.067339 
2014.000000	64.075589 
2013.000000	64.082789 
2012.000000	64.088892 
2011.000000	64.093875 
2010.000000	64.097523 
2009.000000	64.099526 
2008.000000	64.099335 
2007.000000	64.096760 
2006.000000	64.091968 
2005.000000	64.085984 
2004.000000	64.080572 
2003.000000	64.077877 
2002.000000	64.079928 
2001.000000	64.087939 
2000.000000	64.102101 
1999.000000	64.121031 
1998.000000	64.142251 
1997.000000	64.162492 
1996.000000	64.178562 
1995.000000	64.187884 
1994.000000	64.189100 
1993.000000	64.182257 
1992.000000	64.168858 
1991.000000	64.151263 
1990.000000	64.132118 
1989.000000	64.113926 
1988.000000	64.098548 
1987.000000	64.087009 
1986.000000	64.079499 
1985.000000	64.075636 
1984.000000	64.074802 
1983.000000	64.076328 
1982.000000	64.079713 
1981.000000	64.084458 
1980.000000	64.090275 
1979.000000	64.096713 
1978.000000	64.103388 
1977.000000	64.109683 
1976.000000	64.114928 
1975.000000	64.118480 
1974.000000	64.119672 
1973.000000	64.118003 
1972.000000	64.113140 
1971.000000	64.105176 
1970.000000	64.094281 
1969.000000	64.080977 
1968.000000	64.065980 
1967.000000	64.050173 
1966.000000	64.034581 
1965.000000	64.020204 
1964.000000	64.008045 
1963.000000	63.999056 
1962.000000	63.994002 
1961.000000	63.993096 
1960.000000	63.996195 
1959.000000	64.002609 
1958.000000	64.011478 
1957.000000	64.021587 
1956.000000	64.031791 
1955.000000	64.041042 
1954.000000	64.048767 
1953.000000	64.054727 
1952.000000	64.059066 
1951.000000	64.062166 
1950.000000	64.064407 
1949.000000	64.066123 
1948.000000	64.067506 
1947.000000	64.068436 
1946.000000	64.068770 
1945.000000	64.068412 
1944.000000	64.067578 
1943.000000	64.066529 
1942.000000	64.065885 
1941.000000	64.066100 
1940.000000	64.067435 
1939.000000	64.069676 
1938.000000	64.072179 
1937.000000	64.073991 
1936.000000	64.074254 
1935.000000	64.072322 
1934.000000	64.068269 
1933.000000	64.063024 
1932.000000	64.058208 
1931.000000	64.055800 
1930.000000	64.057683 
1929.000000	64.065265 
1928.000000	64.079046 
1927.000000	64.098453 
1926.000000	64.121937 
1925.000000	64.147281 
1924.000000	64.171934 
1923.000000	64.193558 
1922.000000	64.210462 
1921.000000	64.221572 
1920.000000	64.226722 
1919.000000	64.226365 
1918.000000	64.221525 
1917.000000	64.213633 
1916.000000	64.204025 
1915.000000	64.194202 
1914.000000	64.185261 
1913.000000	64.177942 
1912.000000	64.172363 
1911.000000	64.168334 
1910.000000	64.165210 
1909.000000	64.162158 
1908.000000	64.158320 
1907.000000	64.153075 
1906.000000	64.146018 
1905.000000	64.137148 
1904.000000	64.126849 
1903.000000	64.115858 
1902.000000	64.105343 
1901.000000	64.096546 
1900.000000	64.090633 
1899.000000	64.088582 
1898.000000	64.090824 
1897.000000	64.097261 
1896.000000	64.106941 
1895.000000	64.118552 
1894.000000	64.130401 
1893.000000	64.140987 
1892.000000	64.149045 
1891.000000	64.153909 
1890.000000	64.155697 
1889.000000	64.155101 
1888.000000	64.153194 
1887.000000	64.150953 
1886.000000	64.149141 
1885.000000	64.148116 
1884.000000	64.147615 
1883.000000	64.147114 
1882.000000	64.145946 
1881.000000	64.143633 
1880.000000	64.140343 
1879.000000	64.136552 
1878.000000	64.133000 
1877.000000	64.130377 
1876.000000	64.129233 
1875.000000	64.129328 
1874.000000	64.129829 
1873.000000	64.129471 
1872.000000	64.126968 
1871.000000	64.121484 
1870.000000	64.112997 
1869.000000	64.102625 
1868.000000	64.092016 
1867.000000	64.083361 
1866.000000	64.078497 
1865.000000	64.078307 
1864.000000	64.082670 
1863.000000	64.089822 
1862.000000	64.097380 
1861.000000	64.102649 
1860.000000	64.103460 
1859.000000	64.098739 
1858.000000	64.088964 
1857.000000	64.075946 
1856.000000	64.062666 
1855.000000	64.052176 
1854.000000	64.047145 
1853.000000	64.049005 
1852.000000	64.057755 
1851.000000	64.072012 
1850.000000	64.089274 
1849.000000	64.106583 
1848.000000	64.120936 
1847.000000	64.129757 
1846.000000	64.131236 
1845.000000	64.124679 
1844.000000	64.110183 
1843.000000	64.088892 
1842.000000	64.062523 
1841.000000	64.033460 
1840.000000	64.004540 
1839.000000	63.978862 
1838.000000	63.959360 
1837.000000	63.948464 
1836.000000	63.947939 
1835.000000	63.958477 
1834.000000	63.979339 
1833.000000	64.008593 
1832.000000	64.043188 
1831.000000	64.079356 
1830.000000	64.113044 
1829.000000	64.140915 
1828.000000	64.160394 
1827.000000	64.170289 
1826.000000	64.170789 
1825.000000	64.163327 
1824.000000	64.149880 
1823.000000	64.132928 
1822.000000	64.114856 
1821.000000	64.097619 
1820.000000	64.082431 
1819.000000	64.069914 
1818.000000	64.060044 
1817.000000	64.052295 
1816.000000	64.045739 
1815.000000	64.039230 
1814.000000	64.031553 
1813.000000	64.021372 
1812.000000	64.007711 
1811.000000	63.989925 
1810.000000	63.968038 
1809.000000	63.942551 
1808.000000	63.914990 
1807.000000	63.887357 
1806.000000	63.862228 
1805.000000	63.842153 
1804.000000	63.829445 
1803.000000	63.825678 
1802.000000	63.831591 
1801.000000	63.846921 
1800.000000	63.870286 
1799.000000	63.899397 
1798.000000	63.931345 
1797.000000	63.962984 
1796.000000	63.991236 
1795.000000	64.013504 
1794.000000	64.028239 
1793.000000	64.034938 
1792.000000	64.034461 
1791.000000	64.028763 
1790.000000	64.020395 
1789.000000	64.011859 
1788.000000	64.005613 
1787.000000	64.002943 
1786.000000	64.004278 
1785.000000	64.008688 
1784.000000	64.014816 
1783.000000	64.020800 
1782.000000	64.025235 
1781.000000	64.027357 
1780.000000	64.027261 
1779.000000	64.026045 
1778.000000	64.025115 
1777.000000	64.025855 
1776.000000	64.029097 
1775.000000	64.034652 
1774.000000	64.041471 
1773.000000	64.047718 
1772.000000	64.051270 
1771.000000	64.050436 
1770.000000	64.044284 
1769.000000	64.033031 
1768.000000	64.018011 
1767.000000	64.001226 
1766.000000	63.985085 
1765.000000	63.971447 
1764.000000	63.961386 
1763.000000	63.954949 
1762.000000	63.951444 
1761.000000	63.949322 
1760.000000	63.947224 
1759.000000	63.943886 
1758.000000	63.938736 
1757.000000	63.932132 
1756.000000	63.924956 
1755.000000	63.918352 
1754.000000	63.913393 
1753.000000	63.910722 
1752.000000	63.910341 
1751.000000	63.911414 
1750.000000	63.912606 
1749.000000	63.912630 
1748.000000	63.910269 
1747.000000	63.905024 
1746.000000	63.897156 
1745.000000	63.887715 
1744.000000	63.878273 
1743.000000	63.870644 
1742.000000	63.866257 
1741.000000	63.865900 
1740.000000	63.869214 
1739.000000	63.874816 
1738.000000	63.880586 
1737.000000	63.884353 
1736.000000	63.884234 
1735.000000	63.879323 
1734.000000	63.870072 
1733.000000	63.858175 
1732.000000	63.845825 
1731.000000	63.835263 
1730.000000	63.828349 
1729.000000	63.826394 
1728.000000	63.829851 
1727.000000	63.838887 
1726.000000	63.853073 
1725.000000	63.871979 
1724.000000	63.895344 
1723.000000	63.922595 
1722.000000	63.952851 
1721.000000	63.984346 
1720.000000	64.014434 
1719.000000	64.039731 
1718.000000	64.056825 
1717.000000	64.062690 
1716.000000	64.055728 
1715.000000	64.036273 
1714.000000	64.006948 
1713.000000	63.972043 
1712.000000	63.937211 
1711.000000	63.908243 
1710.000000	63.890242 
1709.000000	63.887095 
1708.000000	63.900852 
1707.000000	63.931775 
1706.000000	63.977789 
1705.000000	64.034986 
1704.000000	64.097523 
1703.000000	64.158558 
1702.000000	64.210653 
1701.000000	64.247107 
1700.000000	64.262795 
1699.000000	64.255023 
1698.000000	64.224410 
1697.000000	64.174842 
1696.000000	64.113163 
1695.000000	64.048171 
1694.000000	63.989162 
1693.000000	63.944792 
1692.000000	63.921189 
1691.000000	63.920998 
1690.000000	63.942837 
1689.000000	63.981556 
1688.000000	64.029073 
1687.000000	64.076471 
1686.000000	64.114999 
1685.000000	64.138221 
1684.000000	64.143037 
1683.000000	64.130234 
1682.000000	64.104032 
1681.000000	64.071035 
1680.000000	64.038896 
1679.000000	64.014387 
1678.000000	64.002370 
1677.000000	64.004325 
1676.000000	64.018964 
1675.000000	64.041972 
1674.000000	64.068198 
1673.000000	64.091777 
1672.000000	64.107632 
1671.000000	64.112305 
1670.000000	64.104223 
1669.000000	64.083981 
1668.000000	64.053368 
1667.000000	64.015817 
1666.000000	63.975548 
1665.000000	63.937783 
1664.000000	63.907814 
1663.000000	63.891100 
1662.000000	63.892269 
1661.000000	63.914632 
1660.000000	63.959169 
1659.000000	64.023852 
1658.000000	64.103555 
1657.000000	64.190363 
1656.000000	64.274859 
1655.000000	64.347767 
1654.000000	64.401531 
1653.000000	64.431715 
1652.000000	64.437079 
1651.000000	64.419865 
1650.000000	64.384508 
1649.000000	64.336800 
1648.000000	64.282393 
1647.000000	64.226436 
1646.000000	64.172506 
1645.000000	64.123678 
1644.000000	64.081692 
1643.000000	64.048290 
1642.000000	64.024305 
1641.000000	64.009976 
1640.000000	64.004325 
1639.000000	64.004993 
1638.000000	64.008331 
1637.000000	64.009737 
1636.000000	64.004993 
1635.000000	63.991069 
1634.000000	63.967418 
1633.000000	63.936042 
1632.000000	63.901233 
1631.000000	63.868427 
1630.000000	63.842654 
1629.000000	63.827371 
1628.000000	63.823890 
1627.000000	63.831043 
1626.000000	63.845372 
1625.000000	63.862323 
1624.000000	63.877558 
1623.000000	63.887572 
1622.000000	63.890218 
1621.000000	63.884663 
1620.000000	63.871145 
1619.000000	63.850760 
1618.000000	63.824677 
1617.000000	63.794684 
1616.000000	63.762474 
1615.000000	63.730359 
1614.000000	63.701415 
1613.000000	63.678789 
1612.000000	63.665318 
1611.000000	63.662886 
1610.000000	63.671803 
1609.000000	63.690471 
1608.000000	63.715147 
1607.000000	63.741016 
1606.000000	63.763117 
1605.000000	63.777422 
1604.000000	63.781619 
1603.000000	63.775706 
1602.000000	63.761591 
1601.000000	63.742470 
1600.000000	63.721823 
1599.000000	63.702750 
1598.000000	63.687133 
1597.000000	63.675832 
1596.000000	63.668727 
1595.000000	63.665509 
1594.000000	63.665652 
1593.000000	63.668560 
1592.000000	63.673615 
1591.000000	63.679957 
1590.000000	63.686871 
1589.000000	63.693165 
1588.000000	63.698029 
1587.000000	63.700842 
1586.000000	63.702011 
1585.000000	63.702893 
1584.000000	63.705635 
1583.000000	63.712596 
1582.000000	63.725543 
1581.000000	63.744926 
1580.000000	63.769626 
1579.000000	63.796782 
1578.000000	63.822650 
1577.000000	63.843345 
1576.000000	63.855862 
1575.000000	63.858771 
1574.000000	63.852095 
1573.000000	63.837504 
1572.000000	63.817739 
1571.000000	63.796544 
1570.000000	63.778162 
1569.000000	63.766932 
1568.000000	63.767027 
1567.000000	63.781261 
1566.000000	63.811230 
1565.000000	63.855886 
1564.000000	63.911819 
1563.000000	63.972783 
1562.000000	64.030814 
1561.000000	64.077210 
1560.000000	64.104056 
1559.000000	64.106273 
1558.000000	64.082670 
1557.000000	64.036321 
1556.000000	63.974142 
1555.000000	63.904857 
1554.000000	63.837456 
1553.000000	63.779377 
1552.000000	63.735675 
1551.000000	63.709330 
1550.000000	63.701581 
1549.000000	63.712835 
1548.000000	63.742566 
1547.000000	63.789463 
1546.000000	63.850808 
1545.000000	63.921499 
1544.000000	63.994455 
1543.000000	64.060950 
1542.000000	64.112305 
1541.000000	64.141440 
1540.000000	64.144444 
1539.000000	64.121294 
1538.000000	64.076256 
1537.000000	64.017152 
1536.000000	63.953423 
1535.000000	63.894414 
1534.000000	63.847446 
1533.000000	63.816475 
1532.000000	63.802289 
1531.000000	63.803219 
1530.000000	63.815689 
1529.000000	63.835740 
1528.000000	63.859701 
1527.000000	63.884806 
1526.000000	63.908791 
1525.000000	63.929581 
1524.000000	63.945102 
1523.000000	63.953423 
1522.000000	63.953137 
1521.000000	63.943767 
1520.000000	63.926053 
1519.000000	63.902258 
1518.000000	63.876032 
1517.000000	63.851904 
1516.000000	63.834977 
1515.000000	63.829398 
1514.000000	63.837480 
1513.000000	63.859128 
1512.000000	63.891792 
1511.000000	63.930797 
1510.000000	63.970136 
1509.000000	64.003562 
1508.000000	64.026117 
1507.000000	64.034509 
1506.000000	64.027905 
1505.000000	64.007401 
1504.000000	63.975310 
1503.000000	63.934636 
1502.000000	63.888645 
1501.000000	63.840389 
1500.000000	63.792538 
1499.000000	63.747692 
1498.000000	63.708376 
1497.000000	63.677191 
1496.000000	63.656449 
1495.000000	63.647556 
1494.000000	63.650608 
1493.000000	63.663959 
1492.000000	63.684248 
1491.000000	63.706755 
1490.000000	63.726329 
1489.000000	63.738226 
1488.000000	63.739538 
1487.000000	63.729453 
1486.000000	63.709783 
1485.000000	63.684344 
1484.000000	63.658046 
1483.000000	63.635706 
1482.000000	63.621234 
1481.000000	63.617086 
1480.000000	63.623619 
1479.000000	63.639402 
1478.000000	63.661408 
1477.000000	63.685870 
1476.000000	63.708925 
1475.000000	63.727235 
1474.000000	63.738703 
1473.000000	63.742804 
1472.000000	63.740563 
1471.000000	63.734316 
1470.000000	63.726663 
1469.000000	63.719892 
1468.000000	63.715910 
1467.000000	63.715934 
1466.000000	63.720631 
1465.000000	63.730216 
1464.000000	63.744878 
1463.000000	63.764405 
1462.000000	63.788175 
1461.000000	63.814592 
1460.000000	63.841247 
1459.000000	63.864660 
1458.000000	63.881230 
1457.000000	63.887524 
1456.000000	63.881278 
1455.000000	63.861680 
1454.000000	63.830065 
1453.000000	63.789343 
1452.000000	63.743877 
1451.000000	63.698244 
1450.000000	63.656401 
1449.000000	63.621258 
1448.000000	63.594269 
1447.000000	63.576078 
1446.000000	63.566875 
1445.000000	63.566708 
1444.000000	63.575506 
1443.000000	63.593006 
1442.000000	63.618206 
1441.000000	63.648796 
1440.000000	63.681221 
1439.000000	63.711166 
1438.000000	63.734269 
1437.000000	63.746976 
1436.000000	63.747167 
1435.000000	63.734507 
1434.000000	63.710308 
1433.000000	63.677453 
1432.000000	63.639593 
1431.000000	63.600873 
1430.000000	63.565063 
1429.000000	63.535332 
1428.000000	63.513875 
1427.000000	63.502049 
1426.000000	63.499808 
1425.000000	63.506221 
1424.000000	63.519263 
1423.000000	63.536095 
1422.000000	63.553404 
1421.000000	63.567900 
1420.000000	63.577127 
1419.000000	63.579726 
1418.000000	63.575863 
1417.000000	63.567090 
1416.000000	63.555717 
1415.000000	63.544178 
1414.000000	63.534116 
1413.000000	63.526320 
1412.000000	63.520550 
1411.000000	63.516259 
1410.000000	63.512611 
1409.000000	63.509249 
1408.000000	63.506507 
1407.000000	63.505148 
1406.000000	63.506245 
1405.000000	63.510560 
1404.000000	63.518047 
1403.000000	63.527870 
1402.000000	63.538384 
1401.000000	63.547563 
1400.000000	63.553738 
1399.000000	63.555812 
1398.000000	63.554072 
1397.000000	63.549637 
1396.000000	63.544106 
1395.000000	63.539123 
1394.000000	63.535833 
1393.000000	63.534498 
1392.000000	63.534569 
1391.000000	63.534665 
1390.000000	63.533234 
1389.000000	63.528585 
1388.000000	63.519549 
1387.000000	63.505482 
1386.000000	63.486480 
1385.000000	63.463425 
1384.000000	63.437914 
1383.000000	63.412332 
1382.000000	63.389253 
1381.000000	63.371324 
1380.000000	63.360762 
1379.000000	63.358950 
1378.000000	63.366198 
1377.000000	63.381481 
1376.000000	63.402724 
1375.000000	63.426780 
1374.000000	63.450384 
1373.000000	63.470578 
1372.000000	63.485407 
1371.000000	63.494086 
1370.000000	63.497114 
1369.000000	63.495993 
1368.000000	63.492369 
1367.000000	63.487792 
1366.000000	63.482928 
1365.000000	63.477635 
1364.000000	63.471007 
1363.000000	63.461995 
1362.000000	63.449716 
1361.000000	63.434362 
1360.000000	63.417053 
1359.000000	63.399863 
1358.000000	63.385438 
1357.000000	63.376116 
1356.000000	63.373541 
1355.000000	63.378047 
1354.000000	63.388562 
1353.000000	63.402867 
1352.000000	63.418388 
1351.000000	63.432574 
1350.000000	63.443398 
1349.000000	63.449811 
1348.000000	63.451766 
1347.000000	63.450002 
1346.000000	63.445758 
1345.000000	63.440179 
1344.000000	63.434028 
1343.000000	63.427472 
1342.000000	63.420486 
1341.000000	63.412523 
1340.000000	63.402938 
1339.000000	63.391160 
1338.000000	63.376879 
1337.000000	63.360023 
1336.000000	63.340902 
1335.000000	63.320255 
1334.000000	63.298964 
1333.000000	63.278269 
1332.000000	63.259577 
1331.000000	63.244295 
1330.000000	63.233876 
1329.000000	63.229298 
1328.000000	63.231348 
1327.000000	63.240504 
1326.000000	63.256740 
1325.000000	63.279581 
1324.000000	63.307690 
1323.000000	63.339018 
1322.000000	63.370442 
1321.000000	63.398408 
1320.000000	63.419055 
1319.000000	63.428974 
1318.000000	63.425660 
1317.000000	63.408350 
1316.000000	63.378071 
1315.000000	63.337731 
1314.000000	63.291692 
1313.000000	63.245224 
1312.000000	63.203668 
1311.000000	63.171720 
1310.000000	63.152599 
1309.000000	63.147592 
1308.000000	63.155913 
1307.000000	63.174843 
1306.000000	63.200163 
1305.000000	63.226938 
1304.000000	63.250303 
1303.000000	63.266563 
1302.000000	63.273358 
1301.000000	63.270354 
1300.000000	63.258790 
1299.000000	63.241410 
1298.000000	63.221764 
1297.000000	63.203477 
1296.000000	63.189673 
1295.000000	63.182234 
1294.000000	63.181948 
1293.000000	63.187837 
1292.000000	63.197851 
1291.000000	63.208985 
1290.000000	63.217949 
1289.000000	63.221836 
1288.000000	63.218712 
1287.000000	63.207936 
1286.000000	63.190150 
1285.000000	63.166952 
1284.000000	63.140678 
1283.000000	63.113570 
1282.000000	63.087701 
1281.000000	63.064503 
1280.000000	63.044762 
1279.000000	63.028740 
1278.000000	63.016581 
1277.000000	63.007998 
1276.000000	63.003277 
1275.000000	63.002538 
1274.000000	63.006162 
1273.000000	63.014841 
1272.000000	63.029241 
1271.000000	63.049578 
1270.000000	63.075351 
1269.000000	63.105058 
1268.000000	63.136386 
1267.000000	63.166356 
1266.000000	63.191795 
1265.000000	63.209748 
1264.000000	63.218331 
1263.000000	63.217163 
1262.000000	63.207268 
1261.000000	63.190746 
1260.000000	63.170337 
1259.000000	63.148856 
1258.000000	63.128328 
1257.000000	63.109540 
1256.000000	63.092303 
1255.000000	63.075613 
1254.000000	63.058423 
1253.000000	63.040256 
1252.000000	63.021659 
1251.000000	63.004255 
1250.000000	62.990355 
1249.000000	62.982296 
1248.000000	62.981414 
1247.000000	62.987732 
1246.000000	62.999701 
1245.000000	63.014554 
1244.000000	63.028931 
1243.000000	63.039779 
1242.000000	63.045096 
1241.000000	63.044548 
1240.000000	63.039278 
1239.000000	63.031744 
1238.000000	63.024973 
1237.000000	63.021755 
1236.000000	63.023877 
1235.000000	63.032031 
1234.000000	63.045644 
1233.000000	63.063359 
1232.000000	63.083505 
1231.000000	63.104438 
1230.000000	63.125133 
1229.000000	63.144946 
1228.000000	63.163542 
1227.000000	63.180375 
1226.000000	63.194584 
1225.000000	63.204741 
1224.000000	63.209176 
1223.000000	63.206028 
1222.000000	63.193869 
1221.000000	63.172388 
1220.000000	63.142442 
1219.000000	63.106441 
1218.000000	63.067889 
1217.000000	63.030910 
1216.000000	62.999391 
1215.000000	62.976384 
1214.000000	62.963867 
1213.000000	62.962031 
1212.000000	62.970066 
1211.000000	62.986326 
1210.000000	63.008809 
1209.000000	63.035535 
1208.000000	63.064646 
1207.000000	63.094377 
1206.000000	63.123059 
1205.000000	63.148856 
1204.000000	63.170003 
1203.000000	63.184714 
1202.000000	63.191771 
1201.000000	63.190770 
1200.000000	63.182449 
1199.000000	63.168478 
1198.000000	63.151478 
1197.000000	63.134288 
1196.000000	63.119435 
1195.000000	63.108348 
1194.000000	63.101339 
1193.000000	63.097453 
1192.000000	63.095021 
1191.000000	63.092112 
1190.000000	63.087058 
1189.000000	63.079071 
1188.000000	63.067960 
1187.000000	63.054585 
1186.000000	63.040018 
1185.000000	63.025832 
1184.000000	63.013458 
1183.000000	63.004422 
1182.000000	62.999868 
1181.000000	63.000559 
1180.000000	63.006758 
1179.000000	63.018131 
1178.000000	63.033747 
1177.000000	63.052272 
1176.000000	63.072013 
1175.000000	63.091444 
1174.000000	63.108992 
1173.000000	63.123917 
1172.000000	63.136219 
1171.000000	63.146543 
1170.000000	63.155722 
1169.000000	63.164591 
1168.000000	63.173317 
1167.000000	63.181424 
1166.000000	63.187503 
1165.000000	63.189983 
1164.000000	63.187050 
1163.000000	63.177800 
1162.000000	63.161754 
1161.000000	63.139414 
1160.000000	63.111925 
1159.000000	63.081002 
1158.000000	63.048863 
1157.000000	63.017678 
1156.000000	62.989807 
1155.000000	62.967562 
1154.000000	62.952613 
1153.000000	62.945842 
1152.000000	62.946963 
1151.000000	62.954521 
1150.000000	62.966060 
1149.000000	62.978267 
1148.000000	62.987804 
1147.000000	62.991714 
1146.000000	62.988162 
1145.000000	62.976813 
1144.000000	62.958645 
1143.000000	62.935590 
1142.000000	62.910413 
1141.000000	62.885832 
1140.000000	62.863779 
1139.000000	62.845277 
1138.000000	62.830305 
1137.000000	62.818217 
1136.000000	62.808179 
1135.000000	62.799668 
1134.000000	62.792921 
1133.000000	62.789273 
1132.000000	62.790489 
1131.000000	62.798666 
1130.000000	62.815308 
1129.000000	62.840890 
1128.000000	62.874412 
1127.000000	62.913560 
1126.000000	62.954902 
1125.000000	62.994456 
1124.000000	63.028764 
1123.000000	63.054800 
1122.000000	63.070392 
1121.000000	63.074445 
1120.000000	63.067197 
1119.000000	63.049721 
1118.000000	63.023614 
1117.000000	62.991118 
1116.000000	62.954568 
1115.000000	62.916278 
1114.000000	62.878370 
1113.000000	62.842679 
1112.000000	62.810611 
1111.000000	62.783432 
1110.000000	62.762069 
1109.000000	62.747240 
1108.000000	62.739253 
1107.000000	62.737846 
1106.000000	62.742257 
1105.000000	62.750864 
1104.000000	62.761807 
1103.000000	62.772560 
1102.000000	62.781357 
1101.000000	62.786650 
1100.000000	62.788724 
1099.000000	62.789011 
1098.000000	62.790489 
1097.000000	62.796592 
1096.000000	62.810730 
1095.000000	62.834978 
1094.000000	62.869262 
1093.000000	62.910985 
1092.000000	62.955331 
1091.000000	62.996196 
1090.000000	63.027286 
1089.000000	63.043665 
1088.000000	63.042783 
1087.000000	63.025021 
1086.000000	62.993693 
1085.000000	62.954115 
1084.000000	62.912487 
1083.000000	62.874555 
1082.000000	62.844657 
1081.000000	62.825179 
1080.000000	62.816452 
1079.000000	62.817263 
1078.000000	62.825846 
1077.000000	62.840056 
1076.000000	62.858033 
1075.000000	62.878179 
1074.000000	62.899041 
1073.000000	62.919163 
1072.000000	62.936782 
1071.000000	62.949919 
1070.000000	62.956666 
1069.000000	62.955737 
1068.000000	62.947130 
1067.000000	62.932276 
1066.000000	62.913823 
1065.000000	62.895441 
1064.000000	62.880754 
1063.000000	62.872457 
1062.000000	62.871503 
1061.000000	62.876605 
1060.000000	62.884569 
1059.000000	62.891054 
1058.000000	62.891769 
1057.000000	62.883472 
1056.000000	62.865161 
1055.000000	62.838435 
1054.000000	62.807321 
1053.000000	62.777161 
1052.000000	62.753772 
1051.000000	62.742018 
1050.000000	62.744641 
1049.000000	62.761831 
1048.000000	62.791061 
1047.000000	62.827825 
1046.000000	62.866568 
1045.000000	62.901973 
1044.000000	62.929511 
1043.000000	62.946271 
1042.000000	62.950778 
1041.000000	62.942934 
1040.000000	62.923741 
1039.000000	62.895011 
1038.000000	62.859296 
1037.000000	62.819957 
1036.000000	62.781000 
1035.000000	62.746691 
1034.000000	62.721300 
1033.000000	62.708473 
1032.000000	62.710523 
1031.000000	62.728047 
1030.000000	62.759494 
1029.000000	62.801527 
1028.000000	62.849497 
1027.000000	62.897992 
1026.000000	62.941765 
1025.000000	62.976264 
1024.000000	62.998199 
1023.000000	63.005757 
1022.000000	62.998723 
1021.000000	62.978696 
1020.000000	62.948608 
1019.000000	62.912726 
1018.000000	62.876009 
1017.000000	62.843489 
1016.000000	62.819790 
1015.000000	62.807798 
1014.000000	62.808489 
1013.000000	62.819933 
1012.000000	62.837862 
1011.000000	62.856292 
1010.000000	62.869143 
1009.000000	62.871503 
1008.000000	62.861013 
1007.000000	62.838792 
1006.000000	62.809348 
1005.000000	62.779593 
1004.000000	62.756872 
1003.000000	62.747001 
1002.000000	62.752485 
1001.000000	62.771868 
1000.000000	62.799930 
999.000000	 62.828946 
998.000000	 62.850856 
997.000000	 62.859344 
996.000000	 62.851500 
995.000000	 62.828707 
994.000000	 62.796187 
993.000000	 62.761187 
992.000000	 62.731099 
991.000000	 62.711691 
990.000000	 62.705421 
989.000000	 62.711238 
988.000000	 62.724804 
987.000000	 62.739968 
986.000000	 62.750363 
985.000000	 62.751150 
984.000000	 62.739682 
983.000000	 62.716054 
982.000000	 62.682437 
981.000000	 62.642574 
980.000000	 62.600755 
979.000000	 62.561225 
978.000000	 62.527656 
977.000000	 62.502694 
976.000000	 62.488245 
975.000000	 62.485003 
974.000000	 62.492775 
973.000000	 62.510132 
972.000000	 62.534213 
971.000000	 62.561178 
970.000000	 62.586212 
969.000000	 62.604999 
968.000000	 62.613964 
967.000000	 62.611746 
966.000000	 62.598896 
965.000000	 62.578606 
964.000000	 62.555766 
963.000000	 62.535715 
962.000000	 62.523031 
961.000000	 62.520313 
960.000000	 62.527585 
959.000000	 62.542200 
958.000000	 62.559890 
957.000000	 62.575912 
956.000000	 62.586498 
955.000000	 62.589478 
954.000000	 62.584996 
953.000000	 62.574911 
952.000000	 62.562346 
951.000000	 62.550544 
950.000000	 62.542128 
949.000000	 62.538409 
948.000000	 62.539339 
947.000000	 62.544250 
946.000000	 62.551641 
945.000000	 62.559866 
944.000000	 62.567138 
943.000000	 62.572145 
942.000000	 62.573313 
941.000000	 62.568926 
940.000000	 62.557315 
939.000000	 62.537312 
938.000000	 62.508511 
937.000000	 62.471795 
936.000000	 62.429189 
935.000000	 62.383794 
934.000000	 62.338566 
933.000000	 62.295937 
932.000000	 62.257003 
931.000000	 62.221789 
930.000000	 62.189602 
929.000000	 62.160062 
928.000000	 62.133908 
927.000000	 62.113237 
926.000000	 62.101125 
925.000000	 62.101030 
924.000000	 62.115025 
923.000000	 62.143421 
922.000000	 62.183475 
921.000000	 62.230443 
920.000000	 62.277269 
919.000000	 62.317943 
918.000000	 62.348771 
917.000000	 62.369823 
916.000000	 62.384462 
915.000000	 62.398314 
914.000000	 62.417364 
913.000000	 62.445807 
912.000000	 62.484550 
911.000000	 62.531018 
910.000000	 62.579989 
909.000000	 62.624859 
908.000000	 62.660264 
907.000000	 62.682342 
906.000000	 62.689948 
905.000000	 62.684488 
904.000000	 62.669658 
903.000000	 62.650895 
902.000000	 62.634158 
901.000000	 62.625670 
900.000000	 62.630105 
899.000000	 62.650513 
898.000000	 62.686252 
897.000000	 62.733745 
896.000000	 62.785148 
895.000000	 62.829685 
894.000000	 62.854981 
893.000000	 62.849307 
892.000000	 62.804985 
891.000000	 62.720227 
890.000000	 62.600994 
889.000000	 62.460350 
888.000000	 62.316632 
887.000000	 62.189841 
886.000000	 62.097287 
885.000000	 62.050104 
884.000000	 62.051033 
883.000000	 62.094473 
882.000000	 62.167954 
881.000000	 62.255287 
880.000000	 62.340140 
879.000000	 62.409353 
878.000000	 62.454724 
877.000000	 62.473750 
876.000000	 62.469005 
875.000000	 62.446308 
874.000000	 62.412571 
873.000000	 62.373709 
872.000000	 62.333917 
871.000000	 62.294864 
870.000000	 62.257122 
869.000000	 62.220358 
868.000000	 62.184882 
867.000000	 62.151789 
866.000000	 62.123274 
865.000000	 62.102150 
864.000000	 62.090945 
863.000000	 62.091732 
862.000000	 62.104630 
861.000000	 62.128233 
860.000000	 62.159419 
859.000000	 62.194299 
858.000000	 62.228989 
857.000000	 62.260198 
856.000000	 62.285566 
855.000000	 62.304019 
854.000000	 62.315988 
853.000000	 62.322545 
852.000000	 62.324762 
851.000000	 62.323355 
850.000000	 62.318634 
849.000000	 62.310433 
848.000000	 62.298321 
847.000000	 62.282013 
846.000000	 62.261343 
845.000000	 62.236595 
844.000000	 62.208414 
843.000000	 62.177729 
842.000000	 62.145423 
841.000000	 62.112188 
840.000000	 62.078642 
839.000000	 62.045359 
838.000000	 62.013244 
837.000000	 61.983084 
836.000000	 61.956071 
835.000000	 61.933493 
834.000000	 61.916875 
833.000000	 61.907577 
832.000000	 61.906409 
831.000000	 61.913204 
830.000000	 61.926531 
829.000000	 61.943483 
828.000000	 61.960387 
827.000000	 61.972928 
826.000000	 61.978101 
825.000000	 61.974620 
824.000000	 61.963653 
823.000000	 61.948251 
822.000000	 61.932444 
821.000000	 61.920189 
820.000000	 61.914014 
819.000000	 61.914587 
818.000000	 61.920571 
817.000000	 61.929321 
816.000000	 61.938238 
815.000000	 61.945271 
814.000000	 61.949753 
813.000000	 61.952114 
812.000000	 61.953902 
811.000000	 61.956620 
810.000000	 61.960983 
809.000000	 61.966252 
808.000000	 61.970615 
807.000000	 61.971378 
806.000000	 61.966109 
805.000000	 61.953306 
804.000000	 61.933302 
803.000000	 61.908054 
802.000000	 61.880779 
801.000000	 61.855101 
800.000000	 61.834025 
799.000000	 61.819672 
798.000000	 61.812853 
797.000000	 61.813068 
796.000000	 61.818647 
795.000000	 61.827540 
794.000000	 61.837816 
793.000000	 61.847782 
792.000000	 61.856412 
791.000000	 61.863088 
790.000000	 61.868095 
789.000000	 61.872029 
788.000000	 61.876082 
787.000000	 61.881375 
786.000000	 61.888813 
785.000000	 61.898946 
784.000000	 61.911725 
783.000000	 61.926555 
782.000000	 61.942148 
781.000000	 61.956810 
780.000000	 61.968779 
779.000000	 61.976742 
778.000000	 61.979866 
777.000000	 61.978459 
776.000000	 61.972594 
775.000000	 61.962461 
774.000000	 61.947369 
773.000000	 61.926174 
772.000000	 61.897087 
771.000000	 61.858797 
770.000000	 61.810660 
769.000000	 61.753869 
768.000000	 61.691880 
767.000000	 61.630463 
766.000000	 61.576914 
765.000000	 61.539053 
764.000000	 61.524105 
763.000000	 61.537194 
762.000000	 61.579823 
761.000000	 61.649155 
760.000000	 61.738204 
759.000000	 61.836838 
758.000000	 61.932539 
757.000000	 62.013363 
756.000000	 62.069916 
755.000000	 62.097215 
754.000000	 62.095189 
753.000000	 62.068939 
752.000000	 62.027716 
751.000000	 61.982226 
750.000000	 61.943268 
749.000000	 61.917734 
748.000000	 61.908006 
747.000000	 61.910820 
746.000000	 61.919021 
745.000000	 61.923074 
744.000000	 61.914086 
743.000000	 61.885833 
742.000000	 61.836743 
741.000000	 61.769795 
740.000000	 61.691951 
739.000000	 61.612176 
738.000000	 61.539149 
737.000000	 61.479520 
736.000000	 61.436486 
735.000000	 61.409735 
734.000000	 61.395549 
733.000000	 61.387944 
732.000000	 61.380147 
731.000000	 61.365842 
730.000000	 61.341094 
729.000000	 61.304235 
728.000000	 61.257529 
727.000000	 61.204838 
726.000000	 61.153030 
725.000000	 61.110115 
724.000000	 61.083912 
723.000000	 61.080360 
722.000000	 61.101889 
721.000000	 61.147069 
720.000000	 61.209845 
719.000000	 61.280632 
718.000000	 61.347770 
717.000000	 61.399841 
716.000000	 61.428141 
715.000000	 61.428403 
714.000000	 61.401534 
713.000000	 61.353158 
712.000000	 61.292529 
711.000000	 61.230230 
710.000000	 61.176276 
709.000000	 61.137962 
708.000000	 61.119556 
707.000000	 61.121392 
706.000000	 61.140513 
705.000000	 61.171793 
704.000000	 61.209630 
703.000000	 61.248874 
702.000000	 61.285448 
701.000000	 61.316466 
700.000000	 61.339974 
699.000000	 61.354446 
698.000000	 61.358261 
697.000000	 61.349630 
696.000000	 61.327219 
695.000000	 61.290478 
694.000000	 61.240363 
693.000000	 61.179852 
692.000000	 61.114239 
691.000000	 61.049914 
690.000000	 60.993456 
689.000000	 60.950303 
688.000000	 60.923552 
687.000000	 60.913133 
686.000000	 60.916256 
685.000000	 60.927677 
684.000000	 60.941386 
683.000000	 60.952138 
682.000000	 60.956764 
681.000000	 60.954546 
680.000000	 60.947012 
679.000000	 60.936665 
678.000000	 60.926342 
677.000000	 60.918092 
676.000000	 60.912418 
675.000000	 60.908341 
674.000000	 60.903906 
673.000000	 60.897302 
672.000000	 60.887408 
671.000000	 60.874652 
670.000000	 60.860729 
669.000000	 60.848164 
668.000000	 60.839653 
667.000000	 60.837054 
666.000000	 60.841345 
665.000000	 60.852050 
664.000000	 60.867953 
663.000000	 60.887289 
662.000000	 60.908412 
661.000000	 60.930037 
660.000000	 60.950803 
659.000000	 60.969281 
658.000000	 60.983705 
657.000000	 60.992145 
656.000000	 60.992670 
655.000000	 60.984063 
654.000000	 60.966563 
653.000000	 60.942220 
652.000000	 60.915231 
651.000000	 60.891151 
650.000000	 60.875582 
649.000000	 60.872721 
648.000000	 60.884189 
647.000000	 60.908865 
646.000000	 60.942721 
645.000000	 60.980224 
644.000000	 61.015534 
643.000000	 61.044216 
642.000000	 61.064338 
641.000000	 61.076235 
640.000000	 61.081743 
639.000000	 61.083006 
638.000000	 61.081528 
637.000000	 61.077404 
636.000000	 61.069631 
635.000000	 61.056566 
634.000000	 61.037039 
633.000000	 61.011338 
632.000000	 60.981559 
631.000000	 60.950994 
630.000000	 60.923147 
629.000000	 60.900497 
628.000000	 60.883784 
627.000000	 60.870742 
626.000000	 60.857558 
625.000000	 60.839748 
624.000000	 60.814619 
623.000000	 60.782098 
622.000000	 60.745906 
621.000000	 60.712218 
620.000000	 60.689187 
619.000000	 60.684037 
618.000000	 60.701894 
617.000000	 60.743951 
616.000000	 60.806822 
615.000000	 60.883593 
614.000000	 60.964155 
613.000000	 61.037564 
612.000000	 61.093902 
611.000000	 61.126136 
610.000000	 61.131072 
609.000000	 61.109828 
608.000000	 61.067152 
607.000000	 61.009955 
606.000000	 60.945439 
605.000000	 60.879397 
604.000000	 60.815286 
603.000000	 60.754251 
602.000000	 60.695314 
601.000000	 60.636997 
600.000000	 60.578393 
599.000000	 60.520529 
598.000000	 60.466456 
597.000000	 60.421586 
596.000000	 60.391473 
595.000000	 60.380983 
594.000000	 60.391879 
593.000000	 60.422873 
592.000000	 60.468745 
591.000000	 60.522294 
590.000000	 60.575151 
589.000000	 60.620737 
588.000000	 60.654807 
587.000000	 60.677075 
586.000000	 60.690736 
585.000000	 60.700941 
584.000000	 60.712814 
583.000000	 60.730218 
582.000000	 60.754680 
581.000000	 60.784435 
580.000000	 60.815072 
579.000000	 60.841298 
578.000000	 60.858559 
577.000000	 60.864090 
576.000000	 60.857224 
575.000000	 60.838532 
574.000000	 60.809779 
573.000000	 60.772323 
572.000000	 60.728263 
571.000000	 60.680007 
570.000000	 60.631036 
569.000000	 60.586285 
568.000000	 60.551404 
567.000000	 60.532140 
566.000000	 60.532498 
565.000000	 60.553574 
564.000000	 60.592675 
563.000000	 60.643672 
562.000000	 60.697197 
561.000000	 60.743331 
560.000000	 60.771584 
559.000000	 60.773253 
558.000000	 60.742402 
557.000000	 60.676932 
556.000000	 60.579490 
555.000000	 60.457348 
554.000000	 60.321021 
553.000000	 60.182690 
552.000000	 60.055184 
551.000000	 59.949731 
550.000000	 59.874010 
549.000000	 59.830904 
548.000000	 59.818339 
547.000000	 59.829545 
546.000000	 59.854292 
545.000000	 59.880781 
544.000000	 59.897208 
543.000000	 59.894466 
542.000000	 59.866762 
541.000000	 59.813928 
540.000000	 59.739446 
539.000000	 59.652161 
538.000000	 59.562730 
537.000000	 59.484362 
536.000000	 59.429979 
535.000000	 59.410285 
534.000000	 59.432196 
533.000000	 59.495854 
532.000000	 59.594655 
531.000000	 59.714627 
530.000000	 59.837412 
529.000000	 59.941005 
528.000000	 60.003733 
527.000000	 60.008978 
526.000000	 59.948706 
525.000000	 59.825515 
524.000000	 59.652590 
523.000000	 59.451889 
522.000000	 59.250235 
521.000000	 59.074306 
520.000000	 58.945703 
519.000000	 58.877873 
518.000000	 58.873915 
517.000000	 58.928513 
516.000000	 59.028077 
515.000000	 59.155559 
514.000000	 59.291458 
513.000000	 59.416222 
512.000000	 59.513258 
511.000000	 59.568262 
510.000000	 59.574556 
509.000000	 59.530544 
508.000000	 59.445047 
507.000000	 59.333848 
506.000000	 59.221339 
505.000000	 59.136152 
504.000000	 59.106016 
503.000000	 59.152054 
502.000000	 59.282732 
501.000000	 59.491586 
500.000000	 59.754943 
499.000000	 60.035872 
498.000000	 60.291981 
497.000000	 60.483884 
496.000000	 60.582566 
495.000000	 60.575151 
494.000000	 60.466098 
493.000000	 60.276174 
492.000000	 60.036134 
491.000000	 59.781551 
490.000000	 59.546637 
489.000000	 59.358596 
488.000000	 59.236717 
487.000000	 59.188389 
486.000000	 59.211659 
485.000000	 59.295105 
484.000000	 59.421563 
483.000000	 59.570240 
482.000000	 59.720540 
481.000000	 59.852910 
480.000000	 59.949874 
479.000000	 59.997105 
478.000000	 59.984159 
477.000000	 59.904885 
476.000000	 59.758400 
475.000000	 59.548902 
474.000000	 59.286046 
473.000000	 58.985185 
472.000000	 58.666610 
471.000000	 58.353185 
470.000000	 58.067345 
469.000000	 57.826590 
468.000000	 57.640814 
467.000000	 57.511663 
466.000000	 57.433342 
465.000000	 57.390737 
464.000000	 57.366704 
463.000000	 57.345581 
462.000000	 57.318830 
461.000000	 57.284832 
460.000000	 57.249736 
459.000000	 57.221436 
458.000000	 57.207894 
457.000000	 57.212615 
456.000000	 57.233023 
455.000000	 57.258057 
454.000000	 57.274556 
453.000000	 57.270836 
452.000000	 57.242345 
451.000000	 57.192969 
450.000000	 57.136940 
449.000000	 57.096099 
448.000000	 57.091331 
447.000000	 57.135653 
446.000000	 57.228469 
445.000000	 57.353568 
444.000000	 57.479643 
443.000000	 57.567024 
442.000000	 57.575297 
441.000000	 57.473897 
440.000000	 57.250809 
439.000000	 56.917715 
438.000000	 56.505322 
437.000000	 56.060743 
436.000000	 55.637550 
435.000000	 55.287528 
434.000000	 55.050253 
433.000000	 54.948425 
432.000000	 54.983544 
431.000000	 55.140805 
430.000000	 55.390095 
429.000000	 55.699300 
428.000000	 56.037092 
427.000000	 56.383705 
426.000000	 56.728577 
425.000000	 57.072257 
424.000000	 57.414340 
423.000000	 57.760095 
422.000000	 58.117771 
421.000000	 58.482694 
420.000000	 58.831262 
419.000000	 59.135270 
418.000000	 59.367418 
417.000000	 59.484291 
416.000000	 59.435391 
415.000000	 59.180235 
414.000000	 58.697414 
413.000000	 58.000397 
412.000000	 57.139897 
411.000000	 56.171369 
410.000000	 55.167484 
409.000000	 54.237365 
408.000000	 53.490066 
407.000000	 53.027391 
406.000000	 52.900433 
405.000000	 53.075861 
404.000000	 53.462862 
403.000000	 53.901934 
402.000000	 54.259800 
401.000000	 54.449272 
400.000000	 54.492998 
399.000000	 54.548358 
398.000000	 54.810810 
397.000000	 55.402135 
396.000000	 56.410765 
395.000000	 57.815909 
394.000000	 59.643316 
393.000000	 61.966824 
392.000000	 64.905786 
391.000000	 68.562459 
390.000000	 72.867727 
389.000000	 77.513074 
388.000000	 81.881833 
387.000000	 85.152506 
386.000000	 86.505103 
385.000000	 85.331273 
384.000000	 81.437039 
383.000000	 75.126338 
382.000000	 67.212843 
381.000000	 58.829736 
380.000000	 51.161122 
379.000000	 45.234203 
378.000000	 41.590571 
377.000000	 40.422487 
376.000000	 41.488862 
375.000000	 44.480538 
374.000000	 49.212980 
373.000000	 55.635857 
372.000000	 63.925886 
371.000000	 74.012708 
370.000000	 85.361695 

