PE IR       SPECTRUM    SPECTRUM    ASCII       PEDS        1.60        
  -1
C-9B64~1.ASC
17/03/27
17:53:07.00
17/03/27
17:53:07.00
tln
$C-4040-8_t0042$<tbV0>[-7.8,-5.2,8.0,0.0,27,1,0]
370.000000
64









2002,4.07    
MIRTGS : RIGHTBACK : INTERNAL 2
MIR : ON : INTERNAL 2
OPTKBR

0.200000
8
8.000000
FILLER
RATIO
SPECTRUM
UNLOCKED 256

DOUBLE
64
COMBINED
1
0
0


1.000000
RATIO


1
0
TRUE
51149
0
LEFT NOT FITTED RIGHT NOT FITTED 0
NONE
NONE
15600
12.000000
4.427000
51148
TRUE
1 0 8 72 0 0 0 0 

15798.010000






#HDR
-1
-1
#GR
CM-1
%T
0.00002384185791015625
0.0
5000.000000
-1.000000
4631
8
115.776348
43.906164
#DATA
5000.000000	64.713168  
4999.000000	64.684987  
4998.000000	64.669537  
4997.000000	64.668846  
4996.000000	64.682269  
4995.000000	64.706993  
4994.000000	64.737248  
4993.000000	64.765572  
4992.000000	64.783406  
4991.000000	64.783215  
4990.000000	64.759087  
4989.000000	64.707612  
4988.000000	64.629054  
4987.000000	64.527654  
4986.000000	64.410734  
4985.000000	64.287734  
4984.000000	64.168906  
4983.000000	64.064025  
4982.000000	63.981008  
4981.000000	63.925313  
4980.000000	63.898992  
4979.000000	63.901782  
4978.000000	63.931012  
4977.000000	63.983321  
4976.000000	64.055395  
4975.000000	64.144587  
4974.000000	64.248442  
4973.000000	64.363479  
4972.000000	64.484167  
4971.000000	64.602136  
4970.000000	64.707016  
4969.000000	64.787077  
4968.000000	64.831018  
4967.000000	64.830589  
4966.000000	64.783596  
4965.000000	64.694476  
4964.000000	64.574313  
4963.000000	64.439082  
4962.000000	64.306926  
4961.000000	64.194869  
4960.000000	64.115810  
4959.000000	64.076733  
4958.000000	64.078140  
4957.000000	64.115047  
4956.000000	64.178586  
4955.000000	64.258265  
4954.000000	64.343690  
4953.000000	64.424681  
4952.000000	64.492630  
4951.000000	64.540076  
4950.000000	64.562630  
4949.000000	64.558506  
4948.000000	64.530873  
4947.000000	64.486908  
4946.000000	64.438009  
4945.000000	64.398789  
4944.000000	64.383411  
4943.000000	64.403104  
4942.000000	64.462280  
4941.000000	64.558601  
4940.000000	64.681267  
4939.000000	64.813590  
4938.000000	64.936375  
4937.000000	65.032458  
4936.000000	65.090131  
4935.000000	65.105676  
4934.000000	65.083456  
4933.000000	65.034222  
4932.000000	64.972329  
4931.000000	64.912199  
4930.000000	64.865064  
4929.000000	64.836764  
4928.000000	64.828372  
4927.000000	64.836740  
4926.000000	64.856266  
4925.000000	64.880466  
4924.000000	64.903211  
4923.000000	64.919710  
4922.000000	64.926600  
4921.000000	64.922094  
4920.000000	64.904546  
4919.000000	64.873409  
4918.000000	64.828801  
4917.000000	64.772820  
4916.000000	64.709329  
4915.000000	64.644002  
4914.000000	64.583826  
4913.000000	64.535641  
4912.000000	64.505028  
4911.000000	64.494895  
4910.000000	64.504456  
4909.000000	64.530062  
4908.000000	64.565205  
4907.000000	64.603662  
4906.000000	64.640688  
4905.000000	64.673924  
4904.000000	64.703178  
4903.000000	64.729976  
4902.000000	64.756131  
4901.000000	64.781975  
4900.000000	64.805555  
4899.000000	64.822554  
4898.000000	64.827322  
4897.000000	64.815354  
4896.000000	64.784860  
4895.000000	64.738106  
4894.000000	64.681625  
4893.000000	64.624810  
4892.000000	64.578199  
4891.000000	64.550757  
4890.000000	64.548039  
4889.000000	64.570593  
4888.000000	64.614534  
4887.000000	64.672732  
4886.000000	64.736819  
4885.000000	64.799571  
4884.000000	64.855360  
4883.000000	64.901089  
4882.000000	64.935326  
4881.000000	64.957618  
4880.000000	64.967679  
4879.000000	64.964818  
4878.000000	64.948463  
4877.000000	64.918637  
4876.000000	64.877200  
4875.000000	64.828133  
4874.000000	64.777731  
4873.000000	64.733648  
4872.000000	64.703726  
4871.000000	64.693880  
4870.000000	64.706301  
4869.000000	64.738368  
4868.000000	64.782762  
4867.000000	64.828872  
4866.000000	64.864873  
4865.000000	64.880752  
4864.000000	64.870524  
4863.000000	64.833879  
4862.000000	64.776349  
4861.000000	64.707732  
4860.000000	64.639425  
4859.000000	64.581704  
4858.000000	64.541292  
4857.000000	64.519810  
4856.000000	64.513826  
4855.000000	64.516353  
4854.000000	64.519309  
4853.000000	64.516353  
4852.000000	64.505076  
4851.000000	64.487361  
4850.000000	64.468598  
4849.000000	64.455652  
4848.000000	64.454340  
4847.000000	64.467144  
4846.000000	64.492130  
4845.000000	64.523720  
4844.000000	64.554262  
4843.000000	64.576578  
4842.000000	64.586377  
4841.000000	64.583468  
4840.000000	64.571905  
4839.000000	64.558577  
4838.000000	64.551019  
4837.000000	64.555025  
4836.000000	64.573097  
4835.000000	64.603376  
4834.000000	64.640522  
4833.000000	64.677691  
4832.000000	64.708590  
4831.000000	64.729380  
4830.000000	64.739656  
4829.000000	64.742016  
4828.000000	64.741301  
4827.000000	64.742732  
4826.000000	64.749932  
4825.000000	64.763617  
4824.000000	64.781451  
4823.000000	64.799022  
4822.000000	64.810752  
4821.000000	64.811611  
4820.000000	64.798760  
4819.000000	64.772224  
4818.000000	64.734458  
4817.000000	64.689779  
4816.000000	64.643192  
4815.000000	64.598941  
4814.000000	64.559364  
4813.000000	64.524650  
4812.000000	64.493107  
4811.000000	64.462256  
4810.000000	64.430141  
4809.000000	64.396190  
4808.000000	64.361405  
4807.000000	64.328455  
4806.000000	64.300942  
4805.000000	64.282679  
4804.000000	64.275908  
4803.000000	64.281344  
4802.000000	64.297795  
4801.000000	64.322543  
4800.000000	64.351820  
4799.000000	64.381885  
4798.000000	64.409732  
4797.000000	64.433741  
4796.000000	64.453864  
4795.000000	64.471173  
4794.000000	64.487552  
4793.000000	64.505410  
4792.000000	64.526939  
4791.000000	64.553856  
4790.000000	64.586758  
4789.000000	64.625453  
4788.000000	64.668297  
4787.000000	64.712691  
4786.000000	64.754772  
4785.000000	64.790463  
4784.000000	64.815330  
4783.000000	64.825415  
4782.000000	64.817833  
4781.000000	64.791727  
4780.000000	64.748263  
4779.000000	64.690232  
4778.000000	64.622378  
4777.000000	64.550757  
4776.000000	64.482259  
4775.000000	64.423537  
4774.000000	64.380836  
4773.000000	64.358949  
4772.000000	64.361333  
4771.000000	64.389061  
4770.000000	64.440941  
4769.000000	64.513206  
4768.000000	64.599919  
4767.000000	64.693427  
4766.000000	64.784932  
4765.000000	64.865374  
4764.000000	64.927148  
4763.000000	64.964747  
4762.000000	64.975595  
4761.000000	64.960265  
4760.000000	64.922475  
4759.000000	64.868211  
4758.000000	64.804816  
4757.000000	64.739990  
4756.000000	64.681220  
4755.000000	64.634704  
4754.000000	64.604973  
4753.000000	64.594388  
4752.000000	64.603281  
4751.000000	64.629960  
4750.000000	64.670729  
4749.000000	64.720964  
4748.000000	64.775085  
4747.000000	64.827942  
4746.000000	64.875149  
4745.000000	64.913702  
4744.000000	64.941740  
4743.000000	64.958953  
4742.000000	64.966416  
4741.000000	64.965724  
4740.000000	64.958500  
4739.000000	64.946079  
4738.000000	64.928936  
4737.000000	64.906859  
4736.000000	64.878916  
4735.000000	64.843988  
4734.000000	64.801311  
4733.000000	64.751315  
4732.000000	64.695763  
4731.000000	64.637470  
4730.000000	64.580178  
4729.000000	64.527559  
4728.000000	64.483070  
4727.000000	64.448738  
4726.000000	64.425826  
4725.000000	64.414215  
4724.000000	64.413428  
4723.000000	64.422607  
4722.000000	64.441370  
4721.000000	64.469695  
4720.000000	64.507627  
4719.000000	64.554572  
4718.000000	64.608836  
4717.000000	64.667439  
4716.000000	64.725875  
4715.000000	64.778661  
4714.000000	64.820909  
4713.000000	64.849281  
4712.000000	64.862847  
4711.000000	64.863085  
4710.000000	64.853620  
4709.000000	64.839196  
4708.000000	64.824414  
4707.000000	64.812731  
4706.000000	64.805769  
4705.000000	64.803099  
4704.000000	64.803266  
4703.000000	64.804053  
4702.000000	64.803433  
4701.000000	64.799952  
4700.000000	64.793133  
4699.000000	64.783239  
4698.000000	64.770507  
4697.000000	64.755439  
4696.000000	64.738273  
4695.000000	64.719271  
4694.000000	64.698505  
4693.000000	64.676523  
4692.000000	64.654779  
4691.000000	64.634704  
4690.000000	64.617490  
4689.000000	64.603757  
4688.000000	64.593172  
4687.000000	64.584302  
4686.000000	64.574790  
4685.000000	64.562034  
4684.000000	64.544057  
4683.000000	64.520788  
4682.000000	64.494252  
4681.000000	64.467906  
4680.000000	64.445710  
4679.000000	64.431118  
4678.000000	64.425826  
4677.000000	64.428973  
4676.000000	64.437580  
4675.000000	64.446949  
4674.000000	64.452505  
4673.000000	64.450979  
4672.000000	64.441800  
4671.000000	64.426779  
4670.000000	64.410710  
4669.000000	64.399313  
4668.000000	64.399409  
4667.000000	64.416527  
4666.000000	64.454746  
4665.000000	64.515614  
4664.000000	64.598178  
4663.000000	64.698934  
4662.000000	64.811778  
4661.000000	64.928960  
4660.000000	65.040588  
4659.000000	65.135765  
4658.000000	65.203571  
4657.000000	65.235018  
4656.000000	65.225124  
4655.000000	65.174174  
4654.000000	65.088844  
4653.000000	64.980840  
4652.000000	64.865255  
4651.000000	64.757561  
4650.000000	64.671158  
4649.000000	64.614820  
4648.000000	64.592289  
4647.000000	64.601588  
4646.000000	64.636611  
4645.000000	64.688563  
4644.000000	64.747643  
4643.000000	64.805245  
4642.000000	64.854407  
4641.000000	64.891338  
4640.000000	64.914464  
4639.000000	64.925003  
4638.000000	64.925479  
4637.000000	64.919495  
4636.000000	64.910721  
4635.000000	64.901566  
4634.000000	64.893317  
4633.000000	64.884686  
4632.000000	64.872884  
4631.000000	64.853644  
4630.000000	64.823079  
4629.000000	64.779829  
4628.000000	64.726114  
4627.000000	64.667534  
4626.000000	64.611887  
4625.000000	64.567255  
4624.000000	64.539551  
4623.000000	64.529967  
4622.000000	64.535641  
4621.000000	64.549612  
4620.000000	64.564204  
4619.000000	64.572930  
4618.000000	64.573717  
4617.000000	64.568972  
4616.000000	64.565610  
4615.000000	64.572429  
4614.000000	64.597296  
4613.000000	64.643979  
4612.000000	64.710474  
4611.000000	64.788722  
4610.000000	64.866900  
4609.000000	64.932584  
4608.000000	64.975953  
4607.000000	64.992666  
4606.000000	64.983916  
4605.000000	64.955759  
4604.000000	64.916682  
4603.000000	64.874958  
4602.000000	64.836573  
4601.000000	64.803671  
4600.000000	64.775252  
4599.000000	64.747810  
4598.000000	64.717316  
4597.000000	64.680743  
4596.000000	64.637207  
4595.000000	64.588546  
4594.000000	64.538145  
4593.000000	64.490723  
4592.000000	64.450192  
4591.000000	64.419960  
4590.000000	64.401078  
4589.000000	64.393615  
4588.000000	64.396095  
4587.000000	64.406800  
4586.000000	64.423918  
4585.000000	64.446210  
4584.000000	64.472579  
4583.000000	64.502501  
4582.000000	64.535212  
4581.000000	64.569973  
4580.000000	64.605617  
4579.000000	64.640307  
4578.000000	64.671587  
4577.000000	64.696311  
4576.000000	64.711213  
4575.000000	64.713621  
4574.000000	64.702105  
4573.000000	64.676713  
4572.000000	64.639496  
4571.000000	64.594554  
4570.000000	64.547467  
4569.000000	64.504814  
4568.000000	64.472794  
4567.000000	64.456009  
4566.000000	64.456582  
4565.000000	64.473891  
4564.000000	64.504790  
4563.000000	64.543962  
4562.000000	64.585733  
4561.000000	64.624643  
4560.000000	64.657568  
4559.000000	64.683818  
4558.000000	64.705491  
4557.000000	64.726138  
4556.000000	64.750385  
4555.000000	64.782238  
4554.000000	64.823818  
4553.000000	64.874553  
4552.000000	64.930486  
4551.000000	64.984846  
4550.000000	65.029144  
4549.000000	65.055060  
4548.000000	65.055584  
4547.000000	65.026903  
4546.000000	64.968967  
4545.000000	64.886498  
4544.000000	64.787983  
4543.000000	64.685082  
4542.000000	64.590597  
4541.000000	64.516329  
4540.000000	64.471435  
4539.000000	64.459943  
4538.000000	64.481091  
4537.000000	64.527940  
4536.000000	64.589715  
4535.000000	64.652609  
4534.000000	64.702439  
4533.000000	64.727377  
4532.000000	64.719414  
4531.000000	64.677190  
4530.000000	64.604711  
4529.000000	64.512801  
4528.000000	64.416289  
4527.000000	64.331865  
4526.000000	64.274740  
4525.000000	64.255332  
4524.000000	64.277315  
4523.000000	64.336729  
4522.000000	64.423084  
4521.000000	64.521956  
4520.000000	64.618325  
4519.000000	64.699435  
4518.000000	64.757323  
4517.000000	64.789366  
4516.000000	64.797854  
4515.000000	64.788007  
4514.000000	64.765787  
4513.000000	64.736223  
4512.000000	64.701652  
4511.000000	64.662933  
4510.000000	64.618921  
4509.000000	64.568543  
4508.000000	64.511752  
4507.000000	64.451122  
4506.000000	64.391660  
4505.000000	64.339923  
4504.000000	64.302921  
4503.000000	64.285659  
4502.000000	64.290881  
4501.000000	64.318037  
4500.000000	64.363551  
4499.000000	64.421224  
4498.000000	64.483785  
4497.000000	64.543986  
4496.000000	64.596199  
4495.000000	64.636945  
4494.000000	64.665365  
4493.000000	64.682531  
4492.000000	64.691233  
4491.000000	64.694190  
4490.000000	64.693021  
4489.000000	64.687514  
4488.000000	64.676094  
4487.000000	64.656496  
4486.000000	64.627695  
4485.000000	64.590406  
4484.000000	64.548110  
4483.000000	64.505863  
4482.000000	64.469718  
4481.000000	64.444684  
4480.000000	64.433121  
4479.000000	64.433956  
4478.000000	64.443016  
4477.000000	64.453959  
4476.000000	64.460325  
4475.000000	64.456915  
4474.000000	64.441418  
4473.000000	64.414763  
4472.000000	64.380908  
4471.000000	64.345264  
4470.000000	64.313077  
4469.000000	64.288377  
4468.000000	64.273309  
4467.000000	64.268660  
4466.000000	64.274287  
4465.000000	64.289927  
4464.000000	64.315629  
4463.000000	64.352321  
4462.000000	64.400100  
4461.000000	64.457869  
4460.000000	64.521670  
4459.000000	64.584565  
4458.000000	64.636969  
4457.000000	64.668536  
4456.000000	64.670157  
4455.000000	64.636921  
4454.000000	64.569282  
4453.000000	64.473915  
4452.000000	64.362335  
4451.000000	64.248538  
4450.000000	64.146566  
4449.000000	64.067721  
4448.000000	64.019370  
4447.000000	64.004135  
4446.000000	64.020514  
4445.000000	64.063882  
4444.000000	64.127564  
4443.000000	64.204287  
4442.000000	64.286398  
4441.000000	64.366650  
4440.000000	64.438509  
4439.000000	64.496755  
4438.000000	64.538073  
4437.000000	64.561152  
4436.000000	64.567255  
4435.000000	64.559102  
4434.000000	64.541578  
4433.000000	64.519119  
4432.000000	64.495086  
4431.000000	64.470505  
4430.000000	64.444184  
4429.000000	64.413404  
4428.000000	64.375543  
4427.000000	64.329457  
4426.000000	64.277648  
4425.000000	64.224815  
4424.000000	64.176750  
4423.000000	64.138817  
4422.000000	64.114022  
4421.000000	64.102816  
4420.000000	64.102506  
4419.000000	64.109110  
4418.000000	64.118790  
4417.000000	64.126753  
4416.000000	64.128470  
4415.000000	64.120364  
4414.000000	64.100980  
4413.000000	64.074802  
4412.000000	64.050722  
4411.000000	64.039039  
4410.000000	64.048314  
4409.000000	64.080905  
4408.000000	64.132881  
4407.000000	64.193534  
4406.000000	64.250302  
4405.000000	64.291572  
4404.000000	64.312434  
4403.000000	64.317893  
4402.000000	64.320492  
4401.000000	64.337968  
4400.000000	64.385247  
4399.000000	64.467573  
4398.000000	64.579772  
4397.000000	64.704728  
4396.000000	64.822530  
4395.000000	64.914202  
4394.000000	64.974236  
4393.000000	65.014219  
4392.000000	65.058183  
4391.000000	65.136456  
4390.000000	65.263080  
4389.000000	65.427994  
4388.000000	65.589284  
4387.000000	65.684437  
4386.000000	65.648722  
4385.000000	65.438747  
4384.000000	65.059041  
4383.000000	64.565634  
4382.000000	64.049410  
4381.000000	63.618063  
4380.000000	63.372445  
4379.000000	63.376832  
4378.000000	63.644623  
4377.000000	64.127993  
4376.000000	64.729881  
4375.000000	65.323376  
4374.000000	65.787124  
4373.000000	66.027307  
4372.000000	65.992450  
4371.000000	65.690851  
4370.000000	65.182161  
4369.000000	64.565682  
4368.000000	63.951277  
4367.000000	63.440847  
4366.000000	63.109016  
4365.000000	62.983536  
4364.000000	63.047099  
4363.000000	63.238430  
4362.000000	63.478207  
4361.000000	63.691210  
4360.000000	63.839316  
4359.000000	63.951921  
4358.000000	64.124584  
4357.000000	64.506506  
4356.000000	65.245890  
4355.000000	66.443181  
4354.000000	68.090271  
4353.000000	70.057773  
4352.000000	72.092509  
4351.000000	73.871994  
4350.000000	75.067162  
4349.000000	75.434684  
4348.000000	74.865961  
4347.000000	73.425221  
4346.000000	71.328663  
4345.000000	68.906641  
4344.000000	66.514468  
4343.000000	64.459848  
4342.000000	62.935733  
4341.000000	61.997222  
4340.000000	61.572575  
4339.000000	61.513376  
4338.000000	61.645221  
4337.000000	61.828517  
4336.000000	61.978483  
4335.000000	62.077975  
4334.000000	62.152647  
4333.000000	62.247562  
4332.000000	62.404108  
4331.000000	62.641453  
4330.000000	62.952256  
4329.000000	63.303995  
4328.000000	63.658094  
4327.000000	63.975954  
4326.000000	64.231872  
4325.000000	64.414954  
4324.000000	64.530205  
4323.000000	64.593386  
4322.000000	64.619851  
4321.000000	64.624285  
4320.000000	64.620471  
4319.000000	64.616656  
4318.000000	64.620065  
4317.000000	64.631891  
4316.000000	64.652800  
4315.000000	64.678168  
4314.000000	64.702534  
4313.000000	64.716267  
4312.000000	64.705061  
4311.000000	64.663267  
4310.000000	64.598464  
4309.000000	64.523458  
4308.000000	64.453244  
4307.000000	64.402413  
4306.000000	64.380574  
4305.000000	64.391207  
4304.000000	64.430546  
4303.000000	64.487910  
4302.000000	64.548826  
4301.000000	64.598965  
4300.000000	64.628243  
4299.000000	64.631509  
4298.000000	64.611291  
4297.000000	64.577054  
4296.000000	64.542675  
4295.000000	64.520883  
4294.000000	64.521026  
4293.000000	64.547777  
4292.000000	64.598250  
4291.000000	64.663815  
4290.000000	64.730668  
4289.000000	64.784193  
4288.000000	64.811205  
4287.000000	64.803218  
4286.000000	64.758133  
4285.000000	64.680290  
4284.000000	64.580035  
4283.000000	64.471197  
4282.000000	64.368557  
4281.000000	64.284849  
4280.000000	64.228940  
4279.000000	64.204382  
4278.000000	64.209222  
4277.000000	64.236807  
4276.000000	64.277815  
4275.000000	64.322209  
4274.000000	64.360427  
4273.000000	64.385652  
4272.000000	64.393734  
4271.000000	64.384341  
4270.000000	64.359998  
4269.000000	64.325690  
4268.000000	64.287209  
4267.000000	64.249992  
4266.000000	64.218497  
4265.000000	64.195299  
4264.000000	64.181351  
4263.000000	64.175987  
4262.000000	64.177656  
4261.000000	64.184617  
4260.000000	64.195179  
4259.000000	64.208388  
4258.000000	64.223670  
4257.000000	64.241003  
4256.000000	64.260101  
4255.000000	64.280819  
4254.000000	64.302849  
4253.000000	64.326119  
4252.000000	64.350533  
4251.000000	64.375948  
4250.000000	64.401960  
4249.000000	64.428281  
4248.000000	64.454269  
4247.000000	64.478611  
4246.000000	64.499497  
4245.000000	64.514899  
4244.000000	64.523243  
4243.000000	64.524173  
4242.000000	64.518594  
4241.000000	64.509034  
4240.000000	64.498496  
4239.000000	64.490103  
4238.000000	64.485812  
4237.000000	64.486289  
4236.000000	64.490389  
4235.000000	64.495420  
4234.000000	64.498209  
4233.000000	64.496302  
4232.000000	64.488172  
4231.000000	64.474058  
4230.000000	64.455556  
4229.000000	64.435267  
4228.000000	64.416408  
4227.000000	64.401960  
4226.000000	64.393711  
4225.000000	64.391946  
4224.000000	64.396166  
4223.000000	64.404845  
4222.000000	64.415955  
4221.000000	64.427089  
4220.000000	64.435863  
4219.000000	64.439988  
4218.000000	64.437270  
4217.000000	64.426398  
4216.000000	64.406943  
4215.000000	64.380097  
4214.000000	64.348745  
4213.000000	64.317131  
4212.000000	64.289665  
4211.000000	64.270997  
4210.000000	64.264869  
4209.000000	64.274048  
4208.000000	64.299583  
4207.000000	64.340591  
4206.000000	64.394664  
4205.000000	64.457011  
4204.000000	64.520955  
4203.000000	64.578294  
4202.000000	64.620399  
4201.000000	64.639449  
4200.000000	64.630126  
4199.000000	64.590692  
4198.000000	64.523792  
4197.000000	64.436316  
4196.000000	64.338326  
4195.000000	64.241504  
4194.000000	64.157128  
4193.000000	64.093756  
4192.000000	64.056611  
4191.000000	64.046597  
4190.000000	64.061927  
4189.000000	64.098906  
4188.000000	64.153838  
4187.000000	64.223241  
4186.000000	64.304757  
4185.000000	64.396309  
4184.000000	64.495539  
4183.000000	64.598131  
4182.000000	64.698290  
4181.000000	64.788842  
4180.000000	64.862275  
4179.000000	64.912748  
4178.000000	64.936518  
4177.000000	64.933419  
4176.000000	64.906072  
4175.000000	64.860129  
4174.000000	64.802408  
4173.000000	64.740014  
4172.000000	64.678978  
4171.000000	64.623737  
4170.000000	64.577627  
4169.000000	64.543128  
4168.000000	64.522314  
4167.000000	64.516901  
4166.000000	64.528012  
4165.000000	64.555311  
4164.000000	64.596581  
4163.000000	64.646863  
4162.000000	64.698672  
4161.000000	64.742660  
4160.000000	64.769530  
4159.000000	64.772009  
4158.000000	64.746642  
4157.000000	64.694952  
4156.000000	64.623451  
4155.000000	64.542579  
4154.000000	64.464926  
4153.000000	64.402174  
4152.000000	64.362764  
4151.000000	64.350223  
4150.000000	64.362788  
4149.000000	64.393615  
4148.000000	64.432764  
4147.000000	64.468812  
4146.000000	64.491558  
4145.000000	64.493727  
4144.000000	64.472460  
4143.000000	64.429759  
4142.000000	64.371895  
4141.000000	64.307975  
4140.000000	64.247679  
4139.000000	64.199519  
4138.000000	64.168763  
4137.000000	64.156961  
4136.000000	64.161634  
4135.000000	64.177489  
4134.000000	64.198064  
4133.000000	64.217209  
4132.000000	64.230942  
4131.000000	64.237546  
4130.000000	64.238166  
4129.000000	64.235377  
4128.000000	64.232754  
4127.000000	64.233016  
4126.000000	64.237999  
4125.000000	64.248228  
4124.000000	64.263391  
4123.000000	64.282679  
4122.000000	64.305853  
4121.000000	64.333605  
4120.000000	64.366292  
4119.000000	64.403414  
4118.000000	64.442753  
4117.000000	64.480018  
4116.000000	64.508938  
4115.000000	64.522457  
4114.000000	64.514374  
4113.000000	64.481163  
4112.000000	64.423608  
4111.000000	64.347171  
4110.000000	64.261412  
4109.000000	64.178442  
4108.000000	64.110088  
4107.000000	64.065814  
4106.000000	64.050650  
4105.000000	64.064884  
4104.000000	64.103865  
4103.000000	64.160251  
4102.000000	64.225435  
4101.000000	64.292240  
4100.000000	64.355874  
4099.000000	64.414596  
4098.000000	64.468598  
4097.000000	64.519309  
4096.000000	64.567542  
4095.000000	64.612817  
4094.000000	64.652538  
4093.000000	64.683198  
4092.000000	64.701199  
4091.000000	64.704251  
4090.000000	64.692234  
4089.000000	64.667439  
4088.000000	64.633989  
4087.000000	64.596772  
4086.000000	64.560437  
4085.000000	64.528322  
4084.000000	64.502120  
4083.000000	64.481949  
4082.000000	64.466953  
4081.000000	64.456367  
4080.000000	64.449644  
4079.000000	64.447283  
4078.000000	64.450192  
4077.000000	64.459061  
4076.000000	64.473843  
4075.000000	64.493203  
4074.000000	64.514398  
4073.000000	64.533615  
4072.000000	64.546608  
4071.000000	64.549684  
4070.000000	64.540624  
4069.000000	64.519405  
4068.000000	64.487886  
4067.000000	64.449429  
4066.000000	64.408445  
4065.000000	64.369726  
4064.000000	64.337325  
4063.000000	64.314198  
4062.000000	64.301538  
4061.000000	64.298915  
4060.000000	64.304518  
4059.000000	64.315700  
4058.000000	64.329385  
4057.000000	64.342856  
4056.000000	64.353847  
4055.000000	64.361286  
4054.000000	64.364767  
4053.000000	64.364957  
4052.000000	64.362978  
4051.000000	64.360713  
4050.000000	64.359879  
4049.000000	64.362049  
4048.000000	64.368510  
4047.000000	64.379429  
4046.000000	64.394068  
4045.000000	64.410471  
4044.000000	64.426040  
4043.000000	64.437627  
4042.000000	64.442205  
4041.000000	64.437580  
4040.000000	64.423060  
4039.000000	64.399862  
4038.000000	64.371085  
4037.000000	64.341402  
4036.000000	64.316082  
4035.000000	64.299821  
4034.000000	64.295768  
4033.000000	64.304924  
4032.000000	64.325690  
4031.000000	64.354109  
4030.000000	64.384818  
4029.000000	64.412140  
4028.000000	64.431309  
4027.000000	64.439368  
4026.000000	64.435935  
4025.000000	64.422655  
4024.000000	64.403223  
4023.000000	64.382243  
4022.000000	64.364480  
4021.000000	64.353680  
4020.000000	64.352035  
4019.000000	64.360308  
4018.000000	64.377307  
4017.000000	64.400744  
4016.000000	64.427375  
4015.000000	64.453649  
4014.000000	64.476227  
4013.000000	64.492487  
4012.000000	64.500713  
4011.000000	64.500308  
4010.000000	64.491891  
4009.000000	64.477252  
4008.000000	64.458918  
4007.000000	64.439702  
4006.000000	64.422488  
4005.000000	64.409565  
4004.000000	64.402270  
4003.000000	64.400601  
4002.000000	64.403486  
4001.000000	64.408969  
4000.000000	64.414787  
3999.000000	64.418530  
3998.000000	64.418292  
3997.000000	64.412689  
3996.000000	64.401173  
3995.000000	64.383888  
3994.000000	64.361190  
3993.000000	64.334249  
3992.000000	64.304780  
3991.000000	64.275312  
3990.000000	64.248609  
3989.000000	64.227890  
3988.000000	64.216232  
3987.000000	64.216017  
3986.000000	64.228177  
3985.000000	64.252233  
3984.000000	64.286184  
3983.000000	64.326477  
3982.000000	64.368557  
3981.000000	64.407706  
3980.000000	64.439916  
3979.000000	64.462423  
3978.000000	64.474081  
3977.000000	64.475250  
3976.000000	64.467549  
3975.000000	64.453721  
3974.000000	64.436650  
3973.000000	64.419078  
3972.000000	64.402699  
3971.000000	64.388966  
3970.000000	64.377951  
3969.000000	64.369177  
3968.000000	64.361023  
3967.000000	64.351868  
3966.000000	64.339685  
3965.000000	64.323091  
3964.000000	64.301109  
3963.000000	64.273405  
3962.000000	64.240312  
3961.000000	64.202618  
3960.000000	64.161443  
3959.000000	64.118266  
3958.000000	64.074587  
3957.000000	64.032006  
3956.000000	63.992214  
3955.000000	63.957142  
3954.000000	63.928508  
3953.000000	63.908267  
3952.000000	63.897776  
3951.000000	63.898324  
3950.000000	63.910746  
3949.000000	63.935732  
3948.000000	63.973045  
3947.000000	64.021730  
3946.000000	64.079999  
3945.000000	64.145016  
3944.000000	64.212942  
3943.000000	64.278984  
3942.000000	64.337730  
3941.000000	64.383673  
3940.000000	64.412212  
3939.000000	64.420390  
3938.000000	64.407372  
3937.000000	64.374995  
3936.000000	64.327979  
3935.000000	64.273095  
3934.000000	64.218020  
3933.000000	64.170408  
3932.000000	64.136695  
3931.000000	64.120793  
3930.000000	64.123654  
3929.000000	64.143109  
3928.000000	64.174675  
3927.000000	64.211916  
3926.000000	64.248013  
3925.000000	64.276814  
3924.000000	64.294123  
3923.000000	64.298009  
3922.000000	64.289426  
3921.000000	64.271306  
3920.000000	64.248132  
3919.000000	64.224433  
3918.000000	64.203834  
3917.000000	64.188504  
3916.000000	64.178657  
3915.000000	64.173054  
3914.000000	64.169716  
3913.000000	64.166617  
3912.000000	64.162945  
3911.000000	64.159345  
3910.000000	64.157915  
3909.000000	64.161610  
3908.000000	64.173054  
3907.000000	64.193534  
3906.000000	64.222335  
3905.000000	64.256262  
3904.000000	64.290404  
3903.000000	64.319109  
3902.000000	64.337301  
3901.000000	64.341688  
3900.000000	64.331698  
3899.000000	64.309549  
3898.000000	64.279770  
3897.000000	64.248132  
3896.000000	64.220738  
3895.000000	64.202594  
3894.000000	64.196872  
3893.000000	64.204335  
3892.000000	64.223718  
3891.000000	64.252185  
3890.000000	64.286184  
3889.000000	64.322543  
3888.000000	64.358639  
3887.000000	64.393353  
3886.000000	64.426732  
3885.000000	64.459705  
3884.000000	64.493489  
3883.000000	64.528512  
3882.000000	64.564585  
3881.000000	64.599728  
3880.000000	64.630866  
3879.000000	64.653682  
3878.000000	64.663934  
3877.000000	64.658045  
3876.000000	64.633989  
3875.000000	64.592146  
3874.000000	64.535403  
3873.000000	64.468574  
3872.000000	64.397907  
3871.000000	64.329791  
3870.000000	64.270114  
3869.000000	64.223456  
3868.000000	64.192700  
3867.000000	64.178609  
3866.000000	64.180564  
3865.000000	64.196634  
3864.000000	64.224457  
3863.000000	64.260959  
3862.000000	64.303421  
3861.000000	64.349222  
3860.000000	64.396333  
3859.000000	64.442420  
3858.000000	64.485073  
3857.000000	64.521765  
3856.000000	64.549994  
3855.000000	64.567732  
3854.000000	64.573740  
3853.000000	64.568090  
3852.000000	64.552378  
3851.000000	64.530014  
3850.000000	64.505457  
3849.000000	64.483547  
3848.000000	64.468741  
3847.000000	64.464211  
3846.000000	64.471316  
3845.000000	64.489245  
3844.000000	64.515280  
3843.000000	64.545106  
3842.000000	64.573597  
3841.000000	64.595413  
3840.000000	64.606046  
3839.000000	64.602136  
3838.000000	64.581799  
3837.000000	64.544892  
3836.000000	64.493179  
3835.000000	64.430332  
3834.000000	64.361572  
3833.000000	64.293527  
3832.000000	64.233303  
3831.000000	64.187788  
3830.000000	64.162755  
3829.000000	64.161682  
3828.000000	64.184951  
3827.000000	64.230012  
3826.000000	64.291620  
3825.000000	64.362716  
3824.000000	64.435029  
3823.000000	64.500927  
3822.000000	64.554405  
3821.000000	64.591622  
3820.000000	64.611196  
3819.000000	64.613556  
3818.000000	64.600443  
3817.000000	64.574551  
3816.000000	64.538478  
3815.000000	64.494538  
3814.000000	64.444589  
3813.000000	64.390826  
3812.000000	64.335823  
3811.000000	64.282536  
3810.000000	64.234614  
3809.000000	64.195799  
3808.000000	64.169740  
3807.000000	64.159321  
3806.000000	64.165830  
3805.000000	64.188504  
3804.000000	64.224147  
3803.000000	64.267325  
3802.000000	64.310932  
3801.000000	64.347481  
3800.000000	64.370226  
3799.000000	64.374375  
3798.000000	64.358353  
3797.000000	64.323830  
3796.000000	64.275479  
3795.000000	64.220046  
3794.000000	64.165091  
3793.000000	64.117455  
3792.000000	64.082574  
3791.000000	64.063978  
3790.000000	64.062619  
3789.000000	64.077591  
3788.000000	64.106583  
3787.000000	64.146542  
3786.000000	64.194154  
3785.000000	64.246106  
3784.000000	64.298987  
3783.000000	64.349365  
3782.000000	64.393806  
3781.000000	64.429116  
3780.000000	64.452505  
3779.000000	64.461851  
3778.000000	64.456796  
3777.000000	64.438247  
3776.000000	64.408969  
3775.000000	64.372873  
3774.000000	64.334821  
3773.000000	64.299845  
3772.000000	64.272499  
3771.000000	64.255976  
3770.000000	64.251708  
3769.000000	64.259219  
3768.000000	64.276194  
3767.000000	64.298963  
3766.000000	64.323163  
3765.000000	64.344620  
3764.000000	64.360284  
3763.000000	64.368605  
3762.000000	64.370059  
3761.000000	64.366459  
3760.000000	64.360594  
3759.000000	64.355778  
3758.000000	64.354920  
3757.000000	64.359998  
3756.000000	64.371132  
3755.000000	64.387321  
3754.000000	64.406061  
3753.000000	64.424252  
3752.000000	64.438557  
3751.000000	64.446020  
3750.000000	64.444661  
3749.000000	64.433670  
3748.000000	64.413881  
3747.000000	64.387106  
3746.000000	64.356255  
3745.000000	64.324736  
3744.000000	64.295959  
3743.000000	64.272904  
3742.000000	64.257168  
3741.000000	64.248943  
3740.000000	64.246892  
3739.000000	64.248847  
3738.000000	64.252328  
3737.000000	64.255523  
3736.000000	64.257526  
3735.000000	64.258861  
3734.000000	64.261269  
3733.000000	64.267349  
3732.000000	64.279127  
3731.000000	64.297747  
3730.000000	64.323043  
3729.000000	64.353251  
3728.000000	64.385342  
3727.000000	64.415550  
3726.000000	64.440226  
3725.000000	64.456486  
3724.000000	64.462757  
3723.000000	64.459323  
3722.000000	64.448285  
3721.000000	64.432883  
3720.000000	64.416933  
3719.000000	64.404010  
3718.000000	64.396882  
3717.000000	64.397001  
3716.000000	64.404416  
3715.000000	64.417815  
3714.000000	64.434862  
3713.000000	64.452743  
3712.000000	64.468693  
3711.000000	64.480185  
3710.000000	64.485454  
3709.000000	64.483332  
3708.000000	64.473748  
3707.000000	64.457654  
3706.000000	64.436793  
3705.000000	64.413762  
3704.000000	64.391255  
3703.000000	64.372062  
3702.000000	64.358258  
3701.000000	64.350962  
3700.000000	64.349842  
3699.000000	64.353275  
3698.000000	64.358568  
3697.000000	64.362287  
3696.000000	64.361405  
3695.000000	64.353752  
3694.000000	64.338660  
3693.000000	64.317011  
3692.000000	64.291095  
3691.000000	64.263987  
3690.000000	64.239048  
3689.000000	64.218926  
3688.000000	64.205098  
3687.000000	64.197564  
3686.000000	64.195179  
3685.000000	64.195895  
3684.000000	64.197301  
3683.000000	64.197182  
3682.000000	64.193820  
3681.000000	64.186477  
3680.000000	64.175224  
3679.000000	64.160943  
3678.000000	64.144897  
3677.000000	64.128780  
3676.000000	64.114022  
3675.000000	64.101982  
3674.000000	64.093613  
3673.000000	64.089393  
3672.000000	64.089345  
3671.000000	64.092993  
3670.000000	64.099287  
3669.000000	64.106965  
3668.000000	64.114785  
3667.000000	64.121842  
3666.000000	64.127445  
3665.000000	64.131617  
3664.000000	64.134716  
3663.000000	64.137911  
3662.000000	64.142417  
3661.000000	64.149475  
3660.000000	64.159798  
3659.000000	64.173507  
3658.000000	64.190173  
3657.000000	64.208507  
3656.000000	64.226937  
3655.000000	64.243793  
3654.000000	64.257907  
3653.000000	64.268732  
3652.000000	64.276742  
3651.000000	64.283132  
3650.000000	64.289379  
3649.000000	64.296746  
3648.000000	64.305543  
3647.000000	64.315271  
3646.000000	64.323973  
3645.000000	64.328837  
3644.000000	64.326739  
3643.000000	64.315176  
3642.000000	64.293217  
3641.000000	64.261937  
3640.000000	64.224576  
3639.000000	64.186072  
3638.000000	64.152264  
3637.000000	64.128708  
3636.000000	64.119458  
3635.000000	64.126157  
3634.000000	64.147639  
3633.000000	64.180231  
3632.000000	64.218401  
3631.000000	64.255928  
3630.000000	64.287066  
3629.000000	64.307522  
3628.000000	64.315176  
3627.000000	64.310240  
3626.000000	64.295005  
3625.000000	64.272975  
3624.000000	64.248394  
3623.000000	64.224982  
3622.000000	64.205670  
3621.000000	64.191913  
3620.000000	64.184212  
3619.000000	64.181613  
3618.000000	64.182710  
3617.000000	64.185547  
3616.000000	64.188456  
3615.000000	64.190149  
3614.000000	64.189720  
3613.000000	64.186882  
3612.000000	64.181661  
3611.000000	64.174532  
3610.000000	64.165878  
3609.000000	64.156270  
3608.000000	64.146304  
3607.000000	64.136648  
3606.000000	64.127945  
3605.000000	64.120984  
3604.000000	64.116549  
3603.000000	64.115238  
3602.000000	64.117169  
3601.000000	64.121866  
3600.000000	64.128327  
3599.000000	64.135289  
3598.000000	64.141774  
3597.000000	64.146661  
3596.000000	64.149713  
3595.000000	64.151453  
3594.000000	64.153218  
3593.000000	64.156794  
3592.000000	64.164042  
3591.000000	64.176416  
3590.000000	64.194726  
3589.000000	64.218688  
3588.000000	64.246916  
3587.000000	64.276933  
3586.000000	64.305758  
3585.000000	64.330482  
3584.000000	64.348840  
3583.000000	64.359641  
3582.000000	64.363026  
3581.000000	64.360237  
3580.000000	64.353203  
3579.000000	64.344120  
3578.000000	64.334750  
3577.000000	64.326071  
3576.000000	64.318227  
3575.000000	64.310240  
3574.000000	64.300894  
3573.000000	64.288830  
3572.000000	64.273047  
3571.000000	64.253020  
3570.000000	64.228844  
3569.000000	64.201068  
3568.000000	64.170336  
3567.000000	64.137387  
3566.000000	64.103007  
3565.000000	64.068508  
3564.000000	64.035749  
3563.000000	64.007401  
3562.000000	63.986611  
3561.000000	63.976311  
3560.000000	63.978314  
3559.000000	63.992762  
3558.000000	64.017510  
3557.000000	64.048385  
3556.000000	64.079713  
3555.000000	64.105582  
3554.000000	64.121127  
3553.000000	64.123463  
3552.000000	64.112377  
3551.000000	64.090061  
3550.000000	64.060711  
3549.000000	64.029264  
3548.000000	64.000391  
3547.000000	63.977599  
3546.000000	63.962650  
3545.000000	63.955569  
3544.000000	63.954949  
3543.000000	63.958930  
3542.000000	63.965535  
3541.000000	63.973236  
3540.000000	63.981389  
3539.000000	63.989543  
3538.000000	63.998103  
3537.000000	64.007282  
3536.000000	64.017748  
3535.000000	64.029836  
3534.000000	64.044332  
3533.000000	64.061975  
3532.000000	64.083623  
3531.000000	64.110112  
3530.000000	64.141488  
3529.000000	64.176893  
3528.000000	64.214038  
3527.000000	64.249610  
3526.000000	64.279842  
3525.000000	64.300990  
3524.000000	64.310574  
3523.000000	64.307761  
3522.000000	64.293742  
3521.000000	64.271521  
3520.000000	64.245414  
3519.000000	64.219880  
3518.000000	64.198994  
3517.000000	64.185023  
3516.000000	64.178967  
3515.000000	64.179658  
3514.000000	64.184617  
3513.000000	64.190530  
3512.000000	64.193844  
3511.000000	64.192199  
3510.000000	64.184260  
3509.000000	64.170694  
3508.000000	64.153218  
3507.000000	64.134716  
3506.000000	64.118432  
3505.000000	64.107322  
3504.000000	64.103055  
3503.000000	64.106082  
3502.000000	64.115715  
3501.000000	64.129853  
3500.000000	64.145731  
3499.000000	64.160609  
3498.000000	64.172387  
3497.000000	64.179730  
3496.000000	64.182376  
3495.000000	64.180994  
3494.000000	64.176845  
3493.000000	64.171385  
3492.000000	64.165782  
3491.000000	64.160799  
3490.000000	64.156699  
3489.000000	64.153337  
3488.000000	64.150166  
3487.000000	64.146304  
3486.000000	64.141011  
3485.000000	64.133930  
3484.000000	64.124965  
3483.000000	64.114427  
3482.000000	64.102697  
3481.000000	64.090347  
3480.000000	64.077281  
3479.000000	64.063119  
3478.000000	64.046645  
3477.000000	64.026474  
3476.000000	64.001035  
3475.000000	63.969302  
3474.000000	63.931393  
3473.000000	63.889098  
3472.000000	63.845777  
3471.000000	63.806009  
3470.000000	63.774585  
3469.000000	63.755726  
3468.000000	63.751864  
3467.000000	63.763165  
3466.000000	63.787126  
3465.000000	63.819336  
3464.000000	63.854551  
3463.000000	63.887929  
3462.000000	63.916254  
3461.000000	63.938212  
3460.000000	63.954544  
3459.000000	63.967418  
3458.000000	63.979220  
3457.000000	63.991665  
3456.000000	64.005351  
3455.000000	64.019060  
3454.000000	64.030814  
3453.000000	64.038205  
3452.000000	64.039611  
3451.000000	64.034795  
3450.000000	64.025378  
3449.000000	64.014244  
3448.000000	64.004945  
3447.000000	64.000654  
3446.000000	64.003181  
3445.000000	64.012527  
3444.000000	64.026689  
3443.000000	64.042425  
3442.000000	64.056324  
3441.000000	64.065337  
3440.000000	64.067721  
3439.000000	64.063739  
3438.000000	64.055418  
3437.000000	64.045929  
3436.000000	64.038848  
3435.000000	64.037132  
3434.000000	64.041972  
3433.000000	64.052867  
3432.000000	64.066886  
3431.000000	64.079785  
3430.000000	64.086627  
3429.000000	64.083313  
3428.000000	64.067173  
3427.000000	64.037728  
3426.000000	63.996672  
3425.000000	63.947439  
3424.000000	63.894510  
3423.000000	63.842415  
3422.000000	63.795089  
3421.000000	63.755297  
3420.000000	63.724613  
3419.000000	63.703465  
3418.000000	63.691663  
3417.000000	63.688731  
3416.000000	63.694238  
3415.000000	63.707613  
3414.000000	63.728094  
3413.000000	63.754534  
3412.000000	63.785004  
3411.000000	63.816809  
3410.000000	63.846969  
3409.000000	63.872551  
3408.000000	63.890933  
3407.000000	63.900470  
3406.000000	63.900685  
3405.000000	63.892412  
3404.000000	63.877558  
3403.000000	63.858890  
3402.000000	63.839459  
3401.000000	63.822126  
3400.000000	63.809609  
3399.000000	63.803410  
3398.000000	63.804101  
3397.000000	63.810968  
3396.000000	63.822412  
3395.000000	63.836097  
3394.000000	63.849329  
3393.000000	63.859796  
3392.000000	63.865971  
3391.000000	63.867282  
3390.000000	63.864040  
3389.000000	63.857579  
3388.000000	63.849663  
3387.000000	63.841652  
3386.000000	63.833975  
3385.000000	63.826131  
3384.000000	63.816666  
3383.000000	63.803839  
3382.000000	63.786196  
3381.000000	63.763093  
3380.000000	63.735294  
3379.000000	63.705277  
3378.000000	63.676714  
3377.000000	63.653588  
3376.000000	63.639450  
3375.000000	63.636803  
3374.000000	63.646245  
3373.000000	63.666462  
3372.000000	63.694262  
3371.000000	63.725161  
3370.000000	63.754415  
3369.000000	63.777756  
3368.000000	63.792276  
3367.000000	63.796758  
3366.000000	63.792347  
3365.000000	63.781690  
3364.000000	63.769221  
3363.000000	63.759946  
3362.000000	63.758683  
3361.000000	63.768768  
3360.000000	63.791561  
3359.000000	63.825607  
3358.000000	63.867020  
3357.000000	63.909792  
3356.000000	63.946700  
3355.000000	63.971066  
3354.000000	63.977885  
3353.000000	63.965129  
3352.000000	63.933968  
3351.000000	63.888907  
3350.000000	63.836979  
3349.000000	63.786292  
3348.000000	63.744544  
3347.000000	63.717699  
3346.000000	63.709115  
3345.000000	63.718819  
3344.000000	63.743972  
3343.000000	63.779401  
3342.000000	63.818788  
3341.000000	63.855862  
3340.000000	63.885402  
3339.000000	63.903784  
3338.000000	63.909196  
3337.000000	63.901662  
3336.000000	63.882565  
3335.000000	63.854241  
3334.000000	63.819551  
3333.000000	63.781857  
3332.000000	63.744449  
3331.000000	63.710689  
3330.000000	63.683414  
3329.000000	63.664603  
3328.000000	63.655424  
3327.000000	63.655471  
3326.000000	63.663578  
3325.000000	63.678026  
3324.000000	63.696813  
3323.000000	63.718032  
3322.000000	63.739967  
3321.000000	63.761186  
3320.000000	63.780379  
3319.000000	63.796210  
3318.000000	63.807392  
3317.000000	63.812637  
3316.000000	63.811111  
3315.000000	63.802981  
3314.000000	63.789272  
3313.000000	63.771939  
3312.000000	63.753509  
3311.000000	63.736653  
3310.000000	63.723444  
3309.000000	63.715243  
3308.000000	63.712024  
3307.000000	63.712692  
3306.000000	63.715386  
3305.000000	63.718318  
3304.000000	63.720083  
3303.000000	63.720130  
3302.000000	63.718509  
3301.000000	63.716053  
3300.000000	63.713645  
3299.000000	63.712286  
3298.000000	63.712430  
3297.000000	63.714551  
3296.000000	63.718748  
3295.000000	63.725137  
3294.000000	63.733983  
3293.000000	63.745355  
3292.000000	63.759446  
3291.000000	63.775634  
3290.000000	63.792657  
3289.000000	63.808321  
3288.000000	63.819885  
3287.000000	63.824558  
3286.000000	63.820219  
3285.000000	63.806080  
3284.000000	63.783121  
3283.000000	63.753843  
3282.000000	63.721966  
3281.000000	63.691663  
3280.000000	63.666701  
3279.000000	63.649535  
3278.000000	63.640880  
3277.000000	63.639688  
3276.000000	63.643479  
3275.000000	63.649082  
3274.000000	63.653254  
3273.000000	63.653326  
3272.000000	63.648200  
3271.000000	63.637924  
3270.000000	63.624262  
3269.000000	63.609671  
3268.000000	63.597178  
3267.000000	63.589477  
3266.000000	63.588309  
3265.000000	63.594508  
3264.000000	63.607263  
3263.000000	63.624477  
3262.000000	63.643026  
3261.000000	63.659477  
3260.000000	63.670897  
3259.000000	63.675546  
3258.000000	63.673281  
3257.000000	63.665604  
3256.000000	63.655304  
3255.000000	63.645815  
3254.000000	63.640236  
3253.000000	63.640618  
3252.000000	63.647532  
3251.000000	63.659834  
3250.000000	63.675260  
3249.000000	63.690805  
3248.000000	63.703727  
3247.000000	63.712239  
3246.000000	63.715505  
3245.000000	63.714122  
3244.000000	63.709902  
3243.000000	63.705039  
3242.000000	63.701581  
3241.000000	63.700723  
3240.000000	63.703012  
3239.000000	63.708138  
3238.000000	63.715291  
3237.000000	63.723397  
3236.000000	63.731527  
3235.000000	63.739037  
3234.000000	63.745808  
3233.000000	63.751912  
3232.000000	63.757157  
3231.000000	63.761162  
3230.000000	63.763332  
3229.000000	63.762855  
3228.000000	63.758826  
3227.000000	63.750672  
3226.000000	63.738393  
3225.000000	63.722681  
3224.000000	63.704538  
3223.000000	63.685441  
3222.000000	63.666415  
3221.000000	63.647627  
3220.000000	63.628244  
3219.000000	63.606715  
3218.000000	63.581037  
3217.000000	63.549566  
3216.000000	63.511776  
3215.000000	63.468360  
3214.000000	63.422060  
3213.000000	63.376665  
3212.000000	63.337326  
3211.000000	63.308548  
3210.000000	63.294434  
3209.000000	63.297533  
3208.000000	63.318538  
3207.000000	63.355994  
3206.000000	63.406825  
3205.000000	63.466596  
3204.000000	63.530182  
3203.000000	63.592147  
3202.000000	63.647365  
3201.000000	63.691735  
3200.000000	63.722753  
3199.000000	63.739824  
3198.000000	63.744664  
3197.000000	63.740754  
3196.000000	63.733506  
3195.000000	63.728618  
3194.000000	63.731002  
3193.000000	63.743138  
3192.000000	63.765239  
3191.000000	63.794255  
3190.000000	63.825130  
3189.000000	63.851404  
3188.000000	63.867187  
3187.000000	63.868045  
3186.000000	63.852262  
3185.000000	63.820552  
3184.000000	63.776278  
3183.000000	63.723826  
3182.000000	63.667702  
3181.000000	63.611650  
3180.000000	63.558173  
3179.000000	63.508558  
3178.000000	63.463449  
3177.000000	63.423395  
3176.000000	63.389396  
3175.000000	63.363313  
3174.000000	63.347768  
3173.000000	63.345122  
3172.000000	63.356947  
3171.000000	63.383769  
3170.000000	63.424587  
3169.000000	63.476848  
3168.000000	63.536453  
3167.000000	63.598346  
3166.000000	63.656926  
3165.000000	63.706779  
3164.000000	63.743162  
3163.000000	63.762593  
3162.000000	63.763260  
3161.000000	63.745164  
3160.000000	63.710498  
3159.000000	63.663530  
3158.000000	63.609886  
3157.000000	63.556385  
3156.000000	63.509058  
3155.000000	63.472962  
3154.000000	63.450574  
3153.000000	63.442039  
3152.000000	63.444638  
3151.000000	63.453483  
3150.000000	63.462710  
3149.000000	63.467049  
3148.000000	63.462400  
3147.000000	63.446712  
3146.000000	63.420701  
3145.000000	63.387751  
3144.000000	63.353228  
3143.000000	63.323187  
3142.000000	63.303613  
3141.000000	63.298511  
3140.000000	63.309645  
3139.000000	63.335084  
3138.000000	63.369894  
3137.000000	63.406586  
3136.000000	63.436985  
3135.000000	63.453793  
3134.000000	63.451695  
3133.000000	63.429403  
3132.000000	63.389515  
3131.000000	63.338804  
3130.000000	63.286089  
3129.000000	63.240957  
3128.000000	63.211441  
3127.000000	63.202595  
3126.000000	63.215851  
3125.000000	63.249135  
3124.000000	63.297557  
3123.000000	63.355135  
3122.000000	63.416314  
3121.000000	63.476920  
3120.000000	63.534593  
3119.000000	63.588500  
3118.000000	63.638329  
3117.000000	63.683843  
3116.000000	63.723850  
3115.000000	63.756322  
3114.000000	63.778376  
3113.000000	63.787627  
3112.000000	63.782334  
3111.000000	63.763189  
3110.000000	63.732504  
3109.000000	63.694143  
3108.000000	63.652515  
3107.000000	63.611888  
3106.000000	63.575506  
3105.000000	63.545417  
3104.000000	63.522267  
3103.000000	63.505911  
3102.000000	63.495540  
3101.000000	63.490343  
3100.000000	63.489627  
3099.000000	63.492846  
3098.000000	63.499498  
3097.000000	63.508701  
3096.000000	63.519334  
3095.000000	63.529682  
3094.000000	63.537788  
3093.000000	63.541698  
3092.000000	63.539600  
3091.000000	63.530302  
3090.000000	63.513517  
3089.000000	63.490080  
3088.000000	63.461494  
3087.000000	63.429975  
3086.000000	63.398289  
3085.000000	63.369178  
3084.000000	63.345170  
3083.000000	63.327932  
3082.000000	63.318061  
3081.000000	63.315367  
3080.000000	63.318347  
3079.000000	63.325238  
3078.000000	63.334035  
3077.000000	63.343501  
3076.000000	63.353085  
3075.000000	63.363194  
3074.000000	63.374519  
3073.000000	63.387942  
3072.000000	63.403868  
3071.000000	63.421916  
3070.000000	63.440728  
3069.000000	63.458228  
3068.000000	63.472127  
3067.000000	63.480162  
3066.000000	63.480758  
3065.000000	63.473463  
3064.000000	63.458991  
3063.000000	63.439154  
3062.000000	63.416552  
3061.000000	63.393998  
3060.000000	63.373851  
3059.000000	63.357782  
3058.000000	63.346433  
3057.000000	63.339638  
3056.000000	63.336467  
3055.000000	63.335633  
3054.000000	63.335943  
3053.000000	63.336491  
3052.000000	63.337063  
3051.000000	63.337969  
3050.000000	63.339948  
3049.000000	63.343811  
3048.000000	63.350319  
3047.000000	63.359713  
3046.000000	63.371920  
3045.000000	63.386154  
3044.000000	63.401317  
3043.000000	63.416290  
3042.000000	63.429832  
3041.000000	63.440942  
3040.000000	63.448643  
3039.000000	63.452053  
3038.000000	63.450503  
3037.000000	63.443541  
3036.000000	63.431143  
3035.000000	63.413977  
3034.000000	63.393425  
3033.000000	63.371300  
3032.000000	63.349390  
3031.000000	63.329339  
3030.000000	63.312149  
3029.000000	63.298344  
3028.000000	63.287734  
3027.000000	63.279795  
3026.000000	63.274097  
3025.000000	63.270425  
3024.000000	63.268876  
3023.000000	63.269686  
3022.000000	63.272929  
3021.000000	63.278651  
3020.000000	63.286304  
3019.000000	63.294982  
3018.000000	63.303256  
3017.000000	63.310050  
3016.000000	63.314652  
3015.000000	63.316988  
3014.000000	63.317489  
3013.000000	63.316822  
3012.000000	63.315796  
3011.000000	63.314676  
3010.000000	63.313221  
3009.000000	63.310790  
3008.000000	63.306665  
3007.000000	63.300514  
3006.000000	63.292551  
3005.000000	63.283467  
3004.000000	63.274431  
3003.000000	63.266754  
3002.000000	63.261771  
3001.000000	63.260173  
3000.000000	63.262367  
2999.000000	63.268303  
2998.000000	63.277840  
2997.000000	63.290619  
2996.000000	63.305926  
2995.000000	63.323068  
2994.000000	63.340687  
2993.000000	63.356947  
2992.000000	63.369536  
2991.000000	63.375663  
2990.000000	63.372874  
2989.000000	63.359665  
2988.000000	63.335943  
2987.000000	63.303279  
2986.000000	63.264894  
2985.000000	63.225340  
2984.000000	63.189291  
2983.000000	63.160896  
2982.000000	63.142800  
2981.000000	63.135981  
2980.000000	63.139557  
2979.000000	63.151383  
2978.000000	63.168811  
2977.000000	63.189387  
2976.000000	63.211345  
2975.000000	63.233852  
2974.000000	63.256740  
2973.000000	63.280105  
2972.000000	63.303470  
2971.000000	63.325524  
2970.000000	63.344216  
2969.000000	63.356518  
2968.000000	63.359522  
2967.000000	63.350677  
2966.000000	63.328886  
2965.000000	63.294363  
2964.000000	63.249206  
2963.000000	63.196849  
2962.000000	63.141536  
2961.000000	63.087654  
2960.000000	63.039112  
2959.000000	62.999010  
2958.000000	62.969470  
2957.000000	62.951445  
2956.000000	62.944960  
2955.000000	62.949132  
2954.000000	62.962484  
2953.000000	62.982797  
2952.000000	63.007688  
2951.000000	63.034510  
2950.000000	63.060712  
2949.000000	63.084173  
2948.000000	63.103318  
2947.000000	63.117003  
2946.000000	63.124465  
2945.000000	63.125467  
2944.000000	63.120198  
2943.000000	63.109421  
2942.000000	63.094067  
2941.000000	63.075613  
2940.000000	63.055539  
2939.000000	63.035321  
2938.000000	63.015985  
2937.000000	62.998199  
2936.000000	62.982106  
2935.000000	62.967395  
2934.000000	62.953281  
2933.000000	62.938928  
2932.000000	62.923383  
2931.000000	62.905788  
2930.000000	62.885737  
2929.000000	62.863492  
2928.000000	62.839674  
2927.000000	62.815380  
2926.000000	62.792158  
2925.000000	62.771987  
2924.000000	62.756848  
2923.000000	62.748599  
2922.000000	62.748408  
2921.000000	62.756896  
2920.000000	62.773609  
2919.000000	62.797307  
2918.000000	62.825751  
2917.000000	62.856173  
2916.000000	62.885951  
2915.000000	62.912678  
2914.000000	62.934589  
2913.000000	62.950491  
2912.000000	62.960147  
2911.000000	62.963795  
2910.000000	62.962007  
2909.000000	62.955331  
2908.000000	62.944316  
2907.000000	62.929725  
2906.000000	62.912750  
2905.000000	62.895107  
2904.000000	62.879014  
2903.000000	62.867283  
2902.000000	62.862968  
2901.000000	62.868595  
2900.000000	62.885499  
2899.000000	62.913584  
2898.000000	62.950897  
2897.000000	62.993860  
2896.000000	63.037848  
2895.000000	63.078093  
2894.000000	63.110399  
2893.000000	63.132166  
2892.000000	63.142061  
2891.000000	63.140654  
2890.000000	63.129138  
2889.000000	63.109254  
2888.000000	63.082194  
2887.000000	63.048744  
2886.000000	63.009524  
2885.000000	62.965607  
2884.000000	62.918949  
2883.000000	62.872719  
2882.000000	62.831115  
2881.000000	62.798881  
2880.000000	62.780356  
2879.000000	62.778115  
2878.000000	62.792515  
2877.000000	62.821221  
2876.000000	62.859725  
2875.000000	62.902188  
2874.000000	62.942528  
2873.000000	62.975621  
2872.000000	62.998318  
2871.000000	63.009762  
2870.000000	63.010978  
2869.000000	63.004326  
2868.000000	62.992811  
2867.000000	62.979006  
2866.000000	62.964987  
2865.000000	62.951827  
2864.000000	62.939882  
2863.000000	62.928724  
2862.000000	62.918019  
2861.000000	62.907075  
2860.000000	62.895321  
2859.000000	62.882232  
2858.000000	62.867307  
2857.000000	62.850260  
2856.000000	62.831044  
2855.000000	62.810301  
2854.000000	62.789201  
2853.000000	62.769770  
2852.000000	62.754559  
2851.000000	62.746381  
2850.000000	62.747597  
2849.000000	62.759828  
2848.000000	62.783360  
2847.000000	62.817239  
2846.000000	62.859106  
2845.000000	62.905764  
2844.000000	62.953233  
2843.000000	62.997865  
2842.000000	63.036417  
2841.000000	63.066458  
2840.000000	63.086485  
2839.000000	63.096213  
2838.000000	63.096070  
2837.000000	63.087439  
2836.000000	63.071966  
2835.000000	63.051605  
2834.000000	63.027858  
2833.000000	63.002276  
2832.000000	62.975668  
2831.000000	62.948584  
2830.000000	62.921333  
2829.000000	62.894368  
2828.000000	62.868547  
2827.000000	62.845301  
2826.000000	62.826704  
2825.000000	62.814903  
2824.000000	62.811875  
2823.000000	62.818598  
2822.000000	62.834692  
2821.000000	62.858271  
2820.000000	62.886118  
2819.000000	62.914299  
2818.000000	62.939119  
2817.000000	62.957882  
2816.000000	62.969541  
2815.000000	62.974905  
2814.000000	62.976312  
2813.000000	62.976527  
2812.000000	62.978243  
2811.000000	62.982797  
2810.000000	62.989974  
2809.000000	62.997794  
2808.000000	63.003706  
2807.000000	63.004851  
2806.000000	62.999534  
2805.000000	62.987303  
2804.000000	62.969183  
2803.000000	62.947583  
2802.000000	62.925410  
2801.000000	62.905597  
2800.000000	62.890410  
2799.000000	62.881255  
2798.000000	62.878513  
2797.000000	62.881517  
2796.000000	62.889075  
2795.000000	62.899589  
2794.000000	62.911558  
2793.000000	62.923812  
2792.000000	62.935757  
2791.000000	62.947082  
2790.000000	62.957763  
2789.000000	62.968111  
2788.000000	62.978410  
2787.000000	62.988734  
2786.000000	62.998676  
2785.000000	63.007640  
2784.000000	63.014459  
2783.000000	63.017916  
2782.000000	63.016772  
2781.000000	63.010001  
2780.000000	62.997102  
2779.000000	62.978363  
2778.000000	62.954759  
2777.000000	62.927889  
2776.000000	62.899780  
2775.000000	62.872624  
2774.000000	62.848401  
2773.000000	62.828564  
2772.000000	62.813925  
2771.000000	62.804579  
2770.000000	62.799859  
2769.000000	62.798762  
2768.000000	62.799692  
2767.000000	62.800979  
2766.000000	62.800741  
2765.000000	62.797260  
2764.000000	62.789106  
2763.000000	62.775444  
2762.000000	62.756395  
2761.000000	62.733197  
2760.000000	62.708044  
2759.000000	62.683987  
2758.000000	62.663841  
2757.000000	62.650251  
2756.000000	62.644600  
2755.000000	62.647414  
2754.000000	62.658071  
2753.000000	62.675523  
2752.000000	62.698173  
2751.000000	62.724494  
2750.000000	62.752890  
2749.000000	62.781667  
2748.000000	62.809181  
2747.000000	62.833499  
2746.000000	62.852478  
2745.000000	62.864017  
2744.000000	62.866497  
2743.000000	62.859058  
2742.000000	62.841796  
2741.000000	62.816214  
2740.000000	62.785100  
2739.000000	62.751889  
2738.000000	62.720346  
2737.000000	62.693858  
2736.000000	62.675046  
2735.000000	62.665414  
2734.000000	62.665295  
2733.000000	62.673902  
2732.000000	62.689638  
2731.000000	62.710189  
2730.000000	62.733197  
2729.000000	62.756085  
2728.000000	62.776732  
2727.000000	62.793350  
2726.000000	62.804937  
2725.000000	62.811303  
2724.000000	62.812733  
2723.000000	62.810039  
2722.000000	62.804031  
2721.000000	62.795710  
2720.000000	62.785744  
2719.000000	62.774801  
2718.000000	62.763261  
2717.000000	62.751531  
2716.000000	62.740039  
2715.000000	62.729430  
2714.000000	62.720561  
2713.000000	62.714171  
2712.000000	62.710952  
2711.000000	62.711024  
2710.000000	62.714123  
2709.000000	62.719321  
2708.000000	62.725138  
2707.000000	62.729740  
2706.000000	62.731409  
2705.000000	62.728929  
2704.000000	62.721514  
2703.000000	62.709426  
2702.000000	62.693524  
2701.000000	62.675571  
2700.000000	62.657642  
2699.000000	62.641906  
2698.000000	62.630033  
2697.000000	62.622904  
2696.000000	62.620735  
2695.000000	62.622809  
2694.000000	62.627553  
2693.000000	62.633109  
2692.000000	62.637758  
2691.000000	62.640118  
2690.000000	62.639498  
2689.000000	62.636160  
2688.000000	62.631201  
2687.000000	62.626290  
2686.000000	62.623214  
2685.000000	62.623429  
2684.000000	62.627673  
2683.000000	62.635970  
2682.000000	62.647485  
2681.000000	62.660670  
2680.000000	62.673902  
2679.000000	62.685585  
2678.000000	62.694692  
2677.000000	62.700867  
2676.000000	62.704372  
2675.000000	62.705802  
2674.000000	62.705898  
2673.000000	62.705326  
2672.000000	62.704396  
2671.000000	62.703323  
2670.000000	62.701678  
2669.000000	62.699127  
2668.000000	62.694907  
2667.000000	62.688779  
2666.000000	62.680101  
2665.000000	62.668323  
2664.000000	62.652897  
2663.000000	62.633371  
2662.000000	62.609863  
2661.000000	62.583136  
2660.000000	62.554740  
2659.000000	62.526965  
2658.000000	62.502670  
2657.000000	62.484812  
2656.000000	62.475681  
2655.000000	62.476301  
2654.000000	62.486147  
2653.000000	62.503051  
2652.000000	62.523460  
2651.000000	62.543129  
2650.000000	62.557983  
2649.000000	62.564969  
2648.000000	62.562513  
2647.000000	62.551116  
2646.000000	62.532711  
2645.000000	62.510728  
2644.000000	62.488794  
2643.000000	62.470483  
2642.000000	62.458801  
2641.000000	62.455391  
2640.000000	62.460899  
2639.000000	62.474489  
2638.000000	62.494254  
2637.000000	62.517380  
2636.000000	62.540841  
2635.000000	62.561249  
2634.000000	62.575697  
2633.000000	62.581944  
2632.000000	62.579035  
2631.000000	62.567162  
2630.000000	62.547731  
2629.000000	62.523293  
2628.000000	62.497067  
2627.000000	62.472486  
2626.000000	62.452316  
2625.000000	62.438583  
2624.000000	62.431907  
2623.000000	62.431526  
2622.000000	62.435507  
2621.000000	62.441062  
2620.000000	62.445282  
2619.000000	62.445569  
2618.000000	62.440443  
2617.000000	62.429428  
2616.000000	62.413454  
2615.000000	62.394428  
2614.000000	62.375068  
2613.000000	62.358260  
2612.000000	62.346601  
2611.000000	62.342047  
2610.000000	62.345504  
2609.000000	62.356829  
2608.000000	62.374782  
2607.000000	62.397313  
2606.000000	62.421894  
2605.000000	62.445783  
2604.000000	62.466526  
2603.000000	62.482142  
2602.000000	62.491488  
2601.000000	62.494349  
2600.000000	62.491178  
2599.000000	62.483143  
2598.000000	62.471771  
2597.000000	62.458705  
2596.000000	62.445425  
2595.000000	62.432980  
2594.000000	62.422251  
2593.000000	62.413763  
2592.000000	62.407851  
2591.000000	62.404489  
2590.000000	62.403726  
2589.000000	62.405276  
2588.000000	62.408685  
2587.000000	62.413215  
2586.000000	62.417745  
2585.000000	62.420868  
2584.000000	62.421154  
2583.000000	62.417411  
2582.000000	62.409114  
2581.000000	62.396860  
2580.000000	62.382268  
2579.000000	62.367987  
2578.000000	62.357044  
2577.000000	62.352013  
2576.000000	62.354278  
2575.000000	62.363576  
2574.000000	62.378001  
2573.000000	62.394618  
2572.000000	62.410211  
2571.000000	62.422156  
2570.000000	62.428808  
2569.000000	62.429881  
2568.000000	62.426137  
2567.000000	62.419080  
2566.000000	62.410259  
2565.000000	62.400960  
2564.000000	62.391829  
2563.000000	62.383031  
2562.000000	62.374281  
2561.000000	62.365007  
2560.000000	62.354660  
2559.000000	62.343215  
2558.000000	62.331223  
2557.000000	62.319970  
2556.000000	62.311172  
2555.000000	62.306547  
2554.000000	62.307429  
2553.000000	62.314248  
2552.000000	62.326383  
2551.000000	62.342309  
2550.000000	62.359857  
2549.000000	62.376832  
2548.000000	62.391209  
2547.000000	62.401652  
2546.000000	62.407445  
2545.000000	62.408542  
2544.000000	62.405252  
2543.000000	62.398195  
2542.000000	62.388467  
2541.000000	62.377166  
2540.000000	62.365603  
2539.000000	62.354755  
2538.000000	62.345814  
2537.000000	62.339591  
2536.000000	62.336421  
2535.000000	62.335944  
2534.000000	62.337279  
2533.000000	62.339138  
2532.000000	62.340211  
2531.000000	62.339448  
2530.000000	62.336492  
2529.000000	62.331652  
2528.000000	62.325954  
2527.000000	62.320637  
2526.000000	62.316894  
2525.000000	62.315320  
2524.000000	62.315750  
2523.000000	62.317395  
2522.000000	62.318849  
2521.000000	62.318730  
2520.000000	62.315726  
2519.000000	62.308931  
2518.000000	62.297701  
2517.000000	62.281966  
2516.000000	62.261629  
2515.000000	62.236309  
2514.000000	62.205839  
2513.000000	62.170171  
2512.000000	62.130045  
2511.000000	62.087011  
2510.000000	62.044024  
2509.000000	62.005019  
2508.000000	61.974501  
2507.000000	61.956357  
2506.000000	61.953210  
2505.000000	61.965417  
2504.000000	61.990952  
2503.000000	62.025570  
2502.000000	62.063407  
2501.000000	62.098097  
2500.000000	62.123823  
2499.000000	62.136459  
2498.000000	62.134003  
2497.000000	62.117052  
2496.000000	62.088584  
2495.000000	62.053251  
2494.000000	62.016725  
2493.000000	61.984658  
2492.000000	61.961984  
2491.000000	61.952066  
2490.000000	61.956501  
2489.000000	61.975002  
2488.000000	62.005424  
2487.000000	62.044548  
2486.000000	62.088274  
2485.000000	62.132668  
2484.000000	62.174057  
2483.000000	62.209844  
2482.000000	62.238478  
2481.000000	62.259435  
2480.000000	62.272882  
2479.000000	62.279558  
2478.000000	62.280344  
2477.000000	62.276053  
2476.000000	62.267327  
2475.000000	62.254643  
2474.000000	62.238836  
2473.000000	62.220788  
2472.000000	62.201809  
2471.000000	62.183332  
2470.000000	62.166810  
2469.000000	62.153363  
2468.000000	62.143850  
2467.000000	62.138080  
2466.000000	62.135171  
2465.000000	62.133693  
2464.000000	62.132048  
2463.000000	62.128782  
2462.000000	62.123107  
2461.000000	62.114596  
2460.000000	62.103533  
2459.000000	62.090659  
2458.000000	62.076711  
2457.000000	62.062454  
2456.000000	62.048220  
2455.000000	62.033915  
2454.000000	62.019324  
2453.000000	62.004113  
2452.000000	61.988353  
2451.000000	61.972403  
2450.000000	61.957263  
2449.000000	61.944222  
2448.000000	61.934542  
2447.000000	61.929106  
2446.000000	61.927700  
2445.000000	61.928987  
2444.000000	61.930561  
2443.000000	61.929535  
2442.000000	61.923193  
2441.000000	61.909818  
2440.000000	61.889362  
2439.000000	61.863684  
2438.000000	61.836218  
2437.000000	61.811518  
2436.000000	61.793923  
2435.000000	61.786675  
2434.000000	61.791276  
2433.000000	61.806845  
2432.000000	61.830615  
2431.000000	61.858797  
2430.000000	61.887407  
2429.000000	61.913371  
2428.000000	61.934947  
2427.000000	61.951947  
2426.000000	61.965227  
2425.000000	61.976194  
2424.000000	61.986136  
2423.000000	61.995840  
2422.000000	62.005662  
2421.000000	62.015581  
2420.000000	62.025570  
2419.000000	62.035560  
2418.000000	62.045669  
2417.000000	62.055730  
2416.000000	62.065410  
2415.000000	62.073898  
2414.000000	62.080025  
2413.000000	62.082266  
2412.000000	62.079381  
2411.000000	62.070894  
2410.000000	62.057399  
2409.000000	62.040758  
2408.000000	62.023711  
2407.000000	62.009358  
2406.000000	62.000322  
2405.000000	61.998271  
2404.000000	62.003135  
2403.000000	62.013411  
2402.000000	62.026238  
2401.000000	62.038350  
2400.000000	62.046933  
2399.000000	62.050247  
2398.000000	62.048053  
2397.000000	62.041306  
2396.000000	62.031888  
2395.000000	62.021899  
2394.000000	62.012815  
2393.000000	62.005019  
2392.000000	61.997747  
2391.000000	61.989307  
2390.000000	61.977696  
2389.000000	61.961197  
2388.000000	61.939215  
2387.000000	61.912465  
2386.000000	61.882686  
2385.000000	61.852598  
2384.000000	61.824631  
2383.000000	61.801004  
2382.000000	61.782884  
2381.000000	61.770582  
2380.000000	61.763572  
2379.000000	61.761140  
2378.000000	61.762619  
2377.000000	61.767697  
2376.000000	61.776280  
2375.000000	61.788392  
2374.000000	61.803793  
2373.000000	61.821889  
2372.000000	61.841440  
2371.000000	61.860871  
2370.000000	61.878418  
2369.000000	61.892509  
2368.000000	61.901950  
2367.000000	61.906123  
2366.000000	61.904978  
2365.000000	61.898875  
2364.000000	61.888384  
2363.000000	61.874198  
2362.000000	61.857128  
2361.000000	61.838245  
2360.000000	61.818790  
2359.000000	61.800527  
2358.000000	61.785411  
2357.000000	61.775374  
2356.000000	61.771965  
2355.000000	61.775898  
2354.000000	61.787033  
2353.000000	61.804080  
2352.000000	61.824798  
2351.000000	61.846566  
2350.000000	61.866855  
2349.000000	61.883354  
2348.000000	61.894488  
2347.000000	61.899471  
2346.000000	61.898374  
2345.000000	61.892008  
2344.000000	61.881399  
2343.000000	61.867880  
2342.000000	61.852335  
2341.000000	61.835646  
2340.000000	61.818051  
2339.000000	61.799550  
2338.000000	61.779832  
2337.000000	61.758732  
2336.000000	61.735963  
2335.000000	61.711668  
2334.000000	61.686253  
2333.000000	61.660575  
2332.000000	61.635804  
2331.000000	61.613416  
2330.000000	61.595010  
2329.000000	61.582064  
2328.000000	61.575722  
2327.000000	61.576533  
2326.000000	61.584138  
2325.000000	61.597633  
2324.000000	61.615133  
2323.000000	61.634540  
2322.000000	61.653518  
2321.000000	61.670136  
2320.000000	61.682796  
2319.000000	61.690831  
2318.000000	61.694312  
2317.000000	61.694025  
2316.000000	61.691117  
2315.000000	61.686921  
2314.000000	61.682748  
2313.000000	61.679506  
2312.000000	61.677837  
2311.000000	61.677765  
2310.000000	61.678886  
2309.000000	61.680436  
2308.000000	61.681532  
2307.000000	61.681199  
2306.000000	61.678433  
2305.000000	61.672711  
2304.000000	61.663770  
2303.000000	61.651825  
2302.000000	61.637449  
2301.000000	61.621665  
2300.000000	61.605525  
2299.000000	61.589860  
2298.000000	61.575460  
2297.000000	61.562490  
2296.000000	61.551141  
2295.000000	61.541366  
2294.000000	61.533308  
2293.000000	61.527228  
2292.000000	61.523580  
2291.000000	61.522960  
2290.000000	61.525774  
2289.000000	61.531949  
2288.000000	61.540794  
2287.000000	61.551094  
2286.000000	61.561083  
2285.000000	61.568808  
2284.000000	61.572670  
2283.000000	61.571741  
2282.000000	61.565876  
2281.000000	61.555767  
2280.000000	61.542677  
2279.000000	61.528205  
2278.000000	61.513733  
2277.000000	61.500453  
2276.000000	61.489319  
2275.000000	61.480998  
2274.000000	61.476159  
2273.000000	61.475110  
2272.000000	61.477923  
2271.000000	61.484098  
2270.000000	61.492633  
2269.000000	61.502099  
2268.000000	61.510658  
2267.000000	61.516594  
2266.000000	61.518549  
2265.000000	61.516046  
2264.000000	61.509227  
2263.000000	61.499071  
2262.000000	61.487174  
2261.000000	61.475300  
2260.000000	61.465120  
2259.000000	61.457777  
2258.000000	61.453747  
2257.000000	61.452627  
2256.000000	61.453390  
2255.000000	61.454439  
2254.000000	61.454057  
2253.000000	61.450457  
2252.000000	61.442351  
2251.000000	61.429023  
2250.000000	61.410570  
2249.000000	61.387991  
2248.000000	61.363124  
2247.000000	61.338424  
2246.000000	61.316514  
2245.000000	61.299586  
2244.000000	61.289310  
2243.000000	61.286258  
2242.000000	61.290407  
2241.000000	61.300873  
2240.000000	61.316633  
2239.000000	61.336493  
2238.000000	61.359453  
2237.000000	61.384725  
2236.000000	61.411213  
2235.000000	61.437678  
2234.000000	61.462306  
2233.000000	61.482834  
2232.000000	61.496806  
2231.000000	61.502027  
2230.000000	61.496996  
2229.000000	61.481547  
2228.000000	61.457014  
2227.000000	61.426329  
2226.000000	61.393260  
2225.000000	61.361861  
2224.000000	61.335802  
2223.000000	61.317515  
2222.000000	61.308050  
2221.000000	61.307048  
2220.000000	61.312937  
2219.000000	61.323642  
2218.000000	61.337089  
2217.000000	61.351752  
2216.000000	61.366462  
2215.000000	61.380958  
2214.000000	61.395049  
2213.000000	61.408686  
2212.000000	61.421704  
2211.000000	61.433577  
2210.000000	61.443567  
2209.000000	61.450934  
2208.000000	61.455059  
2207.000000	61.455750  
2206.000000	61.453437  
2205.000000	61.448884  
2204.000000	61.443066  
2203.000000	61.437201  
2202.000000	61.432361  
2201.000000	61.429476  
2200.000000	61.429047  
2199.000000	61.431217  
2198.000000	61.435699  
2197.000000	61.441922  
2196.000000	61.449122  
2195.000000	61.456131  
2194.000000	61.461710  
2193.000000	61.464548  
2192.000000	61.463809  
2191.000000	61.458921  
2190.000000	61.450242  
2189.000000	61.438608  
2188.000000	61.425805  
2187.000000	61.414146  
2186.000000	61.405944  
2185.000000	61.402916  
2184.000000	61.405706  
2183.000000	61.413979  
2182.000000	61.425948  
2181.000000	61.438751  
2180.000000	61.449027  
2179.000000	61.453676  
2178.000000	61.450409  
2177.000000	61.438298  
2176.000000	61.418151  
2175.000000	61.392188  
2174.000000	61.364006  
2173.000000	61.337590  
2172.000000	61.316776  
2171.000000	61.304450  
2170.000000	61.302447  
2169.000000	61.311006  
2168.000000	61.328911  
2167.000000	61.353611  
2166.000000	61.381959  
2165.000000	61.409997  
2164.000000	61.433839  
2163.000000	61.449503  
2162.000000	61.453914  
2161.000000	61.444544  
2160.000000	61.420130  
2159.000000	61.380839  
2158.000000	61.328482  
2157.000000	61.266517  
2156.000000	61.199712  
2155.000000	61.133742  
2154.000000	61.074376  
2153.000000	61.026525  
2152.000000	60.993599  
2151.000000	60.976696  
2150.000000	60.974764  
2149.000000	60.984897  
2148.000000	61.003279  
2147.000000	61.025953  
2146.000000	61.049580  
2145.000000	61.072206  
2144.000000	61.093449  
2143.000000	61.114025  
2142.000000	61.135482  
2141.000000	61.159110  
2140.000000	61.185526  
2139.000000	61.214518  
2138.000000	61.244440  
2137.000000	61.273217  
2136.000000	61.297988  
2135.000000	61.316537  
2134.000000	61.327075  
2133.000000	61.328864  
2132.000000	61.321973  
2131.000000	61.307382  
2130.000000	61.286449  
2129.000000	61.260914  
2128.000000	61.232471  
2127.000000	61.202979  
2126.000000	61.173892  
2125.000000	61.146473  
2124.000000	61.121797  
2123.000000	61.100912  
2122.000000	61.084342  
2121.000000	61.072301  
2120.000000	61.064672  
2119.000000	61.061120  
2118.000000	61.061048  
2117.000000	61.063742  
2116.000000	61.068367  
2115.000000	61.074185  
2114.000000	61.080455  
2113.000000	61.086821  
2112.000000	61.092782  
2111.000000	61.098098  
2110.000000	61.102724  
2109.000000	61.106610  
2108.000000	61.109900  
2107.000000	61.112427  
2106.000000	61.114001  
2105.000000	61.114096  
2104.000000	61.111974  
2103.000000	61.106872  
2102.000000	61.098313  
2101.000000	61.086344  
2100.000000	61.071634  
2099.000000	61.055350  
2098.000000	61.039161  
2097.000000	61.024999  
2096.000000	61.014604  
2095.000000	61.009216  
2094.000000	61.009216  
2093.000000	61.014294  
2092.000000	61.023449  
2091.000000	61.035156  
2090.000000	61.047601  
2089.000000	61.059045  
2088.000000	61.068177  
2087.000000	61.074066  
2086.000000	61.076378  
2085.000000	61.075162  
2084.000000	61.070919  
2083.000000	61.064672  
2082.000000	61.057519  
2081.000000	61.050677  
2080.000000	61.044812  
2079.000000	61.040210  
2078.000000	61.036062  
2077.000000	61.030960  
2076.000000	61.023092  
2075.000000	61.010503  
2074.000000	60.992050  
2073.000000	60.967445  
2072.000000	60.938000  
2071.000000	60.906195  
2070.000000	60.875415  
2069.000000	60.849332  
2068.000000	60.831379  
2067.000000	60.824012  
2066.000000	60.828280  
2065.000000	60.843420  
2064.000000	60.867047  
2063.000000	60.895419  
2062.000000	60.924077  
2061.000000	60.948586  
2060.000000	60.964941  
2059.000000	60.970544  
2058.000000	60.964131  
2057.000000	60.946106  
2056.000000	60.918521  
2055.000000	60.884618  
2054.000000	60.848307  
2053.000000	60.813641  
2052.000000	60.784220  
2051.000000	60.762667  
2050.000000	60.750699  
2049.000000	60.748696  
2048.000000	60.755872  
2047.000000	60.770297  
2046.000000	60.789513  
2045.000000	60.810470  
2044.000000	60.829758  
2043.000000	60.844111  
2042.000000	60.850882  
2041.000000	60.848450  
2040.000000	60.836553  
2039.000000	60.816502  
2038.000000	60.791015  
2037.000000	60.763883  
2036.000000	60.739064  
2035.000000	60.720038  
2034.000000	60.709071  
2033.000000	60.706782  
2032.000000	60.712289  
2031.000000	60.723185  
2030.000000	60.736536  
2029.000000	60.749411  
2028.000000	60.759854  
2027.000000	60.766959  
2026.000000	60.771322  
2025.000000	60.774159  
2024.000000	60.777401  
2023.000000	60.782742  
2022.000000	60.791373  
2021.000000	60.803675  
2020.000000	60.819172  
2019.000000	60.836958  
2018.000000	60.855722  
2017.000000	60.874176  
2016.000000	60.890936  
2015.000000	60.904908  
2014.000000	60.915040  
2013.000000	60.920453  
2012.000000	60.920453  
2011.000000	60.914444  
2010.000000	60.902285  
2009.000000	60.884261  
2008.000000	60.861349  
2007.000000	60.835194  
2006.000000	60.807800  
2005.000000	60.781526  
2004.000000	60.758471  
2003.000000	60.740470  
2002.000000	60.728812  
2001.000000	60.723972  
2000.000000	60.725688  
1999.000000	60.732984  
1998.000000	60.744380  
1997.000000	60.758304  
1996.000000	60.772657  
1995.000000	60.785698  
1994.000000	60.795903  
1993.000000	60.802340  
1992.000000	60.804629  
1991.000000	60.802888  
1990.000000	60.797715  
1989.000000	60.789966  
1988.000000	60.780596  
1987.000000	60.770392  
1986.000000	60.759949  
1985.000000	60.749506  
1984.000000	60.739207  
1983.000000	60.729265  
1982.000000	60.719943  
1981.000000	60.711717  
1980.000000	60.705184  
1979.000000	60.700798  
1978.000000	60.698795  
1977.000000	60.698843  
1976.000000	60.700035  
1975.000000	60.700964  
1974.000000	60.700082  
1973.000000	60.695958  
1972.000000	60.687875  
1971.000000	60.675740  
1970.000000	60.660529  
1969.000000	60.643839  
1968.000000	60.627770  
1967.000000	60.614466  
1966.000000	60.605525  
1965.000000	60.601902  
1964.000000	60.603618  
1963.000000	60.610246  
1962.000000	60.620737  
1961.000000	60.633897  
1960.000000	60.648488  
1959.000000	60.663533  
1958.000000	60.678029  
1957.000000	60.690999  
1956.000000	60.701322  
1955.000000	60.707664  
1954.000000	60.708761  
1953.000000	60.703420  
1952.000000	60.690855  
1951.000000	60.670876  
1950.000000	60.644388  
1949.000000	60.613203  
1948.000000	60.580086  
1947.000000	60.548305  
1946.000000	60.521268  
1945.000000	60.501766  
1944.000000	60.491561  
1943.000000	60.491132  
1942.000000	60.499596  
1941.000000	60.514855  
1940.000000	60.534214  
1939.000000	60.554718  
1938.000000	60.573625  
1937.000000	60.588932  
1936.000000	60.599374  
1935.000000	60.604548  
1934.000000	60.604596  
1933.000000	60.600256  
1932.000000	60.592460  
1931.000000	60.582208  
1930.000000	60.570478  
1929.000000	60.558438  
1928.000000	60.547137  
1927.000000	60.537505  
1926.000000	60.530138  
1925.000000	60.525226  
1924.000000	60.522437  
1923.000000	60.520935  
1922.000000	60.519623  
1921.000000	60.517358  
1920.000000	60.513567  
1919.000000	60.508298  
1918.000000	60.502123  
1917.000000	60.495877  
1916.000000	60.490417  
1915.000000	60.486340  
1914.000000	60.483527  
1913.000000	60.481238  
1912.000000	60.478186  
1911.000000	60.473012  
1910.000000	60.464692  
1909.000000	60.453033  
1908.000000	60.438442  
1907.000000	60.422110  
1906.000000	60.405492  
1905.000000	60.389924  
1904.000000	60.376262  
1903.000000	60.364556  
1902.000000	60.354280  
1901.000000	60.344529  
1900.000000	60.334372  
1899.000000	60.323309  
1898.000000	60.311150  
1897.000000	60.298347  
1896.000000	60.285592  
1895.000000	60.273957  
1894.000000	60.264444  
1893.000000	60.257983  
1892.000000	60.255265  
1891.000000	60.256743  
1890.000000	60.262441  
1889.000000	60.272097  
1888.000000	60.284900  
1887.000000	60.299563  
1886.000000	60.314393  
1885.000000	60.327649  
1884.000000	60.337543  
1883.000000	60.342597  
1882.000000	60.341906  
1881.000000	60.335373  
1880.000000	60.323786  
1879.000000	60.308670  
1878.000000	60.291862  
1877.000000	60.275316  
1876.000000	60.260748  
1875.000000	60.249471  
1874.000000	60.242223  
1873.000000	60.239386  
1872.000000	60.241055  
1871.000000	60.247015  
1870.000000	60.256958  
1869.000000	60.270333  
1868.000000	60.286450  
1867.000000	60.304236  
1866.000000	60.322117  
1865.000000	60.338306  
1864.000000	60.350966  
1863.000000	60.358285  
1862.000000	60.359239  
1861.000000	60.353660  
1860.000000	60.342335  
1859.000000	60.327172  
1858.000000	60.310554  
1857.000000	60.295057  
1856.000000	60.282754  
1855.000000	60.274767  
1854.000000	60.271096  
1853.000000	60.270595  
1852.000000	60.271430  
1851.000000	60.271859  
1850.000000	60.270500  
1849.000000	60.266947  
1848.000000	60.261702  
1847.000000	60.256171  
1846.000000	60.252165  
1845.000000	60.251379  
1844.000000	60.254764  
1843.000000	60.262250  
1842.000000	60.272765  
1841.000000	60.284328  
1840.000000	60.294628  
1839.000000	60.301518  
1838.000000	60.303306  
1837.000000	60.299253  
1836.000000	60.289835  
1835.000000	60.276412  
1834.000000	60.260820  
1833.000000	60.245108  
1832.000000	60.231018  
1831.000000	60.219669  
1830.000000	60.211443  
1829.000000	60.205721  
1828.000000	60.201287  
1827.000000	60.196542  
1826.000000	60.190105  
1825.000000	60.181045  
1824.000000	60.169219  
1823.000000	60.155344  
1822.000000	60.140800  
1821.000000	60.127329  
1820.000000	60.116624  
1819.000000	60.109925  
1818.000000	60.107541  
1817.000000	60.108995  
1816.000000	60.113096  
1815.000000	60.118031  
1814.000000	60.121941  
1813.000000	60.123133  
1812.000000	60.120391  
1811.000000	60.113167  
1810.000000	60.101509  
1809.000000	60.086083  
1808.000000	60.067892  
1807.000000	60.048294  
1806.000000	60.028696  
1805.000000	60.010623  
1804.000000	59.995388  
1803.000000	59.984183  
1802.000000	59.977626  
1801.000000	59.975743  
1800.000000	59.977865  
1799.000000	59.982848  
1798.000000	59.989213  
1797.000000	59.995603  
1796.000000	60.000848  
1795.000000	60.004305  
1794.000000	60.005903  
1793.000000	60.005760  
1792.000000	60.004258  
1791.000000	60.001540  
1790.000000	59.997344  
1789.000000	59.991121  
1788.000000	59.982347  
1787.000000	59.970521  
1786.000000	59.955883  
1785.000000	59.939265  
1784.000000	59.922218  
1783.000000	59.906864  
1782.000000	59.895038  
1781.000000	59.888148  
1780.000000	59.886622  
1779.000000	59.890079  
1778.000000	59.897041  
1777.000000	59.905624  
1776.000000	59.914064  
1775.000000	59.920930  
1774.000000	59.925317  
1773.000000	59.926867  
1772.000000	59.925699  
1771.000000	59.921908  
1770.000000	59.915447  
1769.000000	59.905958  
1768.000000	59.892892  
1767.000000	59.875726  
1766.000000	59.854292  
1765.000000	59.828829  
1764.000000	59.800434  
1763.000000	59.770679  
1762.000000	59.741568  
1761.000000	59.715056  
1760.000000	59.693026  
1759.000000	59.676766  
1758.000000	59.667205  
1757.000000	59.664702  
1756.000000	59.669470  
1755.000000	59.681320  
1754.000000	59.699916  
1753.000000	59.724283  
1752.000000	59.753203  
1751.000000	59.784865  
1750.000000	59.817004  
1749.000000	59.846925  
1748.000000	59.872007  
1747.000000	59.889841  
1746.000000	59.898900  
1745.000000	59.898710  
1744.000000	59.889841  
1743.000000	59.873795  
1742.000000	59.852814  
1741.000000	59.829449  
1740.000000	59.805917  
1739.000000	59.783649  
1738.000000	59.763526  
1737.000000	59.745764  
1736.000000	59.730124  
1735.000000	59.716010  
1734.000000	59.703230  
1733.000000	59.691572  
1732.000000	59.681129  
1731.000000	59.671854  
1730.000000	59.663486  
1729.000000	59.655451  
1728.000000	59.646868  
1727.000000	59.636497  
1726.000000	59.623241  
1725.000000	59.606266  
1724.000000	59.585332  
1723.000000	59.561038  
1722.000000	59.534668  
1721.000000	59.508347  
1720.000000	59.484601  
1719.000000	59.466052  
1718.000000	59.454917  
1717.000000	59.452772  
1716.000000	59.460306  
1715.000000	59.477138  
1714.000000	59.501886  
1713.000000	59.532308  
1712.000000	59.565758  
1711.000000	59.599471  
1710.000000	59.631085  
1709.000000	59.658789  
1708.000000	59.681773  
1707.000000	59.699892  
1706.000000	59.713530  
1705.000000	59.723258  
1704.000000	59.729290  
1703.000000	59.731626  
1702.000000	59.730100  
1701.000000	59.724497  
1700.000000	59.715032  
1699.000000	59.702658  
1698.000000	59.688735  
1697.000000	59.675216  
1696.000000	59.663820  
1695.000000	59.655952  
1694.000000	59.652113  
1693.000000	59.651899  
1692.000000	59.654259  
1691.000000	59.657549  
1690.000000	59.660291  
1689.000000	59.661436  
1688.000000	59.660601  
1687.000000	59.658169  
1686.000000	59.654998  
1685.000000	59.652233  
1684.000000	59.650611  
1683.000000	59.650301  
1682.000000	59.651088  
1681.000000	59.652519  
1680.000000	59.653997  
1679.000000	59.654998  
1678.000000	59.655380  
1677.000000	59.655380  
1676.000000	59.655284  
1675.000000	59.655427  
1674.000000	59.656023  
1673.000000	59.657001  
1672.000000	59.658002  
1671.000000	59.658408  
1670.000000	59.657359  
1669.000000	59.654116  
1668.000000	59.648203  
1667.000000	59.639787  
1666.000000	59.629583  
1665.000000	59.618663  
1664.000000	59.608316  
1663.000000	59.599423  
1662.000000	59.592199  
1661.000000	59.585762  
1660.000000	59.578466  
1659.000000	59.567952  
1658.000000	59.551787  
1657.000000	59.528136  
1656.000000	59.496665  
1655.000000	59.458637  
1654.000000	59.417462  
1653.000000	59.377551  
1652.000000	59.344029  
1651.000000	59.321308  
1650.000000	59.312486  
1649.000000	59.318399  
1648.000000	59.337735  
1647.000000	59.367513  
1646.000000	59.403800  
1645.000000	59.442377  
1644.000000	59.479355  
1643.000000	59.511709  
1642.000000	59.537100  
1641.000000	59.554147  
1640.000000	59.562087  
1639.000000	59.560894  
1638.000000	59.551191  
1637.000000	59.534335  
1636.000000	59.512329  
1635.000000	59.487748  
1634.000000	59.463572  
1633.000000	59.442520  
1632.000000	59.426712  
1631.000000	59.417319  
1630.000000	59.414029  
1629.000000	59.415316  
1628.000000	59.418511  
1627.000000	59.420490  
1626.000000	59.418272  
1625.000000	59.409928  
1624.000000	59.394717  
1623.000000	59.373664  
1622.000000	59.349036  
1621.000000	59.324288  
1620.000000	59.302926  
1619.000000	59.288048  
1618.000000	59.281873  
1617.000000	59.285068  
1616.000000	59.296751  
1615.000000	59.314537  
1614.000000	59.335231  
1613.000000	59.355306  
1612.000000	59.371638  
1611.000000	59.381794  
1610.000000	59.384369  
1609.000000	59.379100  
1608.000000	59.366607  
1607.000000	59.348130  
1606.000000	59.325242  
1605.000000	59.299635  
1604.000000	59.272956  
1603.000000	59.246778  
1602.000000	59.222459  
1601.000000	59.201145  
1600.000000	59.183740  
1599.000000	59.170651  
1598.000000	59.162163  
1597.000000	59.158062  
1596.000000	59.158182  
1595.000000	59.161901  
1594.000000	59.168791  
1593.000000	59.178423  
1592.000000	59.190559  
1591.000000	59.205150  
1590.000000	59.222388  
1589.000000	59.242177  
1588.000000	59.264469  
1587.000000	59.288859  
1586.000000	59.314441  
1585.000000	59.340095  
1584.000000	59.364151  
1583.000000	59.384775  
1582.000000	59.400033  
1581.000000	59.408307  
1580.000000	59.408378  
1579.000000	59.399652  
1578.000000	59.382414  
1577.000000	59.357643  
1576.000000	59.327149  
1575.000000	59.293031  
1574.000000	59.257173  
1573.000000	59.221315  
1572.000000	59.186625  
1571.000000	59.154272  
1570.000000	59.125256  
1569.000000	59.100914  
1568.000000	59.082841  
1567.000000	59.072804  
1566.000000	59.072327  
1565.000000	59.082031  
1564.000000	59.101200  
1563.000000	59.127497  
1562.000000	59.157085  
1561.000000	59.185361  
1560.000000	59.207415  
1559.000000	59.219360  
1558.000000	59.218955  
1557.000000	59.206128  
1556.000000	59.182810  
1555.000000	59.152364  
1554.000000	59.118819  
1553.000000	59.085988  
1552.000000	59.056639  
1551.000000	59.032440  
1550.000000	59.013891  
1549.000000	59.000658  
1548.000000	58.992028  
1547.000000	58.986926  
1546.000000	58.984637  
1545.000000	58.984303  
1544.000000	58.985304  
1543.000000	58.986687  
1542.000000	58.987689  
1541.000000	58.987498  
1540.000000	58.985614  
1539.000000	58.981800  
1538.000000	58.976244  
1537.000000	58.969640  
1536.000000	58.962988  
1535.000000	58.957457  
1534.000000	58.954048  
1533.000000	58.953404  
1532.000000	58.955764  
1531.000000	58.960914  
1530.000000	58.968257  
1529.000000	58.977079  
1528.000000	58.986425  
1527.000000	58.995246  
1526.000000	59.002494  
1525.000000	59.007096  
1524.000000	59.008121  
1523.000000	59.004688  
1522.000000	58.996486  
1521.000000	58.983874  
1520.000000	58.967924  
1519.000000	58.950209  
1518.000000	58.932781  
1517.000000	58.917641  
1516.000000	58.906292  
1515.000000	58.899235  
1514.000000	58.896040  
1513.000000	58.895444  
1512.000000	58.895683  
1511.000000	58.895087  
1510.000000	58.892440  
1509.000000	58.887434  
1508.000000	58.880519  
1507.000000	58.872842  
1506.000000	58.865785  
1505.000000	58.860826  
1504.000000	58.858990  
1503.000000	58.860802  
1502.000000	58.866190  
1501.000000	58.874726  
1500.000000	58.885788  
1499.000000	58.898615  
1498.000000	58.912444  
1497.000000	58.926463  
1496.000000	58.939909  
1495.000000	58.951902  
1494.000000	58.961606  
1493.000000	58.968424  
1492.000000	58.972024  
1491.000000	58.972549  
1490.000000	58.970427  
1489.000000	58.966183  
1488.000000	58.960175  
1487.000000	58.952689  
1486.000000	58.943700  
1485.000000	58.933162  
1484.000000	58.921051  
1483.000000	58.907628  
1482.000000	58.893251  
1481.000000	58.878517  
1480.000000	58.863902  
1479.000000	58.849763  
1478.000000	58.836150  
1477.000000	58.822870  
1476.000000	58.809590  
1475.000000	58.796095  
1474.000000	58.782529  
1473.000000	58.769536  
1472.000000	58.758139  
1471.000000	58.749508  
1470.000000	58.744668  
1469.000000	58.744311  
1468.000000	58.748269  
1467.000000	58.755660  
1466.000000	58.765244  
1465.000000	58.775687  
1464.000000	58.785724  
1463.000000	58.794307  
1462.000000	58.800864  
1461.000000	58.804869  
1460.000000	58.805680  
1459.000000	58.802533  
1458.000000	58.794713  
1457.000000	58.781743  
1456.000000	58.763670  
1455.000000	58.741569  
1454.000000	58.717465  
1453.000000	58.694267  
1452.000000	58.675479  
1451.000000	58.664155  
1450.000000	58.662128  
1449.000000	58.669447  
1448.000000	58.684515  
1447.000000	58.703947  
1446.000000	58.723378  
1445.000000	58.738493  
1444.000000	58.745837  
1443.000000	58.743548  
1442.000000	58.731532  
1441.000000	58.711242  
1440.000000	58.685255  
1439.000000	58.656692  
1438.000000	58.628439  
1437.000000	58.602666  
1436.000000	58.580398  
1435.000000	58.561563  
1434.000000	58.545255  
1433.000000	58.530044  
1432.000000	58.514833  
1431.000000	58.499193  
1430.000000	58.483791  
1429.000000	58.470010  
1428.000000	58.460044  
1427.000000	58.456134  
1426.000000	58.460402  
1425.000000	58.473682  
1424.000000	58.495855  
1423.000000	58.525347  
1422.000000	58.559632  
1421.000000	58.595538  
1420.000000	58.629775  
1419.000000	58.659338  
1418.000000	58.682107  
1417.000000	58.696866  
1416.000000	58.703231  
1415.000000	58.701491  
1414.000000	58.692598  
1413.000000	58.677625  
1412.000000	58.657979  
1411.000000	58.635115  
1410.000000	58.610868  
1409.000000	58.586907  
1408.000000	58.564829  
1407.000000	58.545780  
1406.000000	58.530592  
1405.000000	58.519482  
1404.000000	58.511972  
1403.000000	58.507180  
1402.000000	58.503890  
1401.000000	58.500981  
1400.000000	58.497691  
1399.000000	58.493661  
1398.000000	58.489012  
1397.000000	58.484315  
1396.000000	58.480381  
1395.000000	58.477854  
1394.000000	58.477115  
1393.000000	58.478045  
1392.000000	58.480143  
1391.000000	58.482503  
1390.000000	58.484339  
1389.000000	58.484959  
1388.000000	58.484172  
1387.000000	58.482122  
1386.000000	58.479428  
1385.000000	58.477258  
1384.000000	58.476805  
1383.000000	58.479070  
1382.000000	58.484721  
1381.000000	58.493518  
1380.000000	58.504533  
1379.000000	58.516192  
1378.000000	58.526587  
1377.000000	58.533930  
1376.000000	58.536720  
1375.000000	58.534193  
1374.000000	58.526277  
1373.000000	58.513331  
1372.000000	58.496356  
1371.000000	58.476495  
1370.000000	58.455276  
1369.000000	58.434391  
1368.000000	58.415746  
1367.000000	58.401346  
1366.000000	58.392930  
1365.000000	58.391809  
1364.000000	58.398270  
1363.000000	58.411407  
1362.000000	58.429217  
1361.000000	58.448958  
1360.000000	58.467316  
1359.000000	58.481264  
1358.000000	58.488655  
1357.000000	58.488583  
1356.000000	58.481574  
1355.000000	58.468961  
1354.000000	58.452653  
1353.000000	58.434247  
1352.000000	58.414649  
1351.000000	58.393836  
1350.000000	58.371376  
1349.000000	58.346700  
1348.000000	58.319664  
1347.000000	58.290934  
1346.000000	58.262324  
1345.000000	58.236312  
1344.000000	58.215451  
1343.000000	58.201909  
1342.000000	58.196783  
1341.000000	58.199644  
1340.000000	58.208584  
1339.000000	58.220267  
1338.000000	58.230662  
1337.000000	58.236026  
1336.000000	58.233594  
1335.000000	58.222246  
1334.000000	58.202719  
1333.000000	58.177566  
1332.000000	58.150696  
1331.000000	58.126258  
1330.000000	58.108019  
1329.000000	58.098435  
1328.000000	58.097934  
1327.000000	58.105063  
1326.000000	58.116674  
1325.000000	58.128857  
1324.000000	58.137631  
1323.000000	58.139991  
1322.000000	58.134770  
1321.000000	58.122396  
1320.000000	58.104944  
1319.000000	58.085346  
1318.000000	58.066487  
1317.000000	58.050537  
1316.000000	58.038711  
1315.000000	58.030915  
1314.000000	58.026456  
1313.000000	58.024191  
1312.000000	58.023452  
1311.000000	58.024144  
1310.000000	58.026814  
1309.000000	58.032655  
1308.000000	58.042740  
1307.000000	58.057665  
1306.000000	58.077096  
1305.000000	58.099627  
1304.000000	58.123111  
1303.000000	58.145189  
1302.000000	58.163738  
1301.000000	58.177351  
1300.000000	58.185863  
1299.000000	58.189821  
1298.000000	58.190679  
1297.000000	58.189749  
1296.000000	58.187913  
1295.000000	58.185052  
1294.000000	58.180379  
1293.000000	58.172369  
1292.000000	58.159470  
1291.000000	58.140587  
1290.000000	58.115768  
1289.000000	58.086204  
1288.000000	58.054304  
1287.000000	58.023357  
1286.000000	57.996630  
1285.000000	57.977223  
1284.000000	57.967185  
1283.000000	57.967185  
1282.000000	57.976531  
1281.000000	57.993149  
1280.000000	58.014130  
1279.000000	58.035922  
1278.000000	58.055233  
1277.000000	58.069658  
1276.000000	58.077931  
1275.000000	58.080101  
1274.000000	58.077216  
1273.000000	58.071327  
1272.000000	58.064579  
1271.000000	58.058619  
1270.000000	58.054327  
1269.000000	58.052039  
1268.000000	58.051133  
1267.000000	58.050847  
1266.000000	58.050179  
1265.000000	58.048486  
1264.000000	58.045625  
1263.000000	58.041930  
1262.000000	58.038067  
1261.000000	58.034515  
1260.000000	58.031535  
1259.000000	58.028936  
1258.000000	58.026266  
1257.000000	58.022880  
1256.000000	58.018350  
1255.000000	58.012771  
1254.000000	58.006644  
1253.000000	58.000946  
1252.000000	57.996749  
1251.000000	57.994818  
1250.000000	57.995319  
1249.000000	57.997512  
1248.000000	57.999777  
1247.000000	57.999873  
1246.000000	57.995486  
1245.000000	57.984805  
1244.000000	57.966923  
1243.000000	57.942390  
1242.000000	57.913255  
1241.000000	57.882761  
1240.000000	57.854771  
1239.000000	57.833075  
1238.000000	57.820582  
1237.000000	57.818460  
1236.000000	57.826161  
1235.000000	57.841229  
1234.000000	57.859969  
1233.000000	57.878160  
1232.000000	57.891702  
1231.000000	57.897782  
1230.000000	57.895040  
1229.000000	57.884120  
1228.000000	57.867169  
1227.000000	57.847404  
1226.000000	57.828164  
1225.000000	57.812404  
1224.000000	57.801914  
1223.000000	57.797360  
1222.000000	57.797908  
1221.000000	57.801771  
1220.000000	57.806634  
1219.000000	57.810497  
1218.000000	57.811784  
1217.000000	57.809972  
1216.000000	57.805252  
1215.000000	57.798385  
1214.000000	57.790207  
1213.000000	57.781553  
1212.000000	57.772231  
1211.000000	57.761454  
1210.000000	57.747673  
1209.000000	57.729244  
1208.000000	57.705140  
1207.000000	57.675433  
1206.000000	57.641839  
1205.000000	57.607269  
1204.000000	57.576251  
1203.000000	57.553791  
1202.000000	57.544517  
1201.000000	57.551264  
1200.000000	57.574415  
1199.000000	57.611370  
1198.000000	57.656669  
1197.000000	57.703113  
1196.000000	57.742404  
1195.000000	57.767224  
1194.000000	57.772517  
1193.000000	57.756686  
1192.000000	57.721662  
1191.000000	57.672882  
1190.000000	57.618212  
1189.000000	57.566285  
1188.000000	57.525587  
1187.000000	57.501959  
1186.000000	57.498598  
1185.000000	57.514262  
1184.000000	57.544159  
1183.000000	57.580256  
1182.000000	57.613301  
1181.000000	57.634258  
1180.000000	57.636189  
1179.000000	57.615828  
1178.000000	57.573938  
1177.000000	57.515573  
1176.000000	57.448720  
1175.000000	57.383203  
1174.000000	57.328462  
1173.000000	57.292056  
1172.000000	57.278466  
1171.000000	57.288622  
1170.000000	57.319903  
1169.000000	57.367062  
1168.000000	57.423210  
1167.000000	57.480955  
1166.000000	57.533693  
1165.000000	57.576107  
1164.000000	57.605004  
1163.000000	57.619023  
1162.000000	57.618784  
1161.000000	57.606601  
1160.000000	57.586097  
1159.000000	57.561898  
1158.000000	57.538414  
1157.000000	57.519745  
1156.000000	57.508325  
1155.000000	57.505369  
1154.000000	57.509946  
1153.000000	57.519888  
1152.000000	57.531881  
1151.000000	57.542490  
1150.000000	57.548785  
1149.000000	57.549095  
1148.000000	57.543158  
1147.000000	57.532167  
1146.000000	57.518029  
1145.000000	57.503056  
1144.000000	57.489299  
1143.000000	57.478117  
1142.000000	57.470107  
1141.000000	57.465338  
1140.000000	57.463431  
1139.000000	57.464075  
1138.000000	57.467579  
1137.000000	57.474613  
1136.000000	57.485628  
1135.000000	57.500457  
1134.000000	57.518029  
1133.000000	57.535934  
1132.000000	57.550501  
1131.000000	57.557439  
1130.000000	57.552933  
1129.000000	57.534599  
1128.000000	57.502341  
1127.000000	57.458567  
1126.000000	57.407593  
1125.000000	57.355380  
1124.000000	57.308435  
1123.000000	57.272410  
1122.000000	57.251381  
1121.000000	57.247138  
1120.000000	57.258796  
1119.000000	57.282900  
1118.000000	57.313656  
1117.000000	57.343983  
1116.000000	57.366752  
1115.000000	57.375788  
1114.000000	57.367396  
1113.000000	57.340645  
1112.000000	57.297992  
1111.000000	57.244396  
1110.000000	57.186508  
1109.000000	57.131528  
1108.000000	57.085680  
1107.000000	57.053089  
1106.000000	57.035231  
1105.000000	57.030797  
1104.000000	57.036542  
1103.000000	57.048606  
1102.000000	57.063794  
1101.000000	57.079601  
1100.000000	57.095694  
1099.000000	57.113194  
1098.000000	57.134413  
1097.000000	57.161521  
1096.000000	57.196187  
1095.000000	57.238626  
1094.000000	57.287669  
1093.000000	57.340550  
1092.000000	57.393217  
1091.000000	57.441210  
1090.000000	57.480335  
1089.000000	57.507824  
1088.000000	57.522845  
1087.000000	57.526898  
1086.000000	57.523632  
1085.000000	57.517647  
1084.000000	57.514119  
1083.000000	57.516336  
1082.000000	57.526063  
1081.000000	57.541608  
1080.000000	57.558822  
1079.000000	57.571172  
1078.000000	57.572293  
1077.000000	57.556676  
1076.000000	57.521486  
1075.000000	57.467460  
1074.000000	57.398843  
1073.000000	57.322549  
1072.000000	57.246780  
1071.000000	57.178878  
1070.000000	57.123899  
1069.000000	57.083892  
1068.000000	57.057881  
1067.000000	57.042360  
1066.000000	57.032632  
1065.000000	57.024002  
1064.000000	57.013154  
1063.000000	56.998372  
1062.000000	56.979966  
1061.000000	56.959676  
1060.000000	56.940317  
1059.000000	56.924200  
1058.000000	56.913113  
1057.000000	56.907749  
1056.000000	56.908059  
1055.000000	56.913399  
1054.000000	56.922936  
1053.000000	56.935906  
1052.000000	56.951832  
1051.000000	56.970429  
1050.000000	56.990933  
1049.000000	57.011842  
1048.000000	57.030844  
1047.000000	57.044887  
1046.000000	57.050871  
1045.000000	57.046246  
1044.000000	57.030081  
1043.000000	57.003784  
1042.000000	56.970906  
1041.000000	56.936502  
1040.000000	56.906723  
1039.000000	56.887435  
1038.000000	56.882834  
1037.000000	56.894493  
1036.000000	56.920957  
1035.000000	56.958031  
1034.000000	56.999588  
1033.000000	57.038712  
1032.000000	57.069206  
1031.000000	57.086491  
1030.000000	57.088804  
1029.000000	57.077026  
1028.000000	57.054305  
1027.000000	57.025122  
1026.000000	56.994152  
1025.000000	56.965231  
1024.000000	56.940722  
1023.000000	56.921195  
1022.000000	56.906008  
1021.000000	56.893897  
1020.000000	56.883788  
1019.000000	56.875514  
1018.000000	56.869935  
1017.000000	56.868863  
1016.000000	56.874251  
1015.000000	56.887364  
1014.000000	56.907987  
1013.000000	56.933951  
1012.000000	56.961035  
1011.000000	56.984043  
1010.000000	56.997752  
1009.000000	56.998109  
1008.000000	56.983232  
1007.000000	56.953716  
1006.000000	56.912446  
1005.000000	56.863737  
1004.000000	56.812286  
1003.000000	56.762146  
1002.000000	56.715726  
1001.000000	56.673574  
1000.000000	56.634902  
999.000000	 56.598472  
998.000000	 56.563615  
997.000000	 56.530880  
996.000000	 56.502628  
995.000000	 56.482362  
994.000000	 56.474423  
993.000000	 56.482291  
992.000000	 56.507563  
991.000000	 56.548619  
990.000000	 56.600785  
989.000000	 56.656789  
988.000000	 56.707930  
987.000000	 56.745696  
986.000000	 56.763672  
985.000000	 56.758880  
984.000000	 56.732320  
983.000000	 56.688642  
982.000000	 56.635141  
981.000000	 56.579971  
980.000000	 56.530642  
979.000000	 56.492257  
978.000000	 56.466841  
977.000000	 56.453013  
976.000000	 56.446886  
975.000000	 56.443214  
974.000000	 56.437015  
973.000000	 56.424880  
972.000000	 56.405448  
971.000000	 56.380319  
970.000000	 56.352543  
969.000000	 56.326866  
968.000000	 56.307792  
967.000000	 56.299161  
966.000000	 56.302762  
965.000000	 56.318593  
964.000000	 56.344842  
963.000000	 56.378436  
962.000000	 56.415891  
961.000000	 56.454038  
960.000000	 56.490302  
959.000000	 56.522774  
958.000000	 56.550002  
957.000000	 56.570935  
956.000000	 56.584572  
955.000000	 56.589865  
954.000000	 56.585812  
953.000000	 56.572055  
952.000000	 56.548976  
951.000000	 56.518530  
950.000000	 56.483602  
949.000000	 56.447672  
948.000000	 56.413602  
947.000000	 56.383872  
946.000000	 56.359100  
945.000000	 56.338047  
944.000000	 56.318259  
943.000000	 56.296539  
942.000000	 56.270790  
941.000000	 56.240463  
940.000000	 56.207537  
939.000000	 56.175899  
938.000000	 56.150603  
937.000000	 56.136202  
936.000000	 56.135463  
935.000000	 56.148195  
934.000000	 56.171131  
933.000000	 56.198692  
932.000000	 56.224155  
931.000000	 56.241488  
930.000000	 56.247138  
929.000000	 56.240963  
928.000000	 56.225824  
927.000000	 56.206965  
926.000000	 56.190514  
925.000000	 56.181883  
924.000000	 56.184387  
923.000000	 56.198740  
922.000000	 56.223392  
921.000000	 56.254768  
920.000000	 56.289148  
919.000000	 56.322526  
918.000000	 56.351757  
917.000000	 56.374621  
916.000000	 56.389570  
915.000000	 56.396079  
914.000000	 56.393861  
913.000000	 56.383466  
912.000000	 56.366300  
911.000000	 56.344366  
910.000000	 56.320285  
909.000000	 56.296825  
908.000000	 56.276726  
907.000000	 56.261563  
906.000000	 56.251621  
905.000000	 56.245493  
904.000000	 56.240701  
903.000000	 56.234478  
902.000000	 56.224799  
901.000000	 56.210780  
900.000000	 56.193161  
899.000000	 56.174206  
898.000000	 56.157040  
897.000000	 56.144309  
896.000000	 56.137847  
895.000000	 56.137681  
894.000000	 56.142354  
893.000000	 56.149482  
892.000000	 56.156206  
891.000000	 56.159949  
890.000000	 56.159234  
889.000000	 56.153726  
888.000000	 56.144618  
887.000000	 56.134009  
886.000000	 56.124591  
885.000000	 56.118535  
884.000000	 56.117391  
883.000000	 56.121540  
882.000000	 56.130051  
881.000000	 56.141066  
880.000000	 56.151652  
879.000000	 56.158518  
878.000000	 56.158304  
877.000000	 56.148147  
876.000000	 56.126022  
875.000000	 56.091260  
874.000000	 56.044530  
873.000000	 55.988216  
872.000000	 55.926394  
871.000000	 55.864500  
870.000000	 55.808496  
869.000000	 55.763959  
868.000000	 55.735325  
867.000000	 55.725145  
866.000000	 55.733466  
865.000000	 55.757856  
864.000000	 55.793642  
863.000000	 55.835175  
862.000000	 55.876231  
861.000000	 55.911636  
860.000000	 55.937790  
859.000000	 55.953502  
858.000000	 55.959367  
857.000000	 55.957913  
856.000000	 55.952405  
855.000000	 55.946254  
854.000000	 55.942392  
853.000000	 55.942034  
852.000000	 55.944752  
851.000000	 55.948257  
850.000000	 55.949282  
849.000000	 55.943775  
848.000000	 55.928158  
847.000000	 55.899548  
846.000000	 55.857133  
845.000000	 55.802297  
844.000000	 55.739021  
843.000000	 55.673360  
842.000000	 55.612587  
841.000000	 55.563855  
840.000000	 55.532908  
839.000000	 55.523037  
838.000000	 55.534124  
837.000000	 55.562257  
836.000000	 55.600595  
835.000000	 55.640625  
834.000000	 55.674242  
833.000000	 55.694651  
832.000000	 55.699038  
831.000000	 55.687785  
830.000000	 55.665731  
829.000000	 55.640721  
828.000000	 55.621504  
827.000000	 55.615639  
826.000000	 55.626893  
825.000000	 55.654311  
824.000000	 55.691933  
823.000000	 55.730271  
822.000000	 55.758762  
821.000000	 55.768251  
820.000000	 55.753445  
819.000000	 55.714225  
818.000000	 55.654788  
817.000000	 55.583190  
816.000000	 55.508494  
815.000000	 55.439805  
814.000000	 55.384659  
813.000000	 55.348443  
812.000000	 55.334353  
811.000000	 55.342531  
810.000000	 55.370950  
809.000000	 55.415105  
808.000000	 55.468702  
807.000000	 55.524587  
806.000000	 55.575394  
805.000000	 55.615019  
804.000000	 55.638647  
803.000000	 55.644202  
802.000000	 55.632305  
801.000000	 55.606079  
800.000000	 55.570197  
799.000000	 55.530381  
798.000000	 55.492234  
797.000000	 55.460333  
796.000000	 55.437588  
795.000000	 55.424475  
794.000000	 55.419135  
793.000000	 55.418157  
792.000000	 55.417084  
791.000000	 55.411219  
790.000000	 55.396556  
789.000000	 55.370306  
788.000000	 55.331754  
787.000000	 55.282258  
786.000000	 55.225324  
785.000000	 55.165791  
784.000000	 55.109024  
783.000000	 55.060195  
782.000000	 55.022811  
781.000000	 54.998517  
780.000000	 54.986453  
779.000000	 54.983949  
778.000000	 54.986596  
777.000000	 54.989314  
776.000000	 54.987430  
775.000000	 54.977154  
774.000000	 54.956960  
773.000000	 54.927086  
772.000000	 54.890370  
771.000000	 54.851388  
770.000000	 54.815864  
769.000000	 54.789519  
768.000000	 54.777598  
767.000000	 54.783535  
766.000000	 54.808497  
765.000000	 54.850363  
764.000000	 54.904150  
763.000000	 54.962086  
762.000000	 55.015230  
761.000000	 55.054426  
760.000000	 55.072116  
759.000000	 55.063366  
758.000000	 55.026984  
757.000000	 54.965567  
756.000000	 54.884433  
755.000000	 54.791116  
754.000000	 54.694151  
753.000000	 54.602265  
752.000000	 54.523491  
751.000000	 54.464602  
750.000000	 54.430961  
749.000000	 54.425263  
748.000000	 54.447555  
747.000000	 54.494261  
746.000000	 54.558467  
745.000000	 54.630088  
744.000000	 54.697132  
743.000000	 54.747390  
742.000000	 54.770469  
741.000000	 54.760050  
740.000000	 54.715228  
739.000000	 54.641413  
738.000000	 54.549431  
737.000000	 54.453134  
736.000000	 54.366636  
735.000000	 54.302096  
734.000000	 54.266905  
733.000000	 54.262900  
732.000000	 54.285693  
731.000000	 54.326701  
730.000000	 54.374408  
729.000000	 54.417467  
728.000000	 54.446768  
727.000000	 54.456138  
726.000000	 54.444408  
725.000000	 54.414272  
724.000000	 54.372096  
723.000000	 54.325509  
722.000000	 54.281973  
721.000000	 54.246807  
720.000000	 54.222536  
719.000000	 54.208874  
718.000000	 54.203391  
717.000000	 54.202699  
716.000000	 54.203844  
715.000000	 54.205513  
714.000000	 54.208779  
713.000000	 54.216980  
712.000000	 54.234385  
711.000000	 54.264831  
710.000000	 54.310560  
709.000000	 54.370951  
708.000000	 54.442119  
707.000000	 54.517078  
706.000000	 54.587173  
705.000000	 54.642987  
704.000000	 54.677414  
703.000000	 54.685497  
702.000000	 54.665446  
701.000000	 54.618430  
700.000000	 54.548954  
699.000000	 54.463052  
698.000000	 54.367828  
697.000000	 54.270267  
696.000000	 54.176759  
695.000000	 54.092526  
694.000000	 54.021787  
693.000000	 53.967189  
692.000000	 53.930044  
691.000000	 53.910255  
690.000000	 53.906464  
689.000000	 53.916239  
688.000000	 53.936195  
687.000000	 53.962564  
686.000000	 53.991675  
685.000000	 54.019999  
684.000000	 54.044413  
683.000000	 54.062581  
682.000000	 54.073143  
681.000000	 54.075241  
680.000000	 54.069280  
679.000000	 54.056787  
678.000000	 54.040813  
677.000000	 54.025292  
676.000000	 54.014444  
675.000000	 54.012751  
674.000000	 54.022979  
673.000000	 54.045867  
672.000000	 54.079079  
671.000000	 54.117846  
670.000000	 54.155278  
669.000000	 54.183840  
668.000000	 54.196929  
667.000000	 54.190254  
666.000000	 54.163217  
665.000000	 54.119467  
664.000000	 54.065370  
663.000000	 54.008507  
662.000000	 53.956198  
661.000000	 53.913974  
660.000000	 53.884053  
659.000000	 53.865027  
658.000000	 53.852963  
657.000000	 53.842639  
656.000000	 53.829145  
655.000000	 53.809118  
654.000000	 53.781533  
653.000000	 53.747630  
652.000000	 53.710246  
651.000000	 53.672695  
650.000000	 53.637123  
649.000000	 53.604149  
648.000000	 53.572583  
647.000000	 53.539967  
646.000000	 53.503179  
645.000000	 53.460121  
644.000000	 53.410744  
643.000000	 53.357601  
642.000000	 53.304982  
641.000000	 53.259158  
640.000000	 53.226423  
639.000000	 53.212428  
638.000000	 53.220129  
637.000000	 53.250026  
636.000000	 53.299736  
635.000000	 53.364682  
634.000000	 53.438806  
633.000000	 53.515672  
632.000000	 53.589224  
631.000000	 53.654599  
630.000000	 53.708410  
629.000000	 53.748798  
628.000000	 53.775095  
627.000000	 53.787732  
626.000000	 53.787302  
625.000000	 53.775334  
624.000000	 53.752565  
623.000000	 53.720641  
622.000000	 53.680372  
621.000000	 53.632760  
620.000000	 53.578424  
619.000000	 53.518652  
618.000000	 53.454947  
617.000000	 53.389549  
616.000000	 53.325462  
615.000000	 53.266143  
614.000000	 53.215360  
613.000000	 53.176212  
612.000000	 53.151106  
611.000000	 53.140640  
610.000000	 53.144288  
609.000000	 53.160142  
608.000000	 53.184986  
607.000000	 53.214359  
606.000000	 53.243303  
605.000000	 53.266644  
604.000000	 53.279018  
603.000000	 53.275632  
602.000000	 53.253293  
601.000000	 53.211116  
600.000000	 53.150749  
599.000000	 53.076648  
598.000000	 52.995681  
597.000000	 52.916073  
596.000000	 52.846145  
595.000000	 52.792453  
594.000000	 52.758502  
593.000000	 52.744197  
592.000000	 52.746057  
591.000000	 52.758264  
590.000000	 52.773642  
589.000000	 52.785849  
588.000000	 52.790641  
587.000000	 52.786183  
586.000000	 52.772545  
585.000000	 52.750945  
584.000000	 52.722907  
583.000000	 52.688241  
582.000000	 52.644705  
581.000000	 52.588915  
580.000000	 52.517771  
579.000000	 52.430033  
578.000000	 52.327895  
577.000000	 52.217626  
576.000000	 52.109074  
575.000000	 52.013564  
574.000000	 51.941967  
573.000000	 51.901364  
572.000000	 51.894307  
571.000000	 51.917934  
570.000000	 51.965045  
569.000000	 52.025818  
568.000000	 52.090239  
567.000000	 52.149868  
566.000000	 52.199816  
565.000000	 52.237939  
564.000000	 52.265334  
563.000000	 52.284193  
562.000000	 52.297806  
561.000000	 52.308440  
560.000000	 52.318572  
559.000000	 52.330493  
558.000000	 52.346611  
557.000000	 52.369904  
556.000000	 52.402162  
555.000000	 52.443671  
554.000000	 52.492403  
553.000000	 52.544140  
552.000000	 52.592849  
551.000000	 52.631807  
550.000000	 52.655816  
549.000000	 52.662086  
548.000000	 52.650737  
547.000000	 52.624535  
546.000000	 52.588200  
545.000000	 52.546620  
544.000000	 52.504372  
543.000000	 52.463793  
542.000000	 52.425432  
541.000000	 52.387213  
540.000000	 52.346014  
539.000000	 52.297997  
538.000000	 52.239942  
537.000000	 52.169990  
536.000000	 52.088403  
535.000000	 51.998209  
534.000000	 51.903653  
533.000000	 51.811957  
532.000000	 51.731753  
531.000000	 51.672387  
530.000000	 51.641368  
529.000000	 51.644158  
528.000000	 51.682662  
527.000000	 51.753830  
526.000000	 51.849412  
525.000000	 51.958107  
524.000000	 52.066969  
523.000000	 52.163290  
522.000000	 52.236223  
521.000000	 52.277755  
520.000000	 52.283096  
519.000000	 52.251529  
518.000000	 52.185630  
517.000000	 52.090430  
516.000000	 51.972913  
515.000000	 51.842355  
514.000000	 51.708745  
513.000000	 51.582694  
512.000000	 51.473450  
511.000000	 51.388978  
510.000000	 51.333332  
509.000000	 51.307106  
508.000000	 51.305413  
507.000000	 51.319432  
506.000000	 51.336216  
505.000000	 51.341652  
504.000000	 51.321911  
503.000000	 51.266098  
502.000000	 51.168179  
501.000000	 51.028156  
500.000000	 50.852894  
499.000000	 50.655579  
498.000000	 50.453972  
497.000000	 50.268173  
496.000000	 50.118827  
495.000000	 50.024127  
494.000000	 49.996590  
493.000000	 50.040936  
492.000000	 50.153207  
491.000000	 50.320672  
490.000000	 50.523686  
489.000000	 50.738215  
488.000000	 50.937342  
487.000000	 51.096820  
486.000000	 51.198959  
485.000000	 51.234650  
484.000000	 51.203775  
483.000000	 51.114535  
482.000000	 50.982284  
481.000000	 50.824594  
480.000000	 50.659465  
479.000000	 50.501060  
478.000000	 50.359487  
477.000000	 50.239872  
476.000000	 50.144314  
475.000000	 50.073075  
474.000000	 50.026774  
473.000000	 50.008535  
472.000000	 50.023794  
471.000000	 50.082230  
470.000000	 50.194239  
469.000000	 50.367164  
468.000000	 50.599956  
467.000000	 50.881099  
466.000000	 51.185464  
465.000000	 51.478767  
464.000000	 51.720070  
463.000000	 51.868510  
462.000000	 51.890420  
461.000000	 51.770973  
460.000000	 51.513266  
459.000000	 51.140093  
458.000000	 50.687193  
457.000000	 50.199151  
456.000000	 49.719095  
455.000000	 49.283719  
454.000000	 48.917627  
453.000000	 48.630714  
452.000000	 48.424434  
451.000000	 48.297500  
450.000000	 48.245763  
449.000000	 48.263621  
448.000000	 48.342156  
447.000000	 48.467135  
446.000000	 48.615717  
445.000000	 48.757553  
444.000000	 48.855161  
443.000000	 48.872327  
442.000000	 48.785066  
441.000000	 48.591756  
440.000000	 48.315572  
439.000000	 48.005366  
438.000000	 47.726035  
437.000000	 47.546362  
436.000000	 47.524619  
435.000000	 47.692918  
434.000000	 48.049640  
433.000000	 48.555660  
432.000000	 49.146509  
431.000000	 49.737071  
430.000000	 50.251770  
429.000000	 50.618863  
428.000000	 50.773978  
427.000000	 50.677657  
426.000000	 50.336313  
425.000000	 49.775528  
424.000000	 49.016475  
423.000000	 48.115420  
422.000000	 47.169852  
421.000000	 46.285319  
420.000000	 45.558619  
419.000000	 45.079874  
418.000000	 44.915461  
417.000000	 45.107650  
416.000000	 45.664024  
415.000000	 46.524381  
414.000000	 47.571063  
413.000000	 48.667192  
412.000000	 49.674272  
411.000000	 50.460553  
410.000000	 50.930976  
409.000000	 51.043844  
408.000000	 50.825834  
407.000000	 50.317454  
406.000000	 49.632024  
405.000000	 48.905158  
404.000000	 48.348283  
403.000000	 48.198914  
402.000000	 48.737049  
401.000000	 50.162863  
400.000000	 52.675580  
399.000000	 56.355261  
398.000000	 61.276984  
397.000000	 67.488002  
396.000000	 74.939513  
395.000000	 83.498787  
394.000000	 92.669177  
393.000000	 101.600289 
392.000000	 109.170651 
391.000000	 114.196848 
390.000000	 115.776348 
389.000000	 113.494396 
388.000000	 107.685089 
387.000000	 99.286794  
386.000000	 89.546942  
385.000000	 79.726886  
384.000000	 70.614147  
383.000000	 62.590098  
382.000000	 55.788636  
381.000000	 50.221610  
380.000000	 46.162343  
379.000000	 43.956780  
378.000000	 43.906164  
377.000000	 46.165370  
376.000000	 50.342297  
375.000000	 55.848860  
374.000000	 61.845111  
373.000000	 67.610383  
372.000000	 72.843289  
371.000000	 77.404785  
370.000000	 81.159114  

