PE IR       SPECTRUM    SPECTRUM    ASCII       PEDS        1.60        
  -1
C-9C61~1.ASC
17/03/27
19:23:46.00
17/03/27
19:23:46.00
tln
$C-4040-8_t0060$<tbV0>[2.6,0.0,8.0,0.0,27,1,0]
370.000000
64









2002,4.07    
MIRTGS : RIGHTBACK : INTERNAL 2
MIR : ON : INTERNAL 2
OPTKBR

0.200000
8
8.000000
FILLER
RATIO
SPECTRUM
UNLOCKED 256

DOUBLE
64
COMBINED
1
0
0


1.000000
RATIO


1
0
TRUE
51149
0
LEFT NOT FITTED RIGHT NOT FITTED 0
NONE
NONE
15600
12.000000
4.427000
51148
TRUE
1 0 8 72 0 0 0 0 

15798.010000






#HDR
-1
-1
#GR
CM-1
%T
0.00002384185791015625
0.0
5000.000000
-1.000000
4631
8
93.422961
39.507389
#DATA
5000.000000	65.136027 
4999.000000	65.141320 
4998.000000	65.123939 
4997.000000	65.085458 
4996.000000	65.031313 
4995.000000	64.969396 
4994.000000	64.908385 
4993.000000	64.855432 
4992.000000	64.815330 
4991.000000	64.790391 
4990.000000	64.779996 
4989.000000	64.781999 
4988.000000	64.792466 
4987.000000	64.807343 
4986.000000	64.822340 
4985.000000	64.833498 
4984.000000	64.838671 
4983.000000	64.837980 
4982.000000	64.834189 
4981.000000	64.832401 
4980.000000	64.839935 
4979.000000	64.864420 
4978.000000	64.912796 
4977.000000	64.988327 
4976.000000	65.089464 
4975.000000	65.207982 
4974.000000	65.330839 
4973.000000	65.440702 
4972.000000	65.519905 
4971.000000	65.553092 
4970.000000	65.531086 
4969.000000	65.452551 
4968.000000	65.324783 
4967.000000	65.162396 
4966.000000	64.984345 
4965.000000	64.811158 
4964.000000	64.661574 
4963.000000	64.549708 
4962.000000	64.483547 
4961.000000	64.464616 
4960.000000	64.488959 
4959.000000	64.548754 
4958.000000	64.634418 
4957.000000	64.736223 
4956.000000	64.845442 
4955.000000	64.954996 
4954.000000	65.059375 
4953.000000	65.154123 
4952.000000	65.235781 
4951.000000	65.301203 
4950.000000	65.347909 
4949.000000	65.375018 
4948.000000	65.382695 
4947.000000	65.373539 
4946.000000	65.350794 
4945.000000	65.319085 
4944.000000	65.281820 
4943.000000	65.242004 
4942.000000	65.199995 
4941.000000	65.155434 
4940.000000	65.106058 
4939.000000	65.049648 
4938.000000	64.984536 
4937.000000	64.910292 
4936.000000	64.829516 
4935.000000	64.747262 
4934.000000	64.671730 
4933.000000	64.612293 
4932.000000	64.579105 
4931.000000	64.580512 
4930.000000	64.621400 
4929.000000	64.701366 
4928.000000	64.813876 
4927.000000	64.946627 
4926.000000	65.083527 
4925.000000	65.207338 
4924.000000	65.302371 
4923.000000	65.357661 
4922.000000	65.369367 
4921.000000	65.340662 
4920.000000	65.281105 
4919.000000	65.203428 
4918.000000	65.121173 
4917.000000	65.045332 
4916.000000	64.982724 
4915.000000	64.935541 
4914.000000	64.902973 
4913.000000	64.882731 
4912.000000	64.873647 
4911.000000	64.875531 
4910.000000	64.889192 
4909.000000	64.915561 
4908.000000	64.954042 
4907.000000	65.001702 
4906.000000	65.052461 
4905.000000	65.098309 
4904.000000	65.130710 
4903.000000	65.142989 
4902.000000	65.132284 
4901.000000	65.100932 
4900.000000	65.056347 
4899.000000	65.009832 
4898.000000	64.973330 
4897.000000	64.956974 
4896.000000	64.965438 
4895.000000	64.997100 
4894.000000	65.043282 
4893.000000	65.090084 
4892.000000	65.122222 
4891.000000	65.126895 
4890.000000	65.097808 
4889.000000	65.036082 
4888.000000	64.951491 
4887.000000	64.859819 
4886.000000	64.779520 
4885.000000	64.727830 
4884.000000	64.715456 
4883.000000	64.743947 
4882.000000	64.805197 
4881.000000	64.884424 
4880.000000	64.962935 
4879.000000	65.023207 
4878.000000	65.052819 
4877.000000	65.047121 
4876.000000	65.009570 
4875.000000	64.950013 
4874.000000	64.881634 
4873.000000	64.817357 
4872.000000	64.767932 
4871.000000	64.739346 
4870.000000	64.733266 
4869.000000	64.746332 
4868.000000	64.772081 
4867.000000	64.802145 
4866.000000	64.827561 
4865.000000	64.841270 
4864.000000	64.837980 
4863.000000	64.816951 
4862.000000	64.779829 
4861.000000	64.733195 
4860.000000	64.686655 
4859.000000	64.652228 
4858.000000	64.641427 
4857.000000	64.663386 
4856.000000	64.722466 
4855.000000	64.816856 
4854.000000	64.938688 
4853.000000	65.074825 
4852.000000	65.209412 
4851.000000	65.326857 
4850.000000	65.414786 
4849.000000	65.465736 
4848.000000	65.478038 
4847.000000	65.455508 
4846.000000	65.405941 
4845.000000	65.339493 
4844.000000	65.266108 
4843.000000	65.194964 
4842.000000	65.131950 
4841.000000	65.079808 
4840.000000	65.037202 
4839.000000	65.000987 
4838.000000	64.966511 
4837.000000	64.929008 
4836.000000	64.885139 
4835.000000	64.833092 
4834.000000	64.773893 
4833.000000	64.710521 
4832.000000	64.647841 
4831.000000	64.590787 
4830.000000	64.543890 
4829.000000	64.509868 
4828.000000	64.489626 
4827.000000	64.482045 
4826.000000	64.484977 
4825.000000	64.495825 
4824.000000	64.512634 
4823.000000	64.534282 
4822.000000	64.560890 
4821.000000	64.593243 
4820.000000	64.631605 
4819.000000	64.675307 
4818.000000	64.722371 
4817.000000	64.769840 
4816.000000	64.814281 
4815.000000	64.852571 
4814.000000	64.882588 
4813.000000	64.903354 
4812.000000	64.916157 
4811.000000	64.923048 
4810.000000	64.926028 
4809.000000	64.926314 
4808.000000	64.924120 
4807.000000	64.918804 
4806.000000	64.909338 
4805.000000	64.895439 
4804.000000	64.878153 
4803.000000	64.860582 
4802.000000	64.847469 
4801.000000	64.844322 
4800.000000	64.855861 
4799.000000	64.884710 
4798.000000	64.930653 
4797.000000	64.990139 
4796.000000	65.056943 
4795.000000	65.123867 
4794.000000	65.184330 
4793.000000	65.233588 
4792.000000	65.269780 
4791.000000	65.294671 
4790.000000	65.312862 
4789.000000	65.330004 
4788.000000	65.351104 
4787.000000	65.379667 
4786.000000	65.416193 
4785.000000	65.458750 
4784.000000	65.502405 
4783.000000	65.541791 
4782.000000	65.570664 
4781.000000	65.584540 
4780.000000	65.580320 
4779.000000	65.557122 
4778.000000	65.515923 
4777.000000	65.459418 
4776.000000	65.391230 
4775.000000	65.315532 
4774.000000	65.236544 
4773.000000	65.158677 
4772.000000	65.085411 
4771.000000	65.019702 
4770.000000	64.962720 
4769.000000	64.913940 
4768.000000	64.870500 
4767.000000	64.827942 
4766.000000	64.780449 
4765.000000	64.722728 
4764.000000	64.651679 
4763.000000	64.567923 
4762.000000	64.475846 
4761.000000	64.383506 
4760.000000	64.301109 
4759.000000	64.239096 
4758.000000	64.204955 
4757.000000	64.202094 
4756.000000	64.228534 
4755.000000	64.278006 
4754.000000	64.340662 
4753.000000	64.406061 
4752.000000	64.465308 
4751.000000	64.513015 
4750.000000	64.547276 
4749.000000	64.569711 
4748.000000	64.583444 
4747.000000	64.591765 
4746.000000	64.596819 
4745.000000	64.598727 
4744.000000	64.595508 
4743.000000	64.584898 
4742.000000	64.565896 
4741.000000	64.538931 
4740.000000	64.506411 
4739.000000	64.472889 
4738.000000	64.444231 
4737.000000	64.425253 
4736.000000	64.418721 
4735.000000	64.425110 
4734.000000	64.442181 
4733.000000	64.465570 
4732.000000	64.489459 
4731.000000	64.508676 
4730.000000	64.519286 
4729.000000	64.518713 
4728.000000	64.506530 
4727.000000	64.483690 
4726.000000	64.452743 
4725.000000	64.417004 
4724.000000	64.380502 
4723.000000	64.347076 
4722.000000	64.320683 
4721.000000	64.304995 
4720.000000	64.302921 
4719.000000	64.315819 
4718.000000	64.343786 
4717.000000	64.385485 
4716.000000	64.438676 
4715.000000	64.500117 
4714.000000	64.567041 
4713.000000	64.637470 
4712.000000	64.710402 
4711.000000	64.785456 
4710.000000	64.862656 
4709.000000	64.941573 
4708.000000	65.020799 
4707.000000	65.097212 
4706.000000	65.166974 
4705.000000	65.225315 
4704.000000	65.268468 
4703.000000	65.293264 
4702.000000	65.298795 
4701.000000	65.285181 
4700.000000	65.254497 
4699.000000	65.209364 
4698.000000	65.153145 
4697.000000	65.089106 
4696.000000	65.020728 
4695.000000	64.951372 
4694.000000	64.884638 
4693.000000	64.824151 
4692.000000	64.773869 
4691.000000	64.736700 
4690.000000	64.714121 
4689.000000	64.705181 
4688.000000	64.706516 
4687.000000	64.712524 
4686.000000	64.716458 
4685.000000	64.711499 
4684.000000	64.692020 
4683.000000	64.655113 
4682.000000	64.601039 
4681.000000	64.532828 
4680.000000	64.455890 
4679.000000	64.376878 
4678.000000	64.302563 
4677.000000	64.238405 
4676.000000	64.187932 
4675.000000	64.152240 
4674.000000	64.130640 
4673.000000	64.120721 
4672.000000	64.120030 
4671.000000	64.126253 
4670.000000	64.138555 
4669.000000	64.156699 
4668.000000	64.181423 
4667.000000	64.212727 
4666.000000	64.250373 
4665.000000	64.292836 
4664.000000	64.337468 
4663.000000	64.380455 
4662.000000	64.418244 
4661.000000	64.448046 
4660.000000	64.468216 
4659.000000	64.478659 
4658.000000	64.480638 
4657.000000	64.476490 
4656.000000	64.469003 
4655.000000	64.461112 
4654.000000	64.455270 
4653.000000	64.453315 
4652.000000	64.456748 
4651.000000	64.466571 
4650.000000	64.483785 
4649.000000	64.508605 
4648.000000	64.540553 
4647.000000	64.577889 
4646.000000	64.618182 
4645.000000	64.658474 
4644.000000	64.695072 
4643.000000	64.725017 
4642.000000	64.746499 
4641.000000	64.759445 
4640.000000	64.765381 
4639.000000	64.767122 
4638.000000	64.768362 
4637.000000	64.772295 
4636.000000	64.780879 
4635.000000	64.794158 
4634.000000	64.810276 
4633.000000	64.825201 
4632.000000	64.833974 
4631.000000	64.831185 
4630.000000	64.812469 
4629.000000	64.775562 
4628.000000	64.721274 
4627.000000	64.652848 
4626.000000	64.576244 
4625.000000	64.498877 
4624.000000	64.428806 
4623.000000	64.373207 
4622.000000	64.337420 
4621.000000	64.324307 
4620.000000	64.333796 
4619.000000	64.363217 
4618.000000	64.407896 
4617.000000	64.461612 
4616.000000	64.518308 
4615.000000	64.572310 
4614.000000	64.620399 
4613.000000	64.661407 
4612.000000	64.696812 
4611.000000	64.729452 
4610.000000	64.763140 
4609.000000	64.801144 
4608.000000	64.844846 
4607.000000	64.893102 
4606.000000	64.941716 
4605.000000	64.984226 
4604.000000	65.013289 
4603.000000	65.022587 
4602.000000	65.008354 
4601.000000	64.970707 
4600.000000	64.913702 
4599.000000	64.844894 
4598.000000	64.773774 
4597.000000	64.710259 
4596.000000	64.662361 
4595.000000	64.635777 
4594.000000	64.632987 
4593.000000	64.654111 
4592.000000	64.697217 
4591.000000	64.759182 
4590.000000	64.835858 
4589.000000	64.922189 
4588.000000	65.012121 
4587.000000	65.098881 
4586.000000	65.175080 
4585.000000	65.233659 
4584.000000	65.268397 
4583.000000	65.276050 
4582.000000	65.257573 
4581.000000	65.217971 
4580.000000	65.165925 
4579.000000	65.112018 
4578.000000	65.066552 
4577.000000	65.037083 
4576.000000	65.026521 
4575.000000	65.032720 
4574.000000	65.048980 
4573.000000	65.065884 
4572.000000	65.073823 
4571.000000	65.064764 
4570.000000	65.035128 
4569.000000	64.986038 
4568.000000	64.924120 
4567.000000	64.858841 
4566.000000	64.801216 
4565.000000	64.761543 
4564.000000	64.746451 
4563.000000	64.757370 
4562.000000	64.789891 
4561.000000	64.835667 
4560.000000	64.883255 
4559.000000	64.921402 
4558.000000	64.940905 
4557.000000	64.936399 
4556.000000	64.907598 
4555.000000	64.858865 
4554.000000	64.797353 
4553.000000	64.730858 
4552.000000	64.666485 
4551.000000	64.609241 
4550.000000	64.561319 
4549.000000	64.522886 
4548.000000	64.493346 
4547.000000	64.472866 
4546.000000	64.463281 
4545.000000	64.468646 
4544.000000	64.492917 
4543.000000	64.540100 
4542.000000	64.611315 
4541.000000	64.705419 
4540.000000	64.817643 
4539.000000	64.941263 
4538.000000	65.068459 
4537.000000	65.191698 
4536.000000	65.304708 
4535.000000	65.403079 
4534.000000	65.484881 
4533.000000	65.549468 
4532.000000	65.597295 
4531.000000	65.628314 
4530.000000	65.642571 
4529.000000	65.638399 
4528.000000	65.614080 
4527.000000	65.567517 
4526.000000	65.498352 
4525.000000	65.408587 
4524.000000	65.303730 
4523.000000	65.192508 
4522.000000	65.086317 
4521.000000	64.997291 
4520.000000	64.936494 
4519.000000	64.911723 
4518.000000	64.926028 
4517.000000	64.976525 
4516.000000	65.055370 
4515.000000	65.150785 
4514.000000	65.249919 
4513.000000	65.340828 
4512.000000	65.414953 
4511.000000	65.468096 
4510.000000	65.500164 
4509.000000	65.513658 
4508.000000	65.512633 
4507.000000	65.500402 
4506.000000	65.479493 
4505.000000	65.451979 
4504.000000	65.418910 
4503.000000	65.381669 
4502.000000	65.341472 
4501.000000	65.300679 
4500.000000	65.261268 
4499.000000	65.224909 
4498.000000	65.192556 
4497.000000	65.164375 
4496.000000	65.139651 
4495.000000	65.117263 
4494.000000	65.095806 
4493.000000	65.074443 
4492.000000	65.053272 
4491.000000	65.033960 
4490.000000	65.018844 
4489.000000	65.011692 
4488.000000	65.016555 
4487.000000	65.037846 
4486.000000	65.078854 
4485.000000	65.141057 
4484.000000	65.223455 
4483.000000	65.321564 
4482.000000	65.428185 
4481.000000	65.533041 
4480.000000	65.624427 
4479.000000	65.690994 
4478.000000	65.724563 
4477.000000	65.721297 
4476.000000	65.683007 
4475.000000	65.616059 
4474.000000	65.530109 
4473.000000	65.436267 
4472.000000	65.345191 
4471.000000	65.265107 
4470.000000	65.201163 
4469.000000	65.155410 
4468.000000	65.127730 
4467.000000	65.116262 
4466.000000	65.119147 
4465.000000	65.134692 
4464.000000	65.162301 
4463.000000	65.202093 
4462.000000	65.254688 
4461.000000	65.319657 
4460.000000	65.394973 
4459.000000	65.476417 
4458.000000	65.557217 
4457.000000	65.629482 
4456.000000	65.684890 
4455.000000	65.716218 
4454.000000	65.719270 
4453.000000	65.693831 
4452.000000	65.644764 
4451.000000	65.581488 
4450.000000	65.516138 
4449.000000	65.461254 
4448.000000	65.426921 
4447.000000	65.418863 
4446.000000	65.437102 
4445.000000	65.476226 
4444.000000	65.527248 
4443.000000	65.579915 
4442.000000	65.625429 
4441.000000	65.658450 
4440.000000	65.676975 
4439.000000	65.682363 
4438.000000	65.677642 
4437.000000	65.666937 
4436.000000	65.653729 
4435.000000	65.641021 
4434.000000	65.631532 
4433.000000	65.627717 
4432.000000	65.633058 
4431.000000	65.650510 
4430.000000	65.682554 
4429.000000	65.729141 
4428.000000	65.787935 
4427.000000	65.852808 
4426.000000	65.914535 
4425.000000	65.962672 
4424.000000	65.987372 
4423.000000	65.983009 
4422.000000	65.949535 
4421.000000	65.893745 
4420.000000	65.827798 
4419.000000	65.766382 
4418.000000	65.723156 
4417.000000	65.706992 
4416.000000	65.720009 
4415.000000	65.756273 
4414.000000	65.804171 
4413.000000	65.850305 
4412.000000	65.883588 
4411.000000	65.898919 
4410.000000	65.897822 
4409.000000	65.887093 
4408.000000	65.875601 
4407.000000	65.870904 
4406.000000	65.875506 
4405.000000	65.885853 
4404.000000	65.892910 
4403.000000	65.884089 
4402.000000	65.849137 
4401.000000	65.784883 
4400.000000	65.697431 
4399.000000	65.600538 
4398.000000	65.513825 
4397.000000	65.463757 
4396.000000	65.465927 
4395.000000	65.511298 
4394.000000	65.583539 
4393.000000	65.668916 
4392.000000	65.746212 
4391.000000	65.792775 
4390.000000	65.785408 
4389.000000	65.705442 
4388.000000	65.549898 
4387.000000	65.335178 
4386.000000	65.094065 
4385.000000	64.868879 
4384.000000	64.715552 
4383.000000	64.682364 
4382.000000	64.783906 
4381.000000	64.999485 
4380.000000	65.276026 
4379.000000	65.545225 
4378.000000	65.740537 
4377.000000	65.816235 
4376.000000	65.779757 
4375.000000	65.655732 
4374.000000	65.504932 
4373.000000	65.339159 
4372.000000	65.143442 
4371.000000	64.795184 
4370.000000	64.089894 
4369.000000	62.782168 
4368.000000	60.646462 
4367.000000	57.603311 
4366.000000	53.772950 
4365.000000	49.516248 
4364.000000	45.382356 
4363.000000	41.996192 
4362.000000	39.919376 
4361.000000	39.507389 
4360.000000	40.829467 
4359.000000	43.680381 
4358.000000	47.633528 
4357.000000	52.152657 
4356.000000	56.704545 
4355.000000	60.835933 
4354.000000	64.255213 
4353.000000	66.807603 
4352.000000	68.501567 
4351.000000	69.451570 
4350.000000	69.836139 
4349.000000	69.869446 
4348.000000	69.716858 
4347.000000	69.498682 
4346.000000	69.244766 
4345.000000	68.953585 
4344.000000	68.580627 
4343.000000	68.107891 
4342.000000	67.537569 
4341.000000	66.930246 
4340.000000	66.359710 
4339.000000	65.895533 
4338.000000	65.580987 
4337.000000	65.416336 
4336.000000	65.370035 
4335.000000	65.386986 
4334.000000	65.420508 
4333.000000	65.445899 
4332.000000	65.451431 
4331.000000	65.441441 
4330.000000	65.424966 
4329.000000	65.413951 
4328.000000	65.417885 
4327.000000	65.443849 
4326.000000	65.490245 
4325.000000	65.551710 
4324.000000	65.636467 
4323.000000	65.751862 
4322.000000	65.888428 
4321.000000	66.031074 
4320.000000	66.168117 
4319.000000	66.286563 
4318.000000	66.374778 
4317.000000	66.423821 
4316.000000	66.428518 
4315.000000	66.388630 
4314.000000	66.310310 
4313.000000	66.203022 
4312.000000	66.078209 
4311.000000	65.947985 
4310.000000	65.824437 
4309.000000	65.715861 
4308.000000	65.626239 
4307.000000	65.557813 
4306.000000	65.511703 
4305.000000	65.487360 
4304.000000	65.483260 
4303.000000	65.496802 
4302.000000	65.524601 
4301.000000	65.562248 
4300.000000	65.604805 
4299.000000	65.645885 
4298.000000	65.679574 
4297.000000	65.700888 
4296.000000	65.707898 
4295.000000	65.701246 
4294.000000	65.685462 
4293.000000	65.667724 
4292.000000	65.656638 
4291.000000	65.660214 
4290.000000	65.683507 
4289.000000	65.727877 
4288.000000	65.789389 
4287.000000	65.859866 
4286.000000	65.928459 
4285.000000	65.984535 
4284.000000	66.019749 
4283.000000	66.029953 
4282.000000	66.015911 
4281.000000	65.982770 
4280.000000	65.938854 
4279.000000	65.893220 
4278.000000	65.853238 
4277.000000	65.822720 
4276.000000	65.802145 
4275.000000	65.788245 
4274.000000	65.775322 
4273.000000	65.757536 
4272.000000	65.730357 
4271.000000	65.692758 
4270.000000	65.647602 
4269.000000	65.601587 
4268.000000	65.562534 
4267.000000	65.538191 
4266.000000	65.533900 
4265.000000	65.550971 
4264.000000	65.585970 
4263.000000	65.631270 
4262.000000	65.677452 
4261.000000	65.714764 
4260.000000	65.735673 
4259.000000	65.735769 
4258.000000	65.714812 
4257.000000	65.675759 
4256.000000	65.623688 
4255.000000	65.564465 
4254.000000	65.503454 
4253.000000	65.444779 
4252.000000	65.391063 
4251.000000	65.344238 
4250.000000	65.305662 
4249.000000	65.276885 
4248.000000	65.259075 
4247.000000	65.252232 
4246.000000	65.254831 
4245.000000	65.263223 
4244.000000	65.272402 
4243.000000	65.276408 
4242.000000	65.270185 
4241.000000	65.250539 
4240.000000	65.217256 
4239.000000	65.173316 
4238.000000	65.124082 
4237.000000	65.076303 
4236.000000	65.036225 
4235.000000	65.007805 
4234.000000	64.992332 
4233.000000	64.988398 
4232.000000	64.992618 
4231.000000	65.001082 
4230.000000	65.010356 
4229.000000	65.018534 
4228.000000	65.024995 
4227.000000	65.030503 
4226.000000	65.036034 
4225.000000	65.042448 
4224.000000	65.050125 
4223.000000	65.058732 
4222.000000	65.068340 
4221.000000	65.078663 
4220.000000	65.088605 
4219.000000	65.096163 
4218.000000	65.098714 
4217.000000	65.093779 
4216.000000	65.079164 
4215.000000	65.054512 
4214.000000	65.021514 
4213.000000	64.984512 
4212.000000	64.949417 
4211.000000	64.923334 
4210.000000	64.912962 
4209.000000	64.923191 
4208.000000	64.955830 
4207.000000	65.008926 
4206.000000	65.076994 
4205.000000	65.151596 
4204.000000	65.222787 
4203.000000	65.280723 
4202.000000	65.317606 
4201.000000	65.329623 
4200.000000	65.317940 
4199.000000	65.288162 
4198.000000	65.249371 
4197.000000	65.213274 
4196.000000	65.191435 
4195.000000	65.193414 
4194.000000	65.223979 
4193.000000	65.281820 
4192.000000	65.359520 
4191.000000	65.445399 
4190.000000	65.526223 
4189.000000	65.589976 
4188.000000	65.629172 
4187.000000	65.642189 
4186.000000	65.633535 
4185.000000	65.612125 
4184.000000	65.588641 
4183.000000	65.572834 
4182.000000	65.570402 
4181.000000	65.582656 
4180.000000	65.604829 
4179.000000	65.629100 
4178.000000	65.644621 
4177.000000	65.641236 
4176.000000	65.609955 
4175.000000	65.545606 
4174.000000	65.447092 
4173.000000	65.318322 
4172.000000	65.167093 
4171.000000	65.004873 
4170.000000	64.846444 
4169.000000	64.708328 
4168.000000	64.606714 
4167.000000	64.554929 
4166.000000	64.560961 
4165.000000	64.625692 
4164.000000	64.741325 
4163.000000	64.893031 
4162.000000	65.060734 
4161.000000	65.223288 
4160.000000	65.361166 
4159.000000	65.460634 
4158.000000	65.515637 
4157.000000	65.527796 
4156.000000	65.504932 
4155.000000	65.458250 
4154.000000	65.399336 
4153.000000	65.337157 
4152.000000	65.277504 
4151.000000	65.221571 
4150.000000	65.167927 
4149.000000	65.113592 
4148.000000	65.056967 
4147.000000	64.997959 
4146.000000	64.939045 
4145.000000	64.884185 
4144.000000	64.838123 
4143.000000	64.804720 
4142.000000	64.786005 
4141.000000	64.782166 
4140.000000	64.791178 
4139.000000	64.808630 
4138.000000	64.828848 
4137.000000	64.846253 
4136.000000	64.856314 
4135.000000	64.855551 
4134.000000	64.843010 
4133.000000	64.819192 
4132.000000	64.787077 
4131.000000	64.751386 
4130.000000	64.717721 
4129.000000	64.691305 
4128.000000	64.676165 
4127.000000	64.675045 
4126.000000	64.688086 
4125.000000	64.712810 
4124.000000	64.744591 
4123.000000	64.777612 
4122.000000	64.806246 
4121.000000	64.826202 
4120.000000	64.835572 
4119.000000	64.834976 
4118.000000	64.828038 
4117.000000	64.820384 
4116.000000	64.818143 
4115.000000	64.826512 
4114.000000	64.848923 
4113.000000	64.885902 
4112.000000	64.935088 
4111.000000	64.991474 
4110.000000	65.048909 
4109.000000	65.100812 
4108.000000	65.141391 
4107.000000	65.166282 
4106.000000	65.173482 
4105.000000	65.163183 
4104.000000	65.137958 
4103.000000	65.101766 
4102.000000	65.059685 
4101.000000	65.016007 
4100.000000	64.973998 
4099.000000	64.935231 
4098.000000	64.899873 
4097.000000	64.867353 
4096.000000	64.837217 
4095.000000	64.809775 
4094.000000	64.786481 
4093.000000	64.770078 
4092.000000	64.763712 
4091.000000	64.769697 
4090.000000	64.788532 
4089.000000	64.818525 
4088.000000	64.855718 
4087.000000	64.894485 
4086.000000	64.928650 
4085.000000	64.953184 
4084.000000	64.965176 
4083.000000	64.964652 
4082.000000	64.954066 
4081.000000	64.937162 
4080.000000	64.918184 
4079.000000	64.900398 
4078.000000	64.885926 
4077.000000	64.875555 
4076.000000	64.869070 
4075.000000	64.866185 
4074.000000	64.866352 
4073.000000	64.869546 
4072.000000	64.875602 
4071.000000	64.884161 
4070.000000	64.894104 
4069.000000	64.903545 
4068.000000	64.909982 
4067.000000	64.910960 
4066.000000	64.904379 
4065.000000	64.889264 
4064.000000	64.865994 
4063.000000	64.836502 
4062.000000	64.803624 
4061.000000	64.771175 
4060.000000	64.742636 
4059.000000	64.721298 
4058.000000	64.709711 
4057.000000	64.709973 
4056.000000	64.723372 
4055.000000	64.750313 
4054.000000	64.790248 
4053.000000	64.841437 
4052.000000	64.900851 
4051.000000	64.964079 
4050.000000	65.025615 
4049.000000	65.079593 
4048.000000	65.120863 
4047.000000	65.145730 
4046.000000	65.152382 
4045.000000	65.141463 
4044.000000	65.116095 
4043.000000	65.080785 
4042.000000	65.041089 
4041.000000	65.002083 
4040.000000	64.967656 
4039.000000	64.939904 
4038.000000	64.918947 
4037.000000	64.903450 
4036.000000	64.891147 
4035.000000	64.879775 
4034.000000	64.867615 
4033.000000	64.854121 
4032.000000	64.840173 
4031.000000	64.827466 
4030.000000	64.818596 
4029.000000	64.815855 
4028.000000	64.821457 
4027.000000	64.836859 
4026.000000	64.862895 
4025.000000	64.899277 
4024.000000	64.944696 
4023.000000	64.997291 
4022.000000	65.053987 
4021.000000	65.110969 
4020.000000	65.163779 
4019.000000	65.208196 
4018.000000	65.240240 
4017.000000	65.256810 
4016.000000	65.256309 
4015.000000	65.239214 
4014.000000	65.207958 
4013.000000	65.166854 
4012.000000	65.121483 
4011.000000	65.077853 
4010.000000	65.041995 
4009.000000	65.018868 
4008.000000	65.011548 
4007.000000	65.020513 
4006.000000	65.044021 
4005.000000	65.078115 
4004.000000	65.116930 
4003.000000	65.153622 
4002.000000	65.181565 
4001.000000	65.195393 
4000.000000	65.191912 
3999.000000	65.170574 
3998.000000	65.133786 
3997.000000	65.085935 
3996.000000	65.032839 
3995.000000	64.979839 
3994.000000	64.931440 
3993.000000	64.889693 
3992.000000	64.854860 
3991.000000	64.825367 
3990.000000	64.798665 
3989.000000	64.772748 
3988.000000	64.746928 
3987.000000	64.722704 
3986.000000	64.703106 
3985.000000	64.692831 
3984.000000	64.696741 
3983.000000	64.718604 
3982.000000	64.759731 
3981.000000	64.818263 
3980.000000	64.889335 
3979.000000	64.966011 
3978.000000	65.040421 
3977.000000	65.105700 
3976.000000	65.156936 
3975.000000	65.192222 
3974.000000	65.212130 
3973.000000	65.219116 
3972.000000	65.216135 
3971.000000	65.205955 
3970.000000	65.189933 
3969.000000	65.168786 
3968.000000	65.142202 
3967.000000	65.110707 
3966.000000	65.075349 
3965.000000	65.038466 
3964.000000	65.003275 
3963.000000	64.973711 
3962.000000	64.952993 
3961.000000	64.942646 
3960.000000	64.942383 
3959.000000	64.949965 
3958.000000	64.962196 
3957.000000	64.975786 
3956.000000	64.988207 
3955.000000	64.997887 
3954.000000	65.004658 
3953.000000	65.009236 
3952.000000	65.012168 
3951.000000	65.013527 
3950.000000	65.012812 
3949.000000	65.009236 
3948.000000	65.002012 
3947.000000	64.990878 
3946.000000	64.976716 
3945.000000	64.961552 
3944.000000	64.948010 
3943.000000	64.939093 
3942.000000	64.937329 
3941.000000	64.944434 
3940.000000	64.960670 
3939.000000	64.985013 
3938.000000	65.015435 
3937.000000	65.049219 
3936.000000	65.083694 
3935.000000	65.115880 
3934.000000	65.143108 
3933.000000	65.162682 
3932.000000	65.172123 
3931.000000	65.169191 
3930.000000	65.152311 
3929.000000	65.121054 
3928.000000	65.076661 
3927.000000	65.021824 
3926.000000	64.960980 
3925.000000	64.899539 
3924.000000	64.843797 
3923.000000	64.799809 
3922.000000	64.772605 
3921.000000	64.765477 
3920.000000	64.778971 
3919.000000	64.810848 
3918.000000	64.856362 
3917.000000	64.908838 
3916.000000	64.960861 
3915.000000	65.005493 
3914.000000	65.037298 
3913.000000	65.053176 
3912.000000	65.052342 
3911.000000	65.035915 
3910.000000	65.006518 
3909.000000	64.967656 
3908.000000	64.923048 
3907.000000	64.876294 
3906.000000	64.830946 
3905.000000	64.790558 
3904.000000	64.758634 
3903.000000	64.738535 
3902.000000	64.732980 
3901.000000	64.743614 
3900.000000	64.770030 
3899.000000	64.809799 
3898.000000	64.858150 
3897.000000	64.909172 
3896.000000	64.956545 
3895.000000	64.995241 
3894.000000	65.022373 
3893.000000	65.037798 
3892.000000	65.043687 
3891.000000	65.043854 
3890.000000	65.042734 
3889.000000	65.043950 
3888.000000	65.049815 
3887.000000	65.060615 
3886.000000	65.075159 
3885.000000	65.091109 
3884.000000	65.106225 
3883.000000	65.118813 
3882.000000	65.128421 
3881.000000	65.135884 
3880.000000	65.143036 
3879.000000	65.152311 
3878.000000	65.165901 
3877.000000	65.185093 
3876.000000	65.209794 
3875.000000	65.238595 
3874.000000	65.268683 
3873.000000	65.296435 
3872.000000	65.317726 
3871.000000	65.328717 
3870.000000	65.326666 
3869.000000	65.310788 
3868.000000	65.282249 
3867.000000	65.244030 
3866.000000	65.200376 
3865.000000	65.156531 
3864.000000	65.117478 
3863.000000	65.086650 
3862.000000	65.065813 
3861.000000	65.054917 
3860.000000	65.052509 
3859.000000	65.056228 
3858.000000	65.063714 
3857.000000	65.073084 
3856.000000	65.083765 
3855.000000	65.095996 
3854.000000	65.110659 
3853.000000	65.128397 
3852.000000	65.149331 
3851.000000	65.172338 
3850.000000	65.195488 
3849.000000	65.216279 
3848.000000	65.232324 
3847.000000	65.241694 
3846.000000	65.243339 
3845.000000	65.236783 
3844.000000	65.222120 
3843.000000	65.199637 
3842.000000	65.169239 
3841.000000	65.130615 
3840.000000	65.083503 
3839.000000	65.028405 
3838.000000	64.966917 
3837.000000	64.902544 
3836.000000	64.840292 
3835.000000	64.786458 
3834.000000	64.746904 
3833.000000	64.726638 
3832.000000	64.728021 
3831.000000	64.751100 
3830.000000	64.792728 
3829.000000	64.847517 
3828.000000	64.908814 
3827.000000	64.969682 
3826.000000	65.023803 
3825.000000	65.066504 
3824.000000	65.095114 
3823.000000	65.109062 
3822.000000	65.109825 
3821.000000	65.100264 
3820.000000	65.084218 
3819.000000	65.065979 
3818.000000	65.049338 
3817.000000	65.037298 
3816.000000	65.031433 
3815.000000	65.031766 
3814.000000	65.036892 
3813.000000	65.044546 
3812.000000	65.052366 
3811.000000	65.058374 
3810.000000	65.061926 
3809.000000	65.063691 
3808.000000	65.065765 
3807.000000	65.070247 
3806.000000	65.079498 
3805.000000	65.094661 
3804.000000	65.116357 
3803.000000	65.143847 
3802.000000	65.176177 
3801.000000	65.212202 
3800.000000	65.251231 
3799.000000	65.292882 
3798.000000	65.336751 
3797.000000	65.381836 
3796.000000	65.426254 
3795.000000	65.466976 
3794.000000	65.499949 
3793.000000	65.520930 
3792.000000	65.526700 
3791.000000	65.515971 
3790.000000	65.490317 
3789.000000	65.453743 
3788.000000	65.412449 
3787.000000	65.373086 
3786.000000	65.341567 
3785.000000	65.321588 
3784.000000	65.314149 
3783.000000	65.317511 
3782.000000	65.327882 
3781.000000	65.340638 
3780.000000	65.351629 
3779.000000	65.357923 
3778.000000	65.358257 
3777.000000	65.353155 
3776.000000	65.344142 
3775.000000	65.333247 
3774.000000	65.322136 
3773.000000	65.311908 
3772.000000	65.302896 
3771.000000	65.294981 
3770.000000	65.287923 
3769.000000	65.281772 
3768.000000	65.277004 
3767.000000	65.274095 
3766.000000	65.273356 
3765.000000	65.274429 
3764.000000	65.276312 
3763.000000	65.277171 
3762.000000	65.274667 
3761.000000	65.266776 
3760.000000	65.252208 
3759.000000	65.231060 
3758.000000	65.204715 
3757.000000	65.175557 
3756.000000	65.146756 
3755.000000	65.121269 
3754.000000	65.101742 
3753.000000	65.089750 
3752.000000	65.086007 
3751.000000	65.090394 
3750.000000	65.102267 
3749.000000	65.120720 
3748.000000	65.144801 
3747.000000	65.173077 
3746.000000	65.204167 
3745.000000	65.236306 
3744.000000	65.267419 
3743.000000	65.295124 
3742.000000	65.316915 
3741.000000	65.330529 
3740.000000	65.334463 
3739.000000	65.328240 
3738.000000	65.312647 
3737.000000	65.289545 
3736.000000	65.261769 
3735.000000	65.232515 
3734.000000	65.205144 
3733.000000	65.182471 
3732.000000	65.166616 
3731.000000	65.158772 
3730.000000	65.159177 
3729.000000	65.167379 
3728.000000	65.182042 
3727.000000	65.201544 
3726.000000	65.223693 
3725.000000	65.246248 
3724.000000	65.266823 
3723.000000	65.283203 
3722.000000	65.293312 
3721.000000	65.295720 
3720.000000	65.289855 
3719.000000	65.276312 
3718.000000	65.256738 
3717.000000	65.233826 
3716.000000	65.210747 
3715.000000	65.190148 
3714.000000	65.173912 
3713.000000	65.162324 
3712.000000	65.154218 
3711.000000	65.147304 
3710.000000	65.138983 
3709.000000	65.126824 
3708.000000	65.109610 
3707.000000	65.087437 
3706.000000	65.061998 
3705.000000	65.035796 
3704.000000	65.012073 
3703.000000	64.993357 
3702.000000	64.981555 
3701.000000	64.977264 
3700.000000	64.980149 
3699.000000	64.988970 
3698.000000	65.002226 
3697.000000	65.018367 
3696.000000	65.036439 
3695.000000	65.055751 
3694.000000	65.076422 
3693.000000	65.098404 
3692.000000	65.122175 
3691.000000	65.148091 
3690.000000	65.176296 
3689.000000	65.206551 
3688.000000	65.237665 
3687.000000	65.267586 
3686.000000	65.293574 
3685.000000	65.312671 
3684.000000	65.322113 
3683.000000	65.320134 
3682.000000	65.306758 
3681.000000	65.283823 
3680.000000	65.254902 
3679.000000	65.224599 
3678.000000	65.197610 
3677.000000	65.177750 
3676.000000	65.167164 
3675.000000	65.165686 
3674.000000	65.171337 
3673.000000	65.180516 
3672.000000	65.189123 
3671.000000	65.193438 
3670.000000	65.191102 
3669.000000	65.181326 
3668.000000	65.164732 
3667.000000	65.143322 
3666.000000	65.119385 
3665.000000	65.095782 
3664.000000	65.075135 
3663.000000	65.059900 
3662.000000	65.051770 
3661.000000	65.052056 
3660.000000	65.061354 
3659.000000	65.079140 
3658.000000	65.103673 
3657.000000	65.132045 
3656.000000	65.160536 
3655.000000	65.184664 
3654.000000	65.200185 
3653.000000	65.203857 
3652.000000	65.194272 
3651.000000	65.172123 
3650.000000	65.140390 
3649.000000	65.103650 
3648.000000	65.067505 
3647.000000	65.037298 
3646.000000	65.017127 
3645.000000	65.009284 
3644.000000	65.013885 
3643.000000	65.029144 
3642.000000	65.051889 
3641.000000	65.078353 
3640.000000	65.104722 
3639.000000	65.128064 
3638.000000	65.146303 
3637.000000	65.158081 
3636.000000	65.162754 
3635.000000	65.160155 
3634.000000	65.150070 
3633.000000	65.132212 
3632.000000	65.106606 
3631.000000	65.073823 
3630.000000	65.035343 
3629.000000	64.993405 
3628.000000	64.951229 
3627.000000	64.912319 
3626.000000	64.880013 
3625.000000	64.856767 
3624.000000	64.843273 
3623.000000	64.838767 
3622.000000	64.840984 
3621.000000	64.847087 
3620.000000	64.853835 
3619.000000	64.859056 
3618.000000	64.861631 
3617.000000	64.862346 
3616.000000	64.863014 
3615.000000	64.866423 
3614.000000	64.874911 
3613.000000	64.890289 
3612.000000	64.913177 
3611.000000	64.942669 
3610.000000	64.976572 
3609.000000	65.011835 
3608.000000	65.045380 
3607.000000	65.074276 
3606.000000	65.096402 
3605.000000	65.110516 
3604.000000	65.116333 
3603.000000	65.114331 
3602.000000	65.105509 
3601.000000	65.091323 
3600.000000	65.073204 
3599.000000	65.052700 
3598.000000	65.030980 
3597.000000	65.009212 
3596.000000	64.988136 
3595.000000	64.968299 
3594.000000	64.949870 
3593.000000	64.932894 
3592.000000	64.917635 
3591.000000	64.904403 
3590.000000	64.894127 
3589.000000	64.887714 
3588.000000	64.887022 
3587.000000	64.894008 
3586.000000	64.910840 
3585.000000	64.938831 
3584.000000	64.978265 
3583.000000	65.027952 
3582.000000	65.085077 
3581.000000	65.145564 
3580.000000	65.204524 
3579.000000	65.257024 
3578.000000	65.298843 
3577.000000	65.326976 
3576.000000	65.339970 
3575.000000	65.337944 
3574.000000	65.322279 
3573.000000	65.295433 
3572.000000	65.260887 
3571.000000	65.222406 
3570.000000	65.184140 
3569.000000	65.149521 
3568.000000	65.121579 
3567.000000	65.101909 
3566.000000	65.090847 
3565.000000	65.086936 
3564.000000	65.087246 
3563.000000	65.088057 
3562.000000	65.085363 
3561.000000	65.076494 
3560.000000	65.060257 
3559.000000	65.038061 
3558.000000	65.013217 
3557.000000	64.990615 
3556.000000	64.975118 
3555.000000	64.970731 
3554.000000	64.979314 
3553.000000	65.000391 
3552.000000	65.031290 
3551.000000	65.067696 
3550.000000	65.104556 
3549.000000	65.136766 
3548.000000	65.160107 
3547.000000	65.171623 
3546.000000	65.169763 
3545.000000	65.154552 
3544.000000	65.127277 
3543.000000	65.090441 
3542.000000	65.047430 
3541.000000	65.001869 
3540.000000	64.957427 
3539.000000	64.917874 
3538.000000	64.886331 
3537.000000	64.864850 
3536.000000	64.854478 
3535.000000	64.855194 
3534.000000	64.866113 
3533.000000	64.885878 
3532.000000	64.912700 
3531.000000	64.944553 
3530.000000	64.979076 
3529.000000	65.013647 
3528.000000	65.045523 
3527.000000	65.072059 
3526.000000	65.091300 
3525.000000	65.102362 
3524.000000	65.106010 
3523.000000	65.104293 
3522.000000	65.100216 
3521.000000	65.096926 
3520.000000	65.096950 
3519.000000	65.101718 
3518.000000	65.111470 
3517.000000	65.125417 
3516.000000	65.142250 
3515.000000	65.160679 
3514.000000	65.179991 
3513.000000	65.199804 
3512.000000	65.220499 
3511.000000	65.242075 
3510.000000	65.263843 
3509.000000	65.284180 
3508.000000	65.300488 
3507.000000	65.310287 
3506.000000	65.311670 
3505.000000	65.304160 
3504.000000	65.289330 
3503.000000	65.270185 
3502.000000	65.250706 
3501.000000	65.234732 
3500.000000	65.225052 
3499.000000	65.222644 
3498.000000	65.226674 
3497.000000	65.234923 
3496.000000	65.244483 
3495.000000	65.252637 
3494.000000	65.257525 
3493.000000	65.258359 
3492.000000	65.255641 
3491.000000	65.250539 
3490.000000	65.244722 
3489.000000	65.239596 
3488.000000	65.235996 
3487.000000	65.234184 
3486.000000	65.233516 
3485.000000	65.232992 
3484.000000	65.230822 
3483.000000	65.225100 
3482.000000	65.213799 
3481.000000	65.194892 
3480.000000	65.167427 
3479.000000	65.131568 
3478.000000	65.089774 
3477.000000	65.045976 
3476.000000	65.006208 
3475.000000	64.977240 
3474.000000	64.965677 
3473.000000	64.976286 
3472.000000	65.010762 
3471.000000	65.067124 
3470.000000	65.139698 
3469.000000	65.220212 
3468.000000	65.299105 
3467.000000	65.367460 
3466.000000	65.418839 
3465.000000	65.450143 
3464.000000	65.461826 
3463.000000	65.457129 
3462.000000	65.441203 
3461.000000	65.419077 
3460.000000	65.395188 
3459.000000	65.371727 
3458.000000	65.349769 
3457.000000	65.328383 
3456.000000	65.306091 
3455.000000	65.281105 
3454.000000	65.252637 
3453.000000	65.220952 
3452.000000	65.187239 
3451.000000	65.153455 
3450.000000	65.121626 
3449.000000	65.093636 
3448.000000	65.070533 
3447.000000	65.052914 
3446.000000	65.040612 
3445.000000	65.033626 
3444.000000	65.031790 
3443.000000	65.035486 
3442.000000	65.045094 
3441.000000	65.060853 
3440.000000	65.082502 
3439.000000	65.108704 
3438.000000	65.136981 
3437.000000	65.164017 
3436.000000	65.186309 
3435.000000	65.200662 
3434.000000	65.205287 
3433.000000	65.200448 
3432.000000	65.188527 
3431.000000	65.173912 
3430.000000	65.161871 
3429.000000	65.156888 
3428.000000	65.161848 
3427.000000	65.177345 
3426.000000	65.201401 
3425.000000	65.229940 
3424.000000	65.257692 
3423.000000	65.279769 
3422.000000	65.292263 
3421.000000	65.293383 
3420.000000	65.283489 
3419.000000	65.264749 
3418.000000	65.240669 
3417.000000	65.215206 
3416.000000	65.191960 
3415.000000	65.173792 
3414.000000	65.162467 
3413.000000	65.158820 
3412.000000	65.162801 
3411.000000	65.173721 
3410.000000	65.190553 
3409.000000	65.212178 
3408.000000	65.237164 
3407.000000	65.264296 
3406.000000	65.292549 
3405.000000	65.321087 
3404.000000	65.349221 
3403.000000	65.376138 
3402.000000	65.400695 
3401.000000	65.421366 
3400.000000	65.436530 
3399.000000	65.444064 
3398.000000	65.442419 
3397.000000	65.430474 
3396.000000	65.408468 
3395.000000	65.377640 
3394.000000	65.340304 
3393.000000	65.299439 
3392.000000	65.258193 
3391.000000	65.219283 
3390.000000	65.184593 
3389.000000	65.155029 
3388.000000	65.130615 
3387.000000	65.110635 
3386.000000	65.094399 
3385.000000	65.081238 
3384.000000	65.071058 
3383.000000	65.064024 
3382.000000	65.060520 
3381.000000	65.060782 
3380.000000	65.064835 
3379.000000	65.072345 
3378.000000	65.082645 
3377.000000	65.094804 
3376.000000	65.107798 
3375.000000	65.120887 
3374.000000	65.133309 
3373.000000	65.144515 
3372.000000	65.153908 
3371.000000	65.160894 
3370.000000	65.165114 
3369.000000	65.166282 
3368.000000	65.164852 
3367.000000	65.161824 
3366.000000	65.158724 
3365.000000	65.157580 
3364.000000	65.160250 
3363.000000	65.167808 
3362.000000	65.180301 
3361.000000	65.196800 
3360.000000	65.215110 
3359.000000	65.232539 
3358.000000	65.246701 
3357.000000	65.255975 
3356.000000	65.260076 
3355.000000	65.259838 
3354.000000	65.257048 
3353.000000	65.253734 
3352.000000	65.251326 
3351.000000	65.250277 
3350.000000	65.250015 
3349.000000	65.249347 
3348.000000	65.247058 
3347.000000	65.242624 
3346.000000	65.236735 
3345.000000	65.230846 
3344.000000	65.227198 
3343.000000	65.227651 
3342.000000	65.233016 
3341.000000	65.242767 
3340.000000	65.255236 
3339.000000	65.267777 
3338.000000	65.277647 
3337.000000	65.282988 
3336.000000	65.283226 
3335.000000	65.279388 
3334.000000	65.273571 
3333.000000	65.268492 
3332.000000	65.266728 
3331.000000	65.269780 
3330.000000	65.277814 
3329.000000	65.289926 
3328.000000	65.304350 
3327.000000	65.319252 
3326.000000	65.333104 
3325.000000	65.344953 
3324.000000	65.354919 
3323.000000	65.363383 
3322.000000	65.371179 
3321.000000	65.379023 
3320.000000	65.387225 
3319.000000	65.395665 
3318.000000	65.403366 
3317.000000	65.408992 
3316.000000	65.410733 
3315.000000	65.407061 
3314.000000	65.396761 
3313.000000	65.379500 
3312.000000	65.355944 
3311.000000	65.327596 
3310.000000	65.296745 
3309.000000	65.266036 
3308.000000	65.237903 
3307.000000	65.214109 
3306.000000	65.195608 
3305.000000	65.182590 
3304.000000	65.174293 
3303.000000	65.169715 
3302.000000	65.167999 
3301.000000	65.168666 
3300.000000	65.171861 
3299.000000	65.178036 
3298.000000	65.187668 
3297.000000	65.200757 
3296.000000	65.216279 
3295.000000	65.232372 
3294.000000	65.246820 
3293.000000	65.257620 
3292.000000	65.263175 
3291.000000	65.263152 
3290.000000	65.258502 
3289.000000	65.251302 
3288.000000	65.244388 
3287.000000	65.240335 
3286.000000	65.240931 
3285.000000	65.246558 
3284.000000	65.256166 
3283.000000	65.267348 
3282.000000	65.277147 
3281.000000	65.282845 
3280.000000	65.282678 
3279.000000	65.276455 
3278.000000	65.265727 
3277.000000	65.253329 
3276.000000	65.242862 
3275.000000	65.237736 
3274.000000	65.240073 
3273.000000	65.250229 
3272.000000	65.266299 
3271.000000	65.284442 
3270.000000	65.299630 
3269.000000	65.306687 
3268.000000	65.301847 
3267.000000	65.283656 
3266.000000	65.253686 
3265.000000	65.216469 
3264.000000	65.178489 
3263.000000	65.146613 
3262.000000	65.126538 
3261.000000	65.121650 
3260.000000	65.131950 
3259.000000	65.154075 
3258.000000	65.182304 
3257.000000	65.209937 
3256.000000	65.230917 
3255.000000	65.241360 
3254.000000	65.240097 
3253.000000	65.228700 
3252.000000	65.211009 
3251.000000	65.191555 
3250.000000	65.174317 
3249.000000	65.161585 
3248.000000	65.153455 
3247.000000	65.147995 
3246.000000	65.142202 
3245.000000	65.133070 
3244.000000	65.118575 
3243.000000	65.099048 
3242.000000	65.076470 
3241.000000	65.055441 
3240.000000	65.041184 
3239.000000	65.039229 
3238.000000	65.053606 
3237.000000	65.086030 
3236.000000	65.135455 
3235.000000	65.197873 
3234.000000	65.267062 
3233.000000	65.335321 
3232.000000	65.395021 
3231.000000	65.439534 
3230.000000	65.464305 
3229.000000	65.467596 
3228.000000	65.450358 
3227.000000	65.416193 
3226.000000	65.370607 
3225.000000	65.320634 
3224.000000	65.273427 
3223.000000	65.235614 
3222.000000	65.211844 
3221.000000	65.204381 
3220.000000	65.212678 
3219.000000	65.233564 
3218.000000	65.262174 
3217.000000	65.292668 
3216.000000	65.319705 
3215.000000	65.339255 
3214.000000	65.349316 
3213.000000	65.349888 
3212.000000	65.342736 
3211.000000	65.330433 
3210.000000	65.315675 
3209.000000	65.300488 
3208.000000	65.285944 
3207.000000	65.272355 
3206.000000	65.259194 
3205.000000	65.245795 
3204.000000	65.231776 
3203.000000	65.217304 
3202.000000	65.202879 
3201.000000	65.189194 
3200.000000	65.176630 
3199.000000	65.165114 
3198.000000	65.154290 
3197.000000	65.143680 
3196.000000	65.132784 
3195.000000	65.121436 
3194.000000	65.110039 
3193.000000	65.099620 
3192.000000	65.091371 
3191.000000	65.086507 
3190.000000	65.085911 
3189.000000	65.090012 
3188.000000	65.098571 
3187.000000	65.110826 
3186.000000	65.125632 
3185.000000	65.141630 
3184.000000	65.157365 
3183.000000	65.172076 
3182.000000	65.185284 
3181.000000	65.197443 
3180.000000	65.209364 
3179.000000	65.222525 
3178.000000	65.238595 
3177.000000	65.259194 
3176.000000	65.285348 
3175.000000	65.316939 
3174.000000	65.352535 
3173.000000	65.389132 
3172.000000	65.422272 
3171.000000	65.446710 
3170.000000	65.457081 
3169.000000	65.449142 
3168.000000	65.420675 
3167.000000	65.372228 
3166.000000	65.307497 
3165.000000	65.233111 
3164.000000	65.157556 
3163.000000	65.089941 
3162.000000	65.038347 
3161.000000	65.008497 
3160.000000	65.002608 
3159.000000	65.019226 
3158.000000	65.053510 
3157.000000	65.098214 
3156.000000	65.145182 
3155.000000	65.186905 
3154.000000	65.217804 
3153.000000	65.234398 
3152.000000	65.236067 
3151.000000	65.224194 
3150.000000	65.201544 
3149.000000	65.171289 
3148.000000	65.136194 
3147.000000	65.098452 
3146.000000	65.059638 
3145.000000	65.020966 
3144.000000	64.983367 
3143.000000	64.947748 
3142.000000	64.915442 
3141.000000	64.888000 
3140.000000	64.866757 
3139.000000	64.852523 
3138.000000	64.845466 
3137.000000	64.844870 
3136.000000	64.848852 
3135.000000	64.855027 
3134.000000	64.860916 
3133.000000	64.864230 
3132.000000	64.863181 
3131.000000	64.856886 
3130.000000	64.845108 
3129.000000	64.828634 
3128.000000	64.808511 
3127.000000	64.786124 
3126.000000	64.762783 
3125.000000	64.739990 
3124.000000	64.719152 
3123.000000	64.702057 
3122.000000	64.690351 
3121.000000	64.685988 
3120.000000	64.691019 
3119.000000	64.707303 
3118.000000	64.736032 
3117.000000	64.777421 
3116.000000	64.830541 
3115.000000	64.893269 
3114.000000	64.962697 
3113.000000	65.035533 
3112.000000	65.108513 
3111.000000	65.178966 
3110.000000	65.244388 
3109.000000	65.302538 
3108.000000	65.350818 
3107.000000	65.387034 
3106.000000	65.408873 
3105.000000	65.414667 
3104.000000	65.403604 
3103.000000	65.376877 
3102.000000	65.337109 
3101.000000	65.288829 
3100.000000	65.237450 
3099.000000	65.188813 
3098.000000	65.147948 
3097.000000	65.118455 
3096.000000	65.102028 
3095.000000	65.098476 
3094.000000	65.106129 
3093.000000	65.122580 
3092.000000	65.144944 
3091.000000	65.170550 
3090.000000	65.196776 
3089.000000	65.221285 
3088.000000	65.241575 
3087.000000	65.255546 
3086.000000	65.261650 
3085.000000	65.259456 
3084.000000	65.249919 
3083.000000	65.235114 
3082.000000	65.218472 
3081.000000	65.203833 
3080.000000	65.194368 
3079.000000	65.192079 
3078.000000	65.197634 
3077.000000	65.209841 
3076.000000	65.226268 
3075.000000	65.243649 
3074.000000	65.258955 
3073.000000	65.269756 
3072.000000	65.274953 
3071.000000	65.274500 
3070.000000	65.269351 
3069.000000	65.260958 
3068.000000	65.250754 
3067.000000	65.239882 
3066.000000	65.228939 
3065.000000	65.218257 
3064.000000	65.208196 
3063.000000	65.199351 
3062.000000	65.192818 
3061.000000	65.190005 
3060.000000	65.192222 
3059.000000	65.200686 
3058.000000	65.215873 
3057.000000	65.237021 
3056.000000	65.262365 
3055.000000	65.288901 
3054.000000	65.313243 
3053.000000	65.331959 
3052.000000	65.342378 
3051.000000	65.343117 
3050.000000	65.334153 
3049.000000	65.317225 
3048.000000	65.294885 
3047.000000	65.270233 
3046.000000	65.246033 
3045.000000	65.224552 
3044.000000	65.207028 
3043.000000	65.193939 
3042.000000	65.184879 
3041.000000	65.178966 
3040.000000	65.174937 
3039.000000	65.171337 
3038.000000	65.166592 
3037.000000	65.159440 
3036.000000	65.148973 
3035.000000	65.134978 
3034.000000	65.118122 
3033.000000	65.099954 
3032.000000	65.082693 
3031.000000	65.069007 
3030.000000	65.061330 
3029.000000	65.061640 
3028.000000	65.070414 
3027.000000	65.086865 
3026.000000	65.109014 
3025.000000	65.133643 
3024.000000	65.157485 
3023.000000	65.177321 
3022.000000	65.190863 
3021.000000	65.196776 
3020.000000	65.194988 
3019.000000	65.186309 
3018.000000	65.172219 
3017.000000	65.154600 
3016.000000	65.135312 
3015.000000	65.116238 
3014.000000	65.099072 
3013.000000	65.084815 
3012.000000	65.074038 
3011.000000	65.066337 
3010.000000	65.061044 
3009.000000	65.057182 
3008.000000	65.054106 
3007.000000	65.051388 
3006.000000	65.049457 
3005.000000	65.049386 
3004.000000	65.052938 
3003.000000	65.061902 
3002.000000	65.077733 
3001.000000	65.100789 
3000.000000	65.130019 
2999.000000	65.163230 
2998.000000	65.196847 
2997.000000	65.226984 
2996.000000	65.249848 
2995.000000	65.262651 
2994.000000	65.264248 
2993.000000	65.255331 
2992.000000	65.238308 
2991.000000	65.216875 
2990.000000	65.195155 
2989.000000	65.177416 
2988.000000	65.166711 
2987.000000	65.164709 
2986.000000	65.170979 
2985.000000	65.183401 
2984.000000	65.198230 
2983.000000	65.211248 
2982.000000	65.218305 
2981.000000	65.216708 
2980.000000	65.205383 
2979.000000	65.185809 
2978.000000	65.161514 
2977.000000	65.137386 
2976.000000	65.118765 
2975.000000	65.110325 
2974.000000	65.114641 
2973.000000	65.131902 
2972.000000	65.159678 
2971.000000	65.193462 
2970.000000	65.227890 
2969.000000	65.257644 
2968.000000	65.278649 
2967.000000	65.288496 
2966.000000	65.286898 
2965.000000	65.275168 
2964.000000	65.255594 
2963.000000	65.230774 
2962.000000	65.203046 
2961.000000	65.174102 
2960.000000	65.145158 
2959.000000	65.117073 
2958.000000	65.090584 
2957.000000	65.066576 
2956.000000	65.046262 
2955.000000	65.030717 
2954.000000	65.020728 
2953.000000	65.016365 
2952.000000	65.017127 
2951.000000	65.021991 
2950.000000	65.029644 
2949.000000	65.038728 
2948.000000	65.047812 
2947.000000	65.055847 
2946.000000	65.061831 
2945.000000	65.064835 
2944.000000	65.064024 
2943.000000	65.058660 
2942.000000	65.048384 
2941.000000	65.033435 
2940.000000	65.014767 
2939.000000	64.993977 
2938.000000	64.973068 
2937.000000	64.954185 
2936.000000	64.938998 
2935.000000	64.928507 
2934.000000	64.922785 
2933.000000	64.921164 
2932.000000	64.922499 
2931.000000	64.925575 
2930.000000	64.929628 
2929.000000	64.934587 
2928.000000	64.940643 
2927.000000	64.948177 
2926.000000	64.957261 
2925.000000	64.967250 
2924.000000	64.976739 
2923.000000	64.983701 
2922.000000	64.986109 
2921.000000	64.982557 
2920.000000	64.972639 
2919.000000	64.957571 
2918.000000	64.939999 
2917.000000	64.923691 
2916.000000	64.912891 
2915.000000	64.911341 
2914.000000	64.921426 
2913.000000	64.943552 
2912.000000	64.975976 
2911.000000	65.015196 
2910.000000	65.056538 
2909.000000	65.095186 
2908.000000	65.127158 
2907.000000	65.150022 
2906.000000	65.163087 
2905.000000	65.167379 
2904.000000	65.165066 
2903.000000	65.158891 
2902.000000	65.151286 
2901.000000	65.144133 
2900.000000	65.138387 
2899.000000	65.134286 
2898.000000	65.131688 
2897.000000	65.130305 
2896.000000	65.129995 
2895.000000	65.130972 
2894.000000	65.133643 
2893.000000	65.138483 
2892.000000	65.145730 
2891.000000	65.154933 
2890.000000	65.165472 
2889.000000	65.176439 
2888.000000	65.186619 
2887.000000	65.194988 
2886.000000	65.200424 
2885.000000	65.202116 
2884.000000	65.199184 
2883.000000	65.190958 
2882.000000	65.176987 
2881.000000	65.157318 
2880.000000	65.132689 
2879.000000	65.104389 
2878.000000	65.074443 
2877.000000	65.045428 
2876.000000	65.019989 
2875.000000	65.000438 
2874.000000	64.988565 
2873.000000	64.985585 
2872.000000	64.991593 
2871.000000	65.005922 
2870.000000	65.027046 
2869.000000	65.052700 
2868.000000	65.080213 
2867.000000	65.106821 
2866.000000	65.129566 
2865.000000	65.145540 
2864.000000	65.152597 
2863.000000	65.149140 
2862.000000	65.134787 
2861.000000	65.110158 
2860.000000	65.077185 
2859.000000	65.038394 
2858.000000	64.996719 
2857.000000	64.954948 
2856.000000	64.915490 
2855.000000	64.880299 
2854.000000	64.851021 
2853.000000	64.828872 
2852.000000	64.814829 
2851.000000	64.809155 
2850.000000	64.811396 
2849.000000	64.820075 
2848.000000	64.833045 
2847.000000	64.847540 
2846.000000	64.861059 
2845.000000	64.871716 
2844.000000	64.878940 
2843.000000	64.883422 
2842.000000	64.887094 
2841.000000	64.892530 
2840.000000	64.902210 
2839.000000	64.917540 
2838.000000	64.938259 
2837.000000	64.962530 
2836.000000	64.987277 
2835.000000	65.008902 
2834.000000	65.024185 
2833.000000	65.031218 
2832.000000	65.029835 
2831.000000	65.021491 
2830.000000	65.008997 
2829.000000	64.995646 
2828.000000	64.984703 
2827.000000	64.978456 
2826.000000	64.978218 
2825.000000	64.984154 
2824.000000	64.995169 
2823.000000	65.009498 
2822.000000	65.024924 
2821.000000	65.039443 
2820.000000	65.051436 
2819.000000	65.059995 
2818.000000	65.064835 
2817.000000	65.066552 
2816.000000	65.066409 
2815.000000	65.066456 
2814.000000	65.068817 
2813.000000	65.075612 
2812.000000	65.088534 
2811.000000	65.108513 
2810.000000	65.135335 
2809.000000	65.167498 
2808.000000	65.202450 
2807.000000	65.236830 
2806.000000	65.267038 
2805.000000	65.289783 
2804.000000	65.302658 
2803.000000	65.304708 
2802.000000	65.296435 
2801.000000	65.280032 
2800.000000	65.258789 
2799.000000	65.236830 
2798.000000	65.218138 
2797.000000	65.205740 
2796.000000	65.201163 
2795.000000	65.204095 
2794.000000	65.212583 
2793.000000	65.223407 
2792.000000	65.232920 
2791.000000	65.237665 
2790.000000	65.235304 
2789.000000	65.225243 
2788.000000	65.208721 
2787.000000	65.188312 
2786.000000	65.167474 
2785.000000	65.149569 
2784.000000	65.137386 
2783.000000	65.132355 
2782.000000	65.134644 
2781.000000	65.143060 
2780.000000	65.155816 
2779.000000	65.170788 
2778.000000	65.186214 
2777.000000	65.200877 
2776.000000	65.214323 
2775.000000	65.226292 
2774.000000	65.237045 
2773.000000	65.246748 
2772.000000	65.255522 
2771.000000	65.263152 
2770.000000	65.269184 
2769.000000	65.273094 
2768.000000	65.274310 
2767.000000	65.272355 
2766.000000	65.266513 
2765.000000	65.256118 
2764.000000	65.240335 
2763.000000	65.218758 
2762.000000	65.191364 
2761.000000	65.158987 
2760.000000	65.123462 
2759.000000	65.087676 
2758.000000	65.055227 
2757.000000	65.029978 
2756.000000	65.015101 
2755.000000	65.012788 
2754.000000	65.023231 
2753.000000	65.045118 
2752.000000	65.075206 
2751.000000	65.109395 
2750.000000	65.143251 
2749.000000	65.172934 
2748.000000	65.195727 
2747.000000	65.210413 
2746.000000	65.217208 
2745.000000	65.217638 
2744.000000	65.213751 
2743.000000	65.207958 
2742.000000	65.202260 
2741.000000	65.198349 
2740.000000	65.197205 
2739.000000	65.199327 
2738.000000	65.204501 
2737.000000	65.212202 
2736.000000	65.221548 
2735.000000	65.231490 
2734.000000	65.240907 
2733.000000	65.248775 
2732.000000	65.254259 
2731.000000	65.256762 
2730.000000	65.256071 
2729.000000	65.252447 
2728.000000	65.246415 
2727.000000	65.238618 
2726.000000	65.229535 
2725.000000	65.219593 
2724.000000	65.209102 
2723.000000	65.198326 
2722.000000	65.187597 
2721.000000	65.177178 
2720.000000	65.167808 
2719.000000	65.160441 
2718.000000	65.156221 
2717.000000	65.156126 
2716.000000	65.160965 
2715.000000	65.171146 
2714.000000	65.186452 
2713.000000	65.206027 
2712.000000	65.228414 
2711.000000	65.251684 
2710.000000	65.273833 
2709.000000	65.293049 
2708.000000	65.307903 
2707.000000	65.317487 
2706.000000	65.321755 
2705.000000	65.320968 
2704.000000	65.316152 
2703.000000	65.308308 
2702.000000	65.298461 
2701.000000	65.287232 
2700.000000	65.274858 
2699.000000	65.261030 
2698.000000	65.245270 
2697.000000	65.226960 
2696.000000	65.205907 
2695.000000	65.182447 
2694.000000	65.157556 
2693.000000	65.132904 
2692.000000	65.110301 
2691.000000	65.091562 
2690.000000	65.078163 
2689.000000	65.071058 
2688.000000	65.070438 
2687.000000	65.075683 
2686.000000	65.085744 
2685.000000	65.099120 
2684.000000	65.114259 
2683.000000	65.129423 
2682.000000	65.143108 
2681.000000	65.153884 
2680.000000	65.160918 
2679.000000	65.163397 
2678.000000	65.161085 
2677.000000	65.154194 
2676.000000	65.143609 
2675.000000	65.130639 
2674.000000	65.117073 
2673.000000	65.104675 
2672.000000	65.095329 
2671.000000	65.090560 
2670.000000	65.091609 
2669.000000	65.099120 
2668.000000	65.113258 
2667.000000	65.133547 
2666.000000	65.158915 
2665.000000	65.187788 
2664.000000	65.217995 
2663.000000	65.247154 
2662.000000	65.273094 
2661.000000	65.294003 
2660.000000	65.308904 
2659.000000	65.317797 
2658.000000	65.321350 
2657.000000	65.320801 
2656.000000	65.317821 
2655.000000	65.313911 
2654.000000	65.310001 
2653.000000	65.306544 
2652.000000	65.303492 
2651.000000	65.300583 
2650.000000	65.297651 
2649.000000	65.294623 
2648.000000	65.291833 
2647.000000	65.290021 
2646.000000	65.289759 
2645.000000	65.291666 
2644.000000	65.295672 
2643.000000	65.301060 
2642.000000	65.306663 
2641.000000	65.310764 
2640.000000	65.311717 
2639.000000	65.307927 
2638.000000	65.298295 
2637.000000	65.282392 
2636.000000	65.260386 
2635.000000	65.233492 
2634.000000	65.203857 
2633.000000	65.174293 
2632.000000	65.147948 
2631.000000	65.128207 
2630.000000	65.118098 
2629.000000	65.119647 
2628.000000	65.133762 
2627.000000	65.159797 
2626.000000	65.195751 
2625.000000	65.238237 
2624.000000	65.283036 
2623.000000	65.325832 
2622.000000	65.362596 
2621.000000	65.390133 
2620.000000	65.406966 
2619.000000	65.413260 
2618.000000	65.410709 
2617.000000	65.402197 
2616.000000	65.390920 
2615.000000	65.380191 
2614.000000	65.372228 
2613.000000	65.368270 
2612.000000	65.367746 
2611.000000	65.369057 
2610.000000	65.369677 
2609.000000	65.367031 
2608.000000	65.359306 
2607.000000	65.346002 
2606.000000	65.328073 
2605.000000	65.307974 
2604.000000	65.288853 
2603.000000	65.274095 
2602.000000	65.266489 
2601.000000	65.267562 
2600.000000	65.277385 
2599.000000	65.294432 
2598.000000	65.316247 
2597.000000	65.339636 
2596.000000	65.361332 
2595.000000	65.378403 
2594.000000	65.388536 
2593.000000	65.390324 
2592.000000	65.383481 
2591.000000	65.368676 
2590.000000	65.347266 
2589.000000	65.321326 
2588.000000	65.293455 
2587.000000	65.266370 
2586.000000	65.242791 
2585.000000	65.224719 
2584.000000	65.213418 
2583.000000	65.209078 
2582.000000	65.210866 
2581.000000	65.217089 
2580.000000	65.225625 
2579.000000	65.234303 
2578.000000	65.241432 
2577.000000	65.246105 
2576.000000	65.248465 
2575.000000	65.249490 
2574.000000	65.250682 
2573.000000	65.253758 
2572.000000	65.259957 
2571.000000	65.270066 
2570.000000	65.283918 
2569.000000	65.300631 
2568.000000	65.318703 
2567.000000	65.336155 
2566.000000	65.351080 
2565.000000	65.361976 
2564.000000	65.367698 
2563.000000	65.367984 
2562.000000	65.363001 
2561.000000	65.353703 
2560.000000	65.341258 
2559.000000	65.327310 
2558.000000	65.313386 
2557.000000	65.300750 
2556.000000	65.290069 
2555.000000	65.281605 
2554.000000	65.275001 
2553.000000	65.269446 
2552.000000	65.263891 
2551.000000	65.257620 
2550.000000	65.250396 
2549.000000	65.242600 
2548.000000	65.235328 
2547.000000	65.229940 
2546.000000	65.227460 
2545.000000	65.228295 
2544.000000	65.231776 
2543.000000	65.236425 
2542.000000	65.240097 
2541.000000	65.240788 
2540.000000	65.237092 
2539.000000	65.228772 
2538.000000	65.216946 
2537.000000	65.203857 
2536.000000	65.192222 
2535.000000	65.184712 
2534.000000	65.183353 
2533.000000	65.189003 
2532.000000	65.200877 
2531.000000	65.216851 
2530.000000	65.234112 
2529.000000	65.249562 
2528.000000	65.260457 
2527.000000	65.265512 
2526.000000	65.264916 
2525.000000	65.260577 
2524.000000	65.255475 
2523.000000	65.253448 
2522.000000	65.258073 
2521.000000	65.272116 
2520.000000	65.296769 
2519.000000	65.331172 
2518.000000	65.372562 
2517.000000	65.416836 
2516.000000	65.459179 
2515.000000	65.494751 
2514.000000	65.519571 
2513.000000	65.531396 
2512.000000	65.529775 
2511.000000	65.516161 
2510.000000	65.493083 
2509.000000	65.463972 
2508.000000	65.431737 
2507.000000	65.398716 
2506.000000	65.365576 
2505.000000	65.332126 
2504.000000	65.297198 
2503.000000	65.259671 
2502.000000	65.218734 
2501.000000	65.174627 
2500.000000	65.128636 
2499.000000	65.083265 
2498.000000	65.041470 
2497.000000	65.006184 
2496.000000	64.980101 
2495.000000	64.965343 
2494.000000	64.963197 
2493.000000	64.974188 
2492.000000	64.998197 
2491.000000	65.034413 
2490.000000	65.081381 
2489.000000	65.136766 
2488.000000	65.197205 
2487.000000	65.258502 
2486.000000	65.315771 
2485.000000	65.364241 
2484.000000	65.400052 
2483.000000	65.420794 
2482.000000	65.426445 
2481.000000	65.418410 
2480.000000	65.399551 
2479.000000	65.373015 
2478.000000	65.342307 
2477.000000	65.309715 
2476.000000	65.276646 
2475.000000	65.243482 
2474.000000	65.210485 
2473.000000	65.177798 
2472.000000	65.145993 
2471.000000	65.116214 
2470.000000	65.090250 
2469.000000	65.069937 
2468.000000	65.056824 
2467.000000	65.051817 
2466.000000	65.054845 
2465.000000	65.064620 
2464.000000	65.078926 
2463.000000	65.095114 
2462.000000	65.110516 
2461.000000	65.122652 
2460.000000	65.129899 
2459.000000	65.131521 
2458.000000	65.128302 
2457.000000	65.121746 
2456.000000	65.114569 
2455.000000	65.109872 
2454.000000	65.110898 
2453.000000	65.120315 
2452.000000	65.139603 
2451.000000	65.168476 
2450.000000	65.204882 
2449.000000	65.245628 
2448.000000	65.286087 
2447.000000	65.321230 
2446.000000	65.346479 
2445.000000	65.358734 
2444.000000	65.356659 
2443.000000	65.341210 
2442.000000	65.315604 
2441.000000	65.284872 
2440.000000	65.254974 
2439.000000	65.232157 
2438.000000	65.221452 
2437.000000	65.226340 
2436.000000	65.248155 
2435.000000	65.286636 
2434.000000	65.339899 
2433.000000	65.405297 
2432.000000	65.479779 
2431.000000	65.560126 
2430.000000	65.643191 
2429.000000	65.724968 
2428.000000	65.801310 
2427.000000	65.866255 
2426.000000	65.913391 
2425.000000	65.935277 
2424.000000	65.925979 
2423.000000	65.881109 
2422.000000	65.799927 
2421.000000	65.685677 
2420.000000	65.546059 
2419.000000	65.392041 
2418.000000	65.236783 
2417.000000	65.093398 
2416.000000	64.973163 
2415.000000	64.884281 
2414.000000	64.831042 
2413.000000	64.813423 
2412.000000	64.827656 
2411.000000	64.867258 
2410.000000	64.924716 
2409.000000	64.991378 
2408.000000	65.060210 
2407.000000	65.124988 
2406.000000	65.182161 
2405.000000	65.229511 
2404.000000	65.266942 
2403.000000	65.295600 
2402.000000	65.317249 
2401.000000	65.334081 
2400.000000	65.347409 
2399.000000	65.358185 
2398.000000	65.365886 
2397.000000	65.369653 
2396.000000	65.368127 
2395.000000	65.360522 
2394.000000	65.346741 
2393.000000	65.328049 
2392.000000	65.306663 
2391.000000	65.285325 
2390.000000	65.266919 
2389.000000	65.253877 
2388.000000	65.247344 
2387.000000	65.246963 
2386.000000	65.251398 
2385.000000	65.258574 
2384.000000	65.265727 
2383.000000	65.270185 
2382.000000	65.270066 
2381.000000	65.264558 
2380.000000	65.254092 
2379.000000	65.240430 
2378.000000	65.225958 
2377.000000	65.213394 
2376.000000	65.205597 
2375.000000	65.204668 
2374.000000	65.211510 
2373.000000	65.225577 
2372.000000	65.245079 
2371.000000	65.267133 
2370.000000	65.288329 
2369.000000	65.305495 
2368.000000	65.316462 
2367.000000	65.320396 
2366.000000	65.317916 
2365.000000	65.310621 
2364.000000	65.300488 
2363.000000	65.289378 
2362.000000	65.278482 
2361.000000	65.267992 
2360.000000	65.257191 
2359.000000	65.245151 
2358.000000	65.231060 
2357.000000	65.214681 
2356.000000	65.196633 
2355.000000	65.178155 
2354.000000	65.161132 
2353.000000	65.147256 
2352.000000	65.137648 
2351.000000	65.132379 
2350.000000	65.130686 
2349.000000	65.131139 
2348.000000	65.132164 
2347.000000	65.132188 
2346.000000	65.130448 
2345.000000	65.126776 
2344.000000	65.121889 
2343.000000	65.116882 
2342.000000	65.113139 
2341.000000	65.111923 
2340.000000	65.114212 
2339.000000	65.120482 
2338.000000	65.130829 
2337.000000	65.144777 
2336.000000	65.161609 
2335.000000	65.180373 
2334.000000	65.200018 
2333.000000	65.219402 
2332.000000	65.237712 
2331.000000	65.254092 
2330.000000	65.267920 
2329.000000	65.278458 
2328.000000	65.285420 
2327.000000	65.288352 
2326.000000	65.286827 
2325.000000	65.280270 
2324.000000	65.268468 
2323.000000	65.251135 
2322.000000	65.228486 
2321.000000	65.201234 
2320.000000	65.170645 
2319.000000	65.138840 
2318.000000	65.108275 
2317.000000	65.081858 
2316.000000	65.062165 
2315.000000	65.051507 
2314.000000	65.051293 
2313.000000	65.061902 
2312.000000	65.082383 
2311.000000	65.110826 
2310.000000	65.144610 
2309.000000	65.180587 
2308.000000	65.215682 
2307.000000	65.247392 
2306.000000	65.273976 
2305.000000	65.294551 
2304.000000	65.309071 
2303.000000	65.318417 
2302.000000	65.323805 
2301.000000	65.326666 
2300.000000	65.327906 
2299.000000	65.328264 
2298.000000	65.327739 
2297.000000	65.325951 
2296.000000	65.322327 
2295.000000	65.316343 
2294.000000	65.307879 
2293.000000	65.297293 
2292.000000	65.285563 
2291.000000	65.273857 
2290.000000	65.263390 
2289.000000	65.255188 
2288.000000	65.249776 
2287.000000	65.247106 
2286.000000	65.246653 
2285.000000	65.247774 
2284.000000	65.249633 
2283.000000	65.251564 
2282.000000	65.253138 
2281.000000	65.254116 
2280.000000	65.254473 
2279.000000	65.254211 
2278.000000	65.252995 
2277.000000	65.250492 
2276.000000	65.246438 
2275.000000	65.240907 
2274.000000	65.234136 
2273.000000	65.226745 
2272.000000	65.219783 
2271.000000	65.214395 
2270.000000	65.211582 
2269.000000	65.211820 
2268.000000	65.215086 
2267.000000	65.220713 
2266.000000	65.227532 
2265.000000	65.234375 
2264.000000	65.240192 
2263.000000	65.244460 
2262.000000	65.247368 
2261.000000	65.249729 
2260.000000	65.252661 
2259.000000	65.257310 
2258.000000	65.264368 
2257.000000	65.274095 
2256.000000	65.285921 
2255.000000	65.298700 
2254.000000	65.310907 
2253.000000	65.320825 
2252.000000	65.326905 
2251.000000	65.328168 
2250.000000	65.324115 
2249.000000	65.314841 
2248.000000	65.301012 
2247.000000	65.283703 
2246.000000	65.264272 
2245.000000	65.244197 
2244.000000	65.224790 
2243.000000	65.207362 
2242.000000	65.192770 
2241.000000	65.181612 
2240.000000	65.174055 
2239.000000	65.170001 
2238.000000	65.169095 
2237.000000	65.171074 
2236.000000	65.175795 
2235.000000	65.182948 
2234.000000	65.192198 
2233.000000	65.203022 
2232.000000	65.214323 
2231.000000	65.224671 
2230.000000	65.232348 
2229.000000	65.235781 
2228.000000	65.233898 
2227.000000	65.226602 
2226.000000	65.214800 
2225.000000	65.200376 
2224.000000	65.186142 
2223.000000	65.175127 
2222.000000	65.169882 
2221.000000	65.171909 
2220.000000	65.181469 
2219.000000	65.197372 
2218.000000	65.217280 
2217.000000	65.237975 
2216.000000	65.256309 
2215.000000	65.269374 
2214.000000	65.275192 
2213.000000	65.272641 
2212.000000	65.261793 
2211.000000	65.243697 
2210.000000	65.220141 
2209.000000	65.193390 
2208.000000	65.166115 
2207.000000	65.140604 
2206.000000	65.118718 
2205.000000	65.101671 
2204.000000	65.090107 
2203.000000	65.084123 
2202.000000	65.083408 
2201.000000	65.087556 
2200.000000	65.096044 
2199.000000	65.108680 
2198.000000	65.125370 
2197.000000	65.146017 
2196.000000	65.170264 
2195.000000	65.197396 
2194.000000	65.226125 
2193.000000	65.254640 
2192.000000	65.280580 
2191.000000	65.301704 
2190.000000	65.316128 
2189.000000	65.322732 
2188.000000	65.321350 
2187.000000	65.313029 
2186.000000	65.299820 
2185.000000	65.284419 
2184.000000	65.269947 
2183.000000	65.259552 
2182.000000	65.255856 
2181.000000	65.260744 
2180.000000	65.274810 
2179.000000	65.297269 
2178.000000	65.326023 
2177.000000	65.358161 
2176.000000	65.390086 
2175.000000	65.418243 
2174.000000	65.439724 
2173.000000	65.452671 
2172.000000	65.456366 
2171.000000	65.451359 
2170.000000	65.439319 
2169.000000	65.422487 
2168.000000	65.403127 
2167.000000	65.383076 
2166.000000	65.363764 
2165.000000	65.345644 
2164.000000	65.328574 
2163.000000	65.311598 
2162.000000	65.293836 
2161.000000	65.274405 
2160.000000	65.252852 
2159.000000	65.229511 
2158.000000	65.205049 
2157.000000	65.181088 
2156.000000	65.159606 
2155.000000	65.142774 
2154.000000	65.132403 
2153.000000	65.129685 
2152.000000	65.134739 
2151.000000	65.146493 
2150.000000	65.162754 
2149.000000	65.180706 
2148.000000	65.197324 
2147.000000	65.210080 
2146.000000	65.217447 
2145.000000	65.219616 
2144.000000	65.218424 
2143.000000	65.216898 
2142.000000	65.218639 
2141.000000	65.226984 
2140.000000	65.244412 
2139.000000	65.271830 
2138.000000	65.308117 
2137.000000	65.350532 
2136.000000	65.395140 
2135.000000	65.437722 
2134.000000	65.474343 
2133.000000	65.501880 
2132.000000	65.518450 
2131.000000	65.523600 
2130.000000	65.518116 
2129.000000	65.503692 
2128.000000	65.482664 
2127.000000	65.457653 
2126.000000	65.431380 
2125.000000	65.406274 
2124.000000	65.384411 
2123.000000	65.367412 
2122.000000	65.356040 
2121.000000	65.350008 
2120.000000	65.348172 
2119.000000	65.348625 
2118.000000	65.348935 
2117.000000	65.346884 
2116.000000	65.340590 
2115.000000	65.329194 
2114.000000	65.313100 
2113.000000	65.294194 
2112.000000	65.275239 
2111.000000	65.259265 
2110.000000	65.249204 
2109.000000	65.246796 
2108.000000	65.252614 
2107.000000	65.265417 
2106.000000	65.282821 
2105.000000	65.301203 
2104.000000	65.316581 
2103.000000	65.325236 
2102.000000	65.324807 
2101.000000	65.314340 
2100.000000	65.294528 
2099.000000	65.267729 
2098.000000	65.237998 
2097.000000	65.210056 
2096.000000	65.188431 
2095.000000	65.176510 
2094.000000	65.176057 
2093.000000	65.186500 
2092.000000	65.205311 
2091.000000	65.228080 
2090.000000	65.249991 
2089.000000	65.266466 
2088.000000	65.274763 
2087.000000	65.274238 
2086.000000	65.266823 
2085.000000	65.256476 
2084.000000	65.248203 
2083.000000	65.246820 
2082.000000	65.255260 
2081.000000	65.274429 
2080.000000	65.301918 
2079.000000	65.333151 
2078.000000	65.361452 
2077.000000	65.380454 
2076.000000	65.384435 
2075.000000	65.369868 
2074.000000	65.335822 
2073.000000	65.284156 
2072.000000	65.219092 
2071.000000	65.146183 
2070.000000	65.071630 
2069.000000	65.001058 
2068.000000	64.939212 
2067.000000	64.889502 
2066.000000	64.854097 
2065.000000	64.833998 
2064.000000	64.828991 
2063.000000	64.837932 
2062.000000	64.858746 
2061.000000	64.888834 
2060.000000	64.924764 
2059.000000	64.962840 
2058.000000	64.999055 
2057.000000	65.029931 
2056.000000	65.052580 
2055.000000	65.065693 
2054.000000	65.069222 
2053.000000	65.064835 
2052.000000	65.055537 
2051.000000	65.045070 
2050.000000	65.037488 
2049.000000	65.035820 
2048.000000	65.042090 
2047.000000	65.056300 
2046.000000	65.076780 
2045.000000	65.100502 
2044.000000	65.123867 
2043.000000	65.143656 
2042.000000	65.157723 
2041.000000	65.165615 
2040.000000	65.168452 
2039.000000	65.168976 
2038.000000	65.170669 
2037.000000	65.176820 
2036.000000	65.189647 
2035.000000	65.209960 
2034.000000	65.237092 
2033.000000	65.268898 
2032.000000	65.302419 
2031.000000	65.334558 
2030.000000	65.362739 
2029.000000	65.385413 
2028.000000	65.401864 
2027.000000	65.412235 
2026.000000	65.416717 
2025.000000	65.415692 
2024.000000	65.409064 
2023.000000	65.396618 
2022.000000	65.377974 
2021.000000	65.353298 
2020.000000	65.323400 
2019.000000	65.290212 
2018.000000	65.256333 
2017.000000	65.224838 
2016.000000	65.198588 
2015.000000	65.179610 
2014.000000	65.168976 
2013.000000	65.166735 
2012.000000	65.171957 
2011.000000	65.183115 
2010.000000	65.198564 
2009.000000	65.216970 
2008.000000	65.237164 
2007.000000	65.258121 
2006.000000	65.278649 
2005.000000	65.297389 
2004.000000	65.312504 
2003.000000	65.322399 
2002.000000	65.325760 
2001.000000	65.322208 
2000.000000	65.312528 
1999.000000	65.298223 
1998.000000	65.281891 
1997.000000	65.265917 
1996.000000	65.252184 
1995.000000	65.241694 
1994.000000	65.234422 
1993.000000	65.229463 
1992.000000	65.225458 
1991.000000	65.221071 
1990.000000	65.215277 
1989.000000	65.207624 
1988.000000	65.198373 
1987.000000	65.188074 
1986.000000	65.177321 
1985.000000	65.166711 
1984.000000	65.156698 
1983.000000	65.147686 
1982.000000	65.140175 
1981.000000	65.134978 
1980.000000	65.133070 
1979.000000	65.135669 
1978.000000	65.143847 
1977.000000	65.157961 
1976.000000	65.177345 
1975.000000	65.200114 
1974.000000	65.223360 
1973.000000	65.243577 
1972.000000	65.257310 
1971.000000	65.262079 
1970.000000	65.256834 
1969.000000	65.242314 
1968.000000	65.220808 
1967.000000	65.195345 
1966.000000	65.169453 
1965.000000	65.146350 
1964.000000	65.128564 
1963.000000	65.117597 
1962.000000	65.114164 
1961.000000	65.118265 
1960.000000	65.129232 
1959.000000	65.145659 
1958.000000	65.165543 
1957.000000	65.186476 
1956.000000	65.205669 
1955.000000	65.220546 
1954.000000	65.228962 
1953.000000	65.229868 
1952.000000	65.223360 
1951.000000	65.210866 
1950.000000	65.194892 
1949.000000	65.178489 
1948.000000	65.164661 
1947.000000	65.155673 
1946.000000	65.152549 
1945.000000	65.155196 
1944.000000	65.162301 
1943.000000	65.172147 
1942.000000	65.182733 
1941.000000	65.192699 
1940.000000	65.201354 
1939.000000	65.209102 
1938.000000	65.216684 
1937.000000	65.225315 
1936.000000	65.236115 
1935.000000	65.249633 
1934.000000	65.265679 
1933.000000	65.283107 
1932.000000	65.299987 
1931.000000	65.314126 
1930.000000	65.323495 
1929.000000	65.326905 
1928.000000	65.324282 
1927.000000	65.316867 
1926.000000	65.306854 
1925.000000	65.296864 
1924.000000	65.289449 
1923.000000	65.286588 
1922.000000	65.289163 
1921.000000	65.296936 
1920.000000	65.308642 
1919.000000	65.322566 
1918.000000	65.336632 
1917.000000	65.349125 
1916.000000	65.358352 
1915.000000	65.363264 
1914.000000	65.363025 
1913.000000	65.356922 
1912.000000	65.344476 
1911.000000	65.325498 
1910.000000	65.300369 
1909.000000	65.270328 
1908.000000	65.237331 
1907.000000	65.204167 
1906.000000	65.173697 
1905.000000	65.148711 
1904.000000	65.130996 
1903.000000	65.121054 
1902.000000	65.118503 
1901.000000	65.122151 
1900.000000	65.130543 
1899.000000	65.142250 
1898.000000	65.156316 
1897.000000	65.172338 
1896.000000	65.190100 
1895.000000	65.209388 
1894.000000	65.229439 
1893.000000	65.249085 
1892.000000	65.266680 
1891.000000	65.280485 
1890.000000	65.289235 
1889.000000	65.292310 
1888.000000	65.290451 
1887.000000	65.285205 
1886.000000	65.278983 
1885.000000	65.274024 
1884.000000	65.272021 
1883.000000	65.273404 
1882.000000	65.277290 
1881.000000	65.281534 
1880.000000	65.283489 
1879.000000	65.280556 
1878.000000	65.270757 
1877.000000	65.253496 
1876.000000	65.229725 
1875.000000	65.201854 
1874.000000	65.173172 
1873.000000	65.147256 
1872.000000	65.127182 
1871.000000	65.114879 
1870.000000	65.110826 
1869.000000	65.114116 
1868.000000	65.122699 
1867.000000	65.134024 
1866.000000	65.145730 
1865.000000	65.155887 
1864.000000	65.163254 
1863.000000	65.167331 
1862.000000	65.168499 
1861.000000	65.167164 
1860.000000	65.164327 
1859.000000	65.160894 
1858.000000	65.158081 
1857.000000	65.157103 
1856.000000	65.159392 
1855.000000	65.166306 
1854.000000	65.178894 
1853.000000	65.197706 
1852.000000	65.222096 
1851.000000	65.250372 
1850.000000	65.279841 
1849.000000	65.307188 
1848.000000	65.329194 
1847.000000	65.343308 
1846.000000	65.348362 
1845.000000	65.344786 
1844.000000	65.334343 
1843.000000	65.319895 
1842.000000	65.304780 
1841.000000	65.291905 
1840.000000	65.283131 
1839.000000	65.278983 
1838.000000	65.278911 
1837.000000	65.281510 
1836.000000	65.285253 
1835.000000	65.288519 
1834.000000	65.290355 
1833.000000	65.290212 
1832.000000	65.288066 
1831.000000	65.284037 
1830.000000	65.278029 
1829.000000	65.270113 
1828.000000	65.260434 
1827.000000	65.249562 
1826.000000	65.238404 
1825.000000	65.228343 
1824.000000	65.221047 
1823.000000	65.218043 
1822.000000	65.220165 
1821.000000	65.227317 
1820.000000	65.238475 
1819.000000	65.251660 
1818.000000	65.264678 
1817.000000	65.275740 
1816.000000	65.284037 
1815.000000	65.289950 
1814.000000	65.294909 
1813.000000	65.300893 
1812.000000	65.309524 
1811.000000	65.321755 
1810.000000	65.337014 
1809.000000	65.353322 
1808.000000	65.367603 
1807.000000	65.376615 
1806.000000	65.377545 
1805.000000	65.368771 
1804.000000	65.350198 
1803.000000	65.323305 
1802.000000	65.290927 
1801.000000	65.256476 
1800.000000	65.223431 
1799.000000	65.194559 
1798.000000	65.171813 
1797.000000	65.156102 
1796.000000	65.147638 
1795.000000	65.145778 
1794.000000	65.149712 
1793.000000	65.158534 
1792.000000	65.171027 
1791.000000	65.186095 
1790.000000	65.202474 
1789.000000	65.218997 
1788.000000	65.234351 
1787.000000	65.247321 
1786.000000	65.256977 
1785.000000	65.262675 
1784.000000	65.264129 
1783.000000	65.261363 
1782.000000	65.254974 
1781.000000	65.245771 
1780.000000	65.234851 
1779.000000	65.223312 
1778.000000	65.212106 
1777.000000	65.201997 
1776.000000	65.193557 
1775.000000	65.187048 
1774.000000	65.182662 
1773.000000	65.180230 
1772.000000	65.179276 
1771.000000	65.178894 
1770.000000	65.177607 
1769.000000	65.173721 
1768.000000	65.165638 
1767.000000	65.152239 
1766.000000	65.133404 
1765.000000	65.110230 
1764.000000	65.085148 
1763.000000	65.061378 
1762.000000	65.042257 
1761.000000	65.030527 
1760.000000	65.027618 
1759.000000	65.033340 
1758.000000	65.045714 
1757.000000	65.061593 
1756.000000	65.077352 
1755.000000	65.089797 
1754.000000	65.096831 
1753.000000	65.097832 
1752.000000	65.093493 
1751.000000	65.085673 
1750.000000	65.076565 
1749.000000	65.067863 
1748.000000	65.060496 
1747.000000	65.054273 
1746.000000	65.048170 
1745.000000	65.041065 
1744.000000	65.032005 
1743.000000	65.020585 
1742.000000	65.007519 
1741.000000	64.994502 
1740.000000	64.983892 
1739.000000	64.978075 
1738.000000	64.978909 
1737.000000	64.987134 
1736.000000	65.001964 
1735.000000	65.021014 
1734.000000	65.040969 
1733.000000	65.058183 
1732.000000	65.069174 
1731.000000	65.071463 
1730.000000	65.064144 
1729.000000	65.047621 
1728.000000	65.023374 
1727.000000	64.993619 
1726.000000	64.960765 
1725.000000	64.927434 
1724.000000	64.896130 
1723.000000	64.869332 
1722.000000	64.849233 
1721.000000	64.837694 
1720.000000	64.836263 
1719.000000	64.845418 
1718.000000	64.864587 
1717.000000	64.891958 
1716.000000	64.924526 
1715.000000	64.958667 
1714.000000	64.990878 
1713.000000	65.018558 
1712.000000	65.040469 
1711.000000	65.057206 
1710.000000	65.070652 
1709.000000	65.083479 
1708.000000	65.098094 
1707.000000	65.115976 
1706.000000	65.137147 
1705.000000	65.160346 
1704.000000	65.183115 
1703.000000	65.202784 
1702.000000	65.217018 
1701.000000	65.224575 
1700.000000	65.225076 
1699.000000	65.219283 
1698.000000	65.208506 
1697.000000	65.194153 
1696.000000	65.177488 
1695.000000	65.159416 
1694.000000	65.140700 
1693.000000	65.122127 
1692.000000	65.104889 
1691.000000	65.090489 
1690.000000	65.080952 
1689.000000	65.078377 
1688.000000	65.084385 
1687.000000	65.099596 
1686.000000	65.123343 
1685.000000	65.153670 
1684.000000	65.187406 
1683.000000	65.220761 
1682.000000	65.250086 
1681.000000	65.272521 
1680.000000	65.286135 
1679.000000	65.290451 
1678.000000	65.286278 
1677.000000	65.275621 
1676.000000	65.261006 
1675.000000	65.245223 
1674.000000	65.231108 
1673.000000	65.220832 
1672.000000	65.216159 
1671.000000	65.217471 
1670.000000	65.224361 
1669.000000	65.235018 
1668.000000	65.246868 
1667.000000	65.256881 
1666.000000	65.262031 
1665.000000	65.260314 
1664.000000	65.250921 
1663.000000	65.234684 
1662.000000	65.213823 
1661.000000	65.191531 
1660.000000	65.171480 
1659.000000	65.156936 
1658.000000	65.149950 
1657.000000	65.150976 
1656.000000	65.158891 
1655.000000	65.171337 
1654.000000	65.185046 
1653.000000	65.196776 
1652.000000	65.203833 
1651.000000	65.204524 
1650.000000	65.198588 
1649.000000	65.186595 
1648.000000	65.170192 
1647.000000	65.151667 
1646.000000	65.133452 
1645.000000	65.117669 
1644.000000	65.105915 
1643.000000	65.098881 
1642.000000	65.096640 
1641.000000	65.098500 
1640.000000	65.103340 
1639.000000	65.109992 
1638.000000	65.117478 
1637.000000	65.125155 
1636.000000	65.132904 
1635.000000	65.140771 
1634.000000	65.148997 
1633.000000	65.157723 
1632.000000	65.166711 
1631.000000	65.175366 
1630.000000	65.182828 
1629.000000	65.188217 
1628.000000	65.190744 
1627.000000	65.190052 
1626.000000	65.186262 
1625.000000	65.179586 
1624.000000	65.170621 
1623.000000	65.159463 
1622.000000	65.145993 
1621.000000	65.129780 
1620.000000	65.110516 
1619.000000	65.088391 
1618.000000	65.064239 
1617.000000	65.039849 
1616.000000	65.017414 
1615.000000	64.999675 
1614.000000	64.988923 
1613.000000	64.986944 
1612.000000	64.994359 
1611.000000	65.010762 
1610.000000	65.034556 
1609.000000	65.063333 
1608.000000	65.094065 
1607.000000	65.123653 
1606.000000	65.149426 
1605.000000	65.169334 
1604.000000	65.182185 
1603.000000	65.187692 
1602.000000	65.185999 
1601.000000	65.177559 
1600.000000	65.162849 
1599.000000	65.142321 
1598.000000	65.116572 
1597.000000	65.086841 
1596.000000	65.054893 
1595.000000	65.023255 
1594.000000	64.995002 
1593.000000	64.973330 
1592.000000	64.961004 
1591.000000	64.959645 
1590.000000	64.969468 
1589.000000	64.988636 
1588.000000	65.014362 
1587.000000	65.042757 
1586.000000	65.070152 
1585.000000	65.093469 
1584.000000	65.110898 
1583.000000	65.122270 
1582.000000	65.128540 
1581.000000	65.131330 
1580.000000	65.132498 
1579.000000	65.133357 
1578.000000	65.134644 
1577.000000	65.136289 
1576.000000	65.137743 
1575.000000	65.138030 
1574.000000	65.136289 
1573.000000	65.131640 
1572.000000	65.123510 
1571.000000	65.111637 
1570.000000	65.096139 
1569.000000	65.077686 
1568.000000	65.057349 
1567.000000	65.036797 
1566.000000	65.017747 
1565.000000	65.002393 
1564.000000	64.992642 
1563.000000	64.990162 
1562.000000	64.995861 
1561.000000	65.009927 
1560.000000	65.031218 
1559.000000	65.057659 
1558.000000	65.086317 
1557.000000	65.113902 
1556.000000	65.137028 
1555.000000	65.153264 
1554.000000	65.161180 
1553.000000	65.160822 
1552.000000	65.153431 
1551.000000	65.141105 
1550.000000	65.126109 
1549.000000	65.110683 
1548.000000	65.096163 
1547.000000	65.082907 
1546.000000	65.070128 
1545.000000	65.056729 
1544.000000	65.041685 
1543.000000	65.024662 
1542.000000	65.006327 
1541.000000	64.988446 
1540.000000	64.973354 
1539.000000	64.963006 
1538.000000	64.958786 
1537.000000	64.960622 
1536.000000	64.967179 
1535.000000	64.975953 
1534.000000	64.984035 
1533.000000	64.988756 
1532.000000	64.988088 
1531.000000	64.981102 
1530.000000	64.967894 
1529.000000	64.949393 
1528.000000	64.927482 
1527.000000	64.904665 
1526.000000	64.883685 
1525.000000	64.867138 
1524.000000	64.857435 
1523.000000	64.856266 
1522.000000	64.864468 
1521.000000	64.881610 
1520.000000	64.905977 
1519.000000	64.934754 
1518.000000	64.964342 
1517.000000	64.991116 
1516.000000	65.012073 
1515.000000	65.025591 
1514.000000	65.031719 
1513.000000	65.032100 
1512.000000	65.029335 
1511.000000	65.026307 
1510.000000	65.025806 
1509.000000	65.029406 
1508.000000	65.037608 
1507.000000	65.049338 
1506.000000	65.062952 
1505.000000	65.076017 
1504.000000	65.086007 
1503.000000	65.090680 
1502.000000	65.088582 
1501.000000	65.079474 
1500.000000	65.064287 
1499.000000	65.045189 
1498.000000	65.025043 
1497.000000	65.006947 
1496.000000	64.993596 
1495.000000	64.986729 
1494.000000	64.987015 
1493.000000	64.993667 
1492.000000	65.005040 
1491.000000	65.018558 
1490.000000	65.031719 
1489.000000	65.042901 
1488.000000	65.051555 
1487.000000	65.057873 
1486.000000	65.062928 
1485.000000	65.068221 
1484.000000	65.075206 
1483.000000	65.084457 
1482.000000	65.095639 
1481.000000	65.107774 
1480.000000	65.119242 
1479.000000	65.128636 
1478.000000	65.134668 
1477.000000	65.136671 
1476.000000	65.134644 
1475.000000	65.129065 
1474.000000	65.121054 
1473.000000	65.112042 
1472.000000	65.103626 
1471.000000	65.097355 
1470.000000	65.094494 
1469.000000	65.095472 
1468.000000	65.100169 
1467.000000	65.107369 
1466.000000	65.114808 
1465.000000	65.119075 
1464.000000	65.116500 
1463.000000	65.103387 
1462.000000	65.076375 
1461.000000	65.033912 
1460.000000	64.976406 
1459.000000	64.907002 
1458.000000	64.831233 
1457.000000	64.756560 
1456.000000	64.691019 
1455.000000	64.641785 
1454.000000	64.613556 
1453.000000	64.607644 
1452.000000	64.621424 
1451.000000	64.649486 
1450.000000	64.684486 
1449.000000	64.719390 
1448.000000	64.748573 
1447.000000	64.769434 
1446.000000	64.782547 
1445.000000	64.791131 
1444.000000	64.799666 
1443.000000	64.812541 
1442.000000	64.832592 
1441.000000	64.860343 
1440.000000	64.893865 
1439.000000	64.929389 
1438.000000	64.962315 
1437.000000	64.988923 
1436.000000	65.007019 
1435.000000	65.016508 
1434.000000	65.019536 
1433.000000	65.019488 
1432.000000	65.020322 
1431.000000	65.025210 
1430.000000	65.035867 
1429.000000	65.052628 
1428.000000	65.073871 
1427.000000	65.096879 
1426.000000	65.118217 
1425.000000	65.135240 
1424.000000	65.145874 
1423.000000	65.149164 
1422.000000	65.145254 
1421.000000	65.135240 
1420.000000	65.120720 
1419.000000	65.103554 
1418.000000	65.085339 
1417.000000	65.067124 
1416.000000	65.049600 
1415.000000	65.033173 
1414.000000	65.018010 
1413.000000	65.004134 
1412.000000	64.991974 
1411.000000	64.982485 
1410.000000	64.976668 
1409.000000	64.975786 
1408.000000	64.980792 
1407.000000	64.992070 
1406.000000	65.009045 
1405.000000	65.030264 
1404.000000	65.053749 
1403.000000	65.077137 
1402.000000	65.098142 
1401.000000	65.114903 
1400.000000	65.126204 
1399.000000	65.131449 
1398.000000	65.130877 
1397.000000	65.124988 
1396.000000	65.114426 
1395.000000	65.099930 
1394.000000	65.082097 
1393.000000	65.061545 
1392.000000	65.039038 
1391.000000	65.015530 
1390.000000	64.992117 
1389.000000	64.969801 
1388.000000	64.949131 
1387.000000	64.930391 
1386.000000	64.913558 
1385.000000	64.898180 
1384.000000	64.883756 
1383.000000	64.870023 
1382.000000	64.857029 
1381.000000	64.844965 
1380.000000	64.834117 
1379.000000	64.824557 
1378.000000	64.816594 
1377.000000	64.809894 
1376.000000	64.804363 
1375.000000	64.799761 
1374.000000	64.796161 
1373.000000	64.794039 
1372.000000	64.794206 
1371.000000	64.797329 
1370.000000	64.803743 
1369.000000	64.813327 
1368.000000	64.825367 
1367.000000	64.838361 
1366.000000	64.850759 
1365.000000	64.861464 
1364.000000	64.870119 
1363.000000	64.877319 
1362.000000	64.884328 
1361.000000	64.892792 
1360.000000	64.904260 
1359.000000	64.919757 
1358.000000	64.939379 
1357.000000	64.962291 
1356.000000	64.987277 
1355.000000	65.012812 
1354.000000	65.037775 
1353.000000	65.061187 
1352.000000	65.082788 
1351.000000	65.102458 
1350.000000	65.119886 
1349.000000	65.134406 
1348.000000	65.145111 
1347.000000	65.150594 
1346.000000	65.149688 
1345.000000	65.141248 
1344.000000	65.125417 
1343.000000	65.102529 
1342.000000	65.073513 
1341.000000	65.039467 
1340.000000	65.001845 
1339.000000	64.962172 
1338.000000	64.922332 
1337.000000	64.884805 
1336.000000	64.852428 
1335.000000	64.828419 
1334.000000	64.815855 
1333.000000	64.816975 
1332.000000	64.832472 
1331.000000	64.861130 
1330.000000	64.899539 
1329.000000	64.942598 
1328.000000	64.984297 
1327.000000	65.018725 
1326.000000	65.041327 
1325.000000	65.049481 
1324.000000	65.043115 
1323.000000	65.024566 
1322.000000	64.997959 
1321.000000	64.968132 
1320.000000	64.939975 
1319.000000	64.917874 
1318.000000	64.904570 
1317.000000	64.901447 
1316.000000	64.907979 
1315.000000	64.922118 
1314.000000	64.940524 
1313.000000	64.959478 
1312.000000	64.975285 
1311.000000	64.985108 
1310.000000	64.987540 
1309.000000	64.982962 
1308.000000	64.973306 
1307.000000	64.961457 
1306.000000	64.950990 
1305.000000	64.944982 
1304.000000	64.945435 
1303.000000	64.952635 
1302.000000	64.965319 
1301.000000	64.980792 
1300.000000	64.995884 
1299.000000	65.007591 
1298.000000	65.013813 
1297.000000	65.013909 
1296.000000	65.008544 
1295.000000	64.999818 
1294.000000	64.990186 
1293.000000	64.981961 
1292.000000	64.976954 
1291.000000	64.975810 
1290.000000	64.978194 
1289.000000	64.982891 
1288.000000	64.988279 
1287.000000	64.992880 
1286.000000	64.995741 
1285.000000	64.996838 
1284.000000	64.997005 
1283.000000	64.997720 
1282.000000	65.000438 
1281.000000	65.006279 
1280.000000	65.015411 
1279.000000	65.026926 
1278.000000	65.038919 
1277.000000	65.048789 
1276.000000	65.053963 
1275.000000	65.052676 
1274.000000	65.044260 
1273.000000	65.029430 
1272.000000	65.010237 
1271.000000	64.989686 
1270.000000	64.970922 
1269.000000	64.956665 
1268.000000	64.948558 
1267.000000	64.946866 
1266.000000	64.950275 
1265.000000	64.956545 
1264.000000	64.962625 
1263.000000	64.965629 
1262.000000	64.963078 
1261.000000	64.953684 
1260.000000	64.937353 
1259.000000	64.915132 
1258.000000	64.889073 
1257.000000	64.861822 
1256.000000	64.836096 
1255.000000	64.814448 
1254.000000	64.798879 
1253.000000	64.790749 
1252.000000	64.790534 
1251.000000	64.798188 
1250.000000	64.812922 
1249.000000	64.833641 
1248.000000	64.858841 
1247.000000	64.886784 
1246.000000	64.915728 
1245.000000	64.943861 
1244.000000	64.969491 
1243.000000	64.990973 
1242.000000	65.006804 
1241.000000	65.015697 
1240.000000	65.017080 
1239.000000	65.010762 
1238.000000	64.997243 
1237.000000	64.977526 
1236.000000	64.953494 
1235.000000	64.927434 
1234.000000	64.901804 
1233.000000	64.878845 
1232.000000	64.860343 
1231.000000	64.847159 
1230.000000	64.839148 
1229.000000	64.835453 
1228.000000	64.834570 
1227.000000	64.834976 
1226.000000	64.835262 
1225.000000	64.834833 
1224.000000	64.833712 
1223.000000	64.832496 
1222.000000	64.832019 
1221.000000	64.832949 
1220.000000	64.835619 
1219.000000	64.839816 
1218.000000	64.844942 
1217.000000	64.850115 
1216.000000	64.854478 
1215.000000	64.857769 
1214.000000	64.859747 
1213.000000	64.860701 
1212.000000	64.860534 
1211.000000	64.858984 
1210.000000	64.855217 
1209.000000	64.848089 
1208.000000	64.836621 
1207.000000	64.820480 
1206.000000	64.800453 
1205.000000	64.778733 
1204.000000	64.758491 
1203.000000	64.743208 
1202.000000	64.735960 
1201.000000	64.738583 
1200.000000	64.751124 
1199.000000	64.771533 
1198.000000	64.796447 
1197.000000	64.821672 
1196.000000	64.842891 
1195.000000	64.856767 
1194.000000	64.861369 
1193.000000	64.856529 
1192.000000	64.843606 
1191.000000	64.825034 
1190.000000	64.803791 
1189.000000	64.782691 
1188.000000	64.764142 
1187.000000	64.749622 
1186.000000	64.739966 
1185.000000	64.735293 
1184.000000	64.735341 
1183.000000	64.739394 
1182.000000	64.746618 
1181.000000	64.756083 
1180.000000	64.766478 
1179.000000	64.776611 
1178.000000	64.785313 
1177.000000	64.791750 
1176.000000	64.795470 
1175.000000	64.796710 
1174.000000	64.796209 
1173.000000	64.795541 
1172.000000	64.796710 
1171.000000	64.801573 
1170.000000	64.811277 
1169.000000	64.826130 
1168.000000	64.845299 
1167.000000	64.866876 
1166.000000	64.888167 
1165.000000	64.906454 
1164.000000	64.919400 
1163.000000	64.925742 
1162.000000	64.925384 
1161.000000	64.919281 
1160.000000	64.909267 
1159.000000	64.897942 
1158.000000	64.887905 
1157.000000	64.881324 
1156.000000	64.879918 
1155.000000	64.884829 
1154.000000	64.896559 
1153.000000	64.915037 
1152.000000	64.939188 
1151.000000	64.967036 
1150.000000	64.995193 
1149.000000	65.019321 
1148.000000	65.034317 
1147.000000	65.035343 
1146.000000	65.018582 
1145.000000	64.982581 
1144.000000	64.928889 
1143.000000	64.862203 
1142.000000	64.789533 
1141.000000	64.719176 
1140.000000	64.659070 
1139.000000	64.615821 
1138.000000	64.593315 
1137.000000	64.592719 
1136.000000	64.612197 
1135.000000	64.648127 
1134.000000	64.696002 
1133.000000	64.751291 
1132.000000	64.809489 
1131.000000	64.866423 
1130.000000	64.918112 
1129.000000	64.960837 
1128.000000	64.990758 
1127.000000	65.004897 
1126.000000	65.001368 
1125.000000	64.980268 
1124.000000	64.944267 
1123.000000	64.898300 
1122.000000	64.849185 
1121.000000	64.804315 
1120.000000	64.770627 
1119.000000	64.753079 
1118.000000	64.754080 
1117.000000	64.773178 
1116.000000	64.807343 
1115.000000	64.852118 
1114.000000	64.902353 
1113.000000	64.953136 
1112.000000	64.999914 
1111.000000	65.038490 
1110.000000	65.065169 
1109.000000	65.076828 
1108.000000	65.071511 
1107.000000	65.048980 
1106.000000	65.011119 
1105.000000	64.962410 
1104.000000	64.908981 
1103.000000	64.858031 
1102.000000	64.815926 
1101.000000	64.786911 
1100.000000	64.772486 
1099.000000	64.771485 
1098.000000	64.780569 
1097.000000	64.795136 
1096.000000	64.810872 
1095.000000	64.825010 
1094.000000	64.836549 
1093.000000	64.846348 
1092.000000	64.856266 
1091.000000	64.868307 
1090.000000	64.883565 
1089.000000	64.901828 
1088.000000	64.921569 
1087.000000	64.940381 
1086.000000	64.956140 
1085.000000	64.967107 
1084.000000	64.972758 
1083.000000	64.973282 
1082.000000	64.969658 
1081.000000	64.962935 
1080.000000	64.954185 
1079.000000	64.943623 
1078.000000	64.930939 
1077.000000	64.914870 
1076.000000	64.894199 
1075.000000	64.867663 
1074.000000	64.834594 
1073.000000	64.795637 
1072.000000	64.752697 
1071.000000	64.709258 
1070.000000	64.669585 
1069.000000	64.637947 
1068.000000	64.617729 
1067.000000	64.610505 
1066.000000	64.615821 
1065.000000	64.630937 
1064.000000	64.651465 
1063.000000	64.672040 
1062.000000	64.687943 
1061.000000	64.696073 
1060.000000	64.696002 
1059.000000	64.689779 
1058.000000	64.681434 
1057.000000	64.676094 
1056.000000	64.677929 
1055.000000	64.689707 
1054.000000	64.710664 
1053.000000	64.737200 
1052.000000	64.762735 
1051.000000	64.779853 
1050.000000	64.781475 
1049.000000	64.762878 
1048.000000	64.722919 
1047.000000	64.664554 
1046.000000	64.594268 
1045.000000	64.520478 
1044.000000	64.452338 
1043.000000	64.397907 
1042.000000	64.363002 
1041.000000	64.350175 
1040.000000	64.358901 
1039.000000	64.386129 
1038.000000	64.426541 
1037.000000	64.473748 
1036.000000	64.520931 
1035.000000	64.562153 
1034.000000	64.593219 
1033.000000	64.612340 
1032.000000	64.620065 
1031.000000	64.619064 
1030.000000	64.613389 
1029.000000	64.607191 
1028.000000	64.604210 
1027.000000	64.606118 
1026.000000	64.613080 
1025.000000	64.622950 
1024.000000	64.632725 
1023.000000	64.638853 
1022.000000	64.638352 
1021.000000	64.630079 
1020.000000	64.614987 
1019.000000	64.596700 
1018.000000	64.580678 
1017.000000	64.573049 
1016.000000	64.579057 
1015.000000	64.601349 
1014.000000	64.638900 
1013.000000	64.686822 
1012.000000	64.737343 
1011.000000	64.781117 
1010.000000	64.809560 
1009.000000	64.816880 
1008.000000	64.801621 
1007.000000	64.766979 
1006.000000	64.719867 
1005.000000	64.669203 
1004.000000	64.623641 
1003.000000	64.589786 
1002.000000	64.570665 
1001.000000	64.565610 
1000.000000	64.571022 
999.000000	 64.582204 
998.000000	 64.595007 
997.000000	 64.607143 
996.000000	 64.618396 
995.000000	 64.630436 
994.000000	 64.645361 
993.000000	 64.664363 
992.000000	 64.687132 
991.000000	 64.711022 
990.000000	 64.731907 
989.000000	 64.745092 
988.000000	 64.746761 
987.000000	 64.735317 
986.000000	 64.711809 
985.000000	 64.680004 
984.000000	 64.645385 
983.000000	 64.614009 
982.000000	 64.590883 
981.000000	 64.578771 
980.000000	 64.577913 
979.000000	 64.585947 
978.000000	 64.598751 
977.000000	 64.611434 
976.000000	 64.619708 
975.000000	 64.620852 
974.000000	 64.613890 
973.000000	 64.600157 
972.000000	 64.582228 
971.000000	 64.563679 
970.000000	 64.548015 
969.000000	 64.537811 
968.000000	 64.534330 
967.000000	 64.537024 
966.000000	 64.543819 
965.000000	 64.551448 
964.000000	 64.556646 
963.000000	 64.556360 
962.000000	 64.548540 
961.000000	 64.532184 
960.000000	 64.507651 
959.000000	 64.476370 
958.000000	 64.440727 
957.000000	 64.403629 
956.000000	 64.367938 
955.000000	 64.336585 
954.000000	 64.311814 
953.000000	 64.294815 
952.000000	 64.285588 
951.000000	 64.283108 
950.000000	 64.285540 
949.000000	 64.290356 
948.000000	 64.294886 
947.000000	 64.296793 
946.000000	 64.294481 
945.000000	 64.287185 
944.000000	 64.274907 
943.000000	 64.258170 
942.000000	 64.237856 
941.000000	 64.214992 
940.000000	 64.190840 
939.000000	 64.166760 
938.000000	 64.144420 
937.000000	 64.125657 
936.000000	 64.112687 
935.000000	 64.107847 
934.000000	 64.112997 
933.000000	 64.129281 
932.000000	 64.156484 
931.000000	 64.192938 
930.000000	 64.235877 
929.000000	 64.281821 
928.000000	 64.327311 
927.000000	 64.369463 
926.000000	 64.406442 
925.000000	 64.437460 
924.000000	 64.462757 
923.000000	 64.483141 
922.000000	 64.499568 
921.000000	 64.512252 
920.000000	 64.521121 
919.000000	 64.525151 
918.000000	 64.522814 
917.000000	 64.512896 
916.000000	 64.494991 
915.000000	 64.470267 
914.000000	 64.441680 
913.000000	 64.413595 
912.000000	 64.391326 
911.000000	 64.379215 
910.000000	 64.379668 
909.000000	 64.392161 
908.000000	 64.413309 
907.000000	 64.437532 
906.000000	 64.458513 
905.000000	 64.470505 
904.000000	 64.469861 
903.000000	 64.455580 
902.000000	 64.429688 
901.000000	 64.395904 
900.000000	 64.358663 
899.000000	 64.322066 
898.000000	 64.288783 
897.000000	 64.259672 
896.000000	 64.234185 
895.000000	 64.211368 
894.000000	 64.190506 
893.000000	 64.171910 
892.000000	 64.156985 
891.000000	 64.147734 
890.000000	 64.146685 
889.000000	 64.155316 
888.000000	 64.174246 
887.000000	 64.202761 
886.000000	 64.238786 
885.000000	 64.279556 
884.000000	 64.320874 
883.000000	 64.358091 
882.000000	 64.386057 
881.000000	 64.400172 
880.000000	 64.396524 
879.000000	 64.372730 
878.000000	 64.328646 
877.000000	 64.266800 
876.000000	 64.192199 
875.000000	 64.111566 
874.000000	 64.032387 
873.000000	 63.961672 
872.000000	 63.904762 
871.000000	 63.864731 
870.000000	 63.841938 
869.000000	 63.834571 
868.000000	 63.839221 
867.000000	 63.852167 
866.000000	 63.869786 
865.000000	 63.889622 
864.000000	 63.909435 
863.000000	 63.928079 
862.000000	 63.943958 
861.000000	 63.956403 
860.000000	 63.964700 
859.000000	 63.969397 
858.000000	 63.971900 
857.000000	 63.974714 
856.000000	 63.981080 
855.000000	 63.994121 
854.000000	 64.016151 
853.000000	 64.047551 
852.000000	 64.086699 
851.000000	 64.129710 
850.000000	 64.171242 
849.000000	 64.205765 
848.000000	 64.228725 
847.000000	 64.237952 
846.000000	 64.233970 
845.000000	 64.219903 
844.000000	 64.200258 
843.000000	 64.180374 
842.000000	 64.164471 
841.000000	 64.154839 
840.000000	 64.151072 
839.000000	 64.151024 
838.000000	 64.150881 
837.000000	 64.146757 
836.000000	 64.135766 
835.000000	 64.116835 
834.000000	 64.091205 
833.000000	 64.062237 
832.000000	 64.034628 
831.000000	 64.012980 
830.000000	 64.001035 
829.000000	 64.000296 
828.000000	 64.009928 
827.000000	 64.026975 
826.000000	 64.047050 
825.000000	 64.065575 
824.000000	 64.078712 
823.000000	 64.084219 
822.000000	 64.081954 
821.000000	 64.073610 
820.000000	 64.061713 
819.000000	 64.048790 
818.000000	 64.036774 
817.000000	 64.026498 
816.000000	 64.017462 
815.000000	 64.008164 
814.000000	 63.997030 
813.000000	 63.982915 
812.000000	 63.965749 
811.000000	 63.946771 
810.000000	 63.927984 
809.000000	 63.912057 
808.000000	 63.901162 
807.000000	 63.897085 
806.000000	 63.900184 
805.000000	 63.910031 
804.000000	 63.925361 
803.000000	 63.945007 
802.000000	 63.967919 
801.000000	 63.993382 
800.000000	 64.021062 
799.000000	 64.049696 
798.000000	 64.076972 
797.000000	 64.099121 
796.000000	 64.111423 
795.000000	 64.109158 
794.000000	 64.088892 
793.000000	 64.049792 
792.000000	 63.994288 
791.000000	 63.927674 
790.000000	 63.857269 
789.000000	 63.790965 
788.000000	 63.735771 
787.000000	 63.696503 
786.000000	 63.675069 
785.000000	 63.670277 
784.000000	 63.678455 
783.000000	 63.694286 
782.000000	 63.712573 
781.000000	 63.728928 
780.000000	 63.741207 
779.000000	 63.748860 
778.000000	 63.753509 
777.000000	 63.757419 
776.000000	 63.763236 
775.000000	 63.772988 
774.000000	 63.787293 
773.000000	 63.805103 
772.000000	 63.823819 
771.000000	 63.840174 
770.000000	 63.851213 
769.000000	 63.855171 
768.000000	 63.852715 
767.000000	 63.846588 
766.000000	 63.841271 
765.000000	 63.841199 
764.000000	 63.848567 
763.000000	 63.862419 
762.000000	 63.878059 
761.000000	 63.888812 
760.000000	 63.888096 
759.000000	 63.872361 
758.000000	 63.842701 
757.000000	 63.805460 
756.000000	 63.771152 
755.000000	 63.751173 
754.000000	 63.754701 
753.000000	 63.785028 
752.000000	 63.838171 
751.000000	 63.902783 
750.000000	 63.962888 
749.000000	 64.002060 
748.000000	 64.008069 
747.000000	 63.976168 
746.000000	 63.910770 
745.000000	 63.824105 
744.000000	 63.733005 
743.000000	 63.654756 
742.000000	 63.602757 
741.000000	 63.584256 
740.000000	 63.598847 
739.000000	 63.640356 
738.000000	 63.698077 
737.000000	 63.759851 
736.000000	 63.813948 
735.000000	 63.851356 
734.000000	 63.866567 
733.000000	 63.857078 
732.000000	 63.823318 
731.000000	 63.767838 
730.000000	 63.694620 
729.000000	 63.608574 
728.000000	 63.514947 
727.000000	 63.419961 
726.000000	 63.329577 
725.000000	 63.249564 
724.000000	 63.184499 
723.000000	 63.137221 
722.000000	 63.108897 
721.000000	 63.098931 
720.000000	 63.105154 
719.000000	 63.123726 
718.000000	 63.150620 
717.000000	 63.182163 
716.000000	 63.215255 
715.000000	 63.247370 
714.000000	 63.277769 
713.000000	 63.307070 
712.000000	 63.337182 
711.000000	 63.370561 
710.000000	 63.409256 
709.000000	 63.454556 
708.000000	 63.506340 
707.000000	 63.563156 
706.000000	 63.622474 
705.000000	 63.680815 
704.000000	 63.734984 
703.000000	 63.781714 
702.000000	 63.819360 
701.000000	 63.846182 
700.000000	 63.861989 
699.000000	 63.865494 
698.000000	 63.855147 
697.000000	 63.827967 
696.000000	 63.781642 
695.000000	 63.713812 
694.000000	 63.623619 
693.000000	 63.512516 
692.000000	 63.385581 
691.000000	 63.250088 
690.000000	 63.114881 
689.000000	 62.988829 
688.000000	 62.879824 
687.000000	 62.793278 
686.000000	 62.731766 
685.000000	 62.694716 
684.000000	 62.679553 
683.000000	 62.682723 
682.000000	 62.700796 
681.000000	 62.730002 
680.000000	 62.767100 
679.000000	 62.808728 
678.000000	 62.851738 
677.000000	 62.891244 
676.000000	 62.922668 
675.000000	 62.942051 
674.000000	 62.947297 
673.000000	 62.938165 
672.000000	 62.917256 
671.000000	 62.889623 
670.000000	 62.861990 
669.000000	 62.840771 
668.000000	 62.831854 
667.000000	 62.839388 
666.000000	 62.865233 
665.000000	 62.908840 
664.000000	 62.967300 
663.000000	 63.035726 
662.000000	 63.108658 
661.000000	 63.180780 
660.000000	 63.246536 
659.000000	 63.300633 
658.000000	 63.339257 
657.000000	 63.359880 
656.000000	 63.360929 
655.000000	 63.341403 
654.000000	 63.302135 
653.000000	 63.244557 
652.000000	 63.171076 
651.000000	 63.084197 
650.000000	 62.987565 
649.000000	 62.885022 
648.000000	 62.781333 
647.000000	 62.680864 
646.000000	 62.588095 
645.000000	 62.505745 
644.000000	 62.434339 
643.000000	 62.372398 
642.000000	 62.315917 
641.000000	 62.261199 
640.000000	 62.205457 
639.000000	 62.149596 
638.000000	 62.097549 
637.000000	 62.057495 
636.000000	 62.039351 
635.000000	 62.052869 
634.000000	 62.104320 
633.000000	 62.194776 
632.000000	 62.318921 
631.000000	 62.464761 
630.000000	 62.615561 
629.000000	 62.753629 
628.000000	 62.863492 
627.000000	 62.934589 
626.000000	 62.963223 
625.000000	 62.952637 
624.000000	 62.912130 
623.000000	 62.854862 
622.000000	 62.794566 
621.000000	 62.743616 
620.000000	 62.709903 
619.000000	 62.697863 
618.000000	 62.705993 
617.000000	 62.728810 
616.000000	 62.757945 
615.000000	 62.784671 
614.000000	 62.801980 
613.000000	 62.805747 
612.000000	 62.795925 
611.000000	 62.775945 
610.000000	 62.751340 
609.000000	 62.727856 
608.000000	 62.708663 
607.000000	 62.693166 
606.000000	 62.677001 
605.000000	 62.653183 
604.000000	 62.613534 
603.000000	 62.551498 
602.000000	 62.464404 
601.000000	 62.355279 
600.000000	 62.232780 
599.000000	 62.109827 
598.000000	 62.000942 
597.000000	 61.918997 
596.000000	 61.872220 
595.000000	 61.862349 
594.000000	 61.883783 
593.000000	 61.925578 
592.000000	 61.973810 
591.000000	 62.015080 
590.000000	 62.039446 
589.000000	 62.042379 
588.000000	 62.025451 
587.000000	 61.993908 
586.000000	 61.954355 
585.000000	 61.911559 
584.000000	 61.866736 
583.000000	 61.815905 
582.000000	 61.751532 
581.000000	 61.664676 
580.000000	 61.549043 
579.000000	 61.403560 
578.000000	 61.235022 
577.000000	 61.057686 
576.000000	 60.892105 
575.000000	 60.760426 
574.000000	 60.682773 
573.000000	 60.672426 
572.000000	 60.733723 
571.000000	 60.860252 
570.000000	 61.036729 
569.000000	 61.241555 
568.000000	 61.451077 
567.000000	 61.642456 
566.000000	 61.798405 
565.000000	 61.907720 
564.000000	 61.967968 
563.000000	 61.984062 
562.000000	 61.966800 
561.000000	 61.930155 
560.000000	 61.887836 
559.000000	 61.851215 
558.000000	 61.826848 
557.000000	 61.817336 
556.000000	 61.820149 
555.000000	 61.830306 
554.000000	 61.841511 
553.000000	 61.848926 
552.000000	 61.849975 
551.000000	 61.845469 
550.000000	 61.838316 
549.000000	 61.833047 
548.000000	 61.834979 
547.000000	 61.848926 
546.000000	 61.877942 
545.000000	 61.921977 
544.000000	 61.978387 
543.000000	 62.040781 
542.000000	 62.101078 
541.000000	 62.149167 
540.000000	 62.175321 
539.000000	 62.171125 
538.000000	 62.130141 
537.000000	 62.051200 
536.000000	 61.939239 
535.000000	 61.805820 
534.000000	 61.666607 
533.000000	 61.540436 
532.000000	 61.446261 
531.000000	 61.398243 
530.000000	 61.403250 
529.000000	 61.457157 
528.000000	 61.545801 
527.000000	 61.645460 
526.000000	 61.727952 
525.000000	 61.765742 
524.000000	 61.738419 
523.000000	 61.636519 
522.000000	 61.464357 
521.000000	 61.239528 
520.000000	 60.989212 
519.000000	 60.744619 
518.000000	 60.533738 
517.000000	 60.376787 
516.000000	 60.281085 
515.000000	 60.241866 
514.000000	 60.243439 
513.000000	 60.263538 
512.000000	 60.280227 
511.000000	 60.275673 
510.000000	 60.242176 
509.000000	 60.181450 
508.000000	 60.104846 
507.000000	 60.028362 
506.000000	 59.967613 
505.000000	 59.932017 
504.000000	 59.922647 
503.000000	 59.931731 
502.000000	 59.945106 
501.000000	 59.946513 
500.000000	 59.922933 
499.000000	 59.868550 
498.000000	 59.784555 
497.000000	 59.679007 
496.000000	 59.563636 
495.000000	 59.451341 
494.000000	 59.353637 
493.000000	 59.278964 
492.000000	 59.230780 
491.000000	 59.208488 
490.000000	 59.208226 
489.000000	 59.225559 
488.000000	 59.255957 
487.000000	 59.297490 
486.000000	 59.348511 
485.000000	 59.410524 
484.000000	 59.486579 
483.000000	 59.579849 
482.000000	 59.691095 
481.000000	 59.817314 
480.000000	 59.950876 
479.000000	 60.080552 
478.000000	 60.194015 
477.000000	 60.280060 
476.000000	 60.331463 
475.000000	 60.347795 
474.000000	 60.335731 
473.000000	 60.308694 
472.000000	 60.283279 
471.000000	 60.273337 
470.000000	 60.285043 
469.000000	 60.313534 
468.000000	 60.342860 
467.000000	 60.348796 
466.000000	 60.306620 
465.000000	 60.195684 
464.000000	 60.010242 
463.000000	 59.764266 
462.000000	 59.491801 
461.000000	 59.239149 
460.000000	 59.055280 
459.000000	 58.981728 
458.000000	 59.038519 
457.000000	 59.218335 
456.000000	 59.485340 
455.000000	 59.783983 
454.000000	 60.049986 
453.000000	 60.224485 
452.000000	 60.269403 
451.000000	 60.174393 
450.000000	 59.961199 
449.000000	 59.675574 
448.000000	 59.378600 
447.000000	 59.130573 
446.000000	 58.977699 
445.000000	 58.941078 
444.000000	 59.013986 
443.000000	 59.163379 
442.000000	 59.340143 
441.000000	 59.488320 
440.000000	 59.555292 
439.000000	 59.501981 
438.000000	 59.306907 
437.000000	 58.970761 
436.000000	 58.518314 
435.000000	 57.989954 
434.000000	 57.430553 
433.000000	 56.882524 
432.000000	 56.378793 
431.000000	 55.940485 
430.000000	 55.580592 
429.000000	 55.304312 
428.000000	 55.100083 
427.000000	 54.962468 
426.000000	 54.908394 
425.000000	 54.950857 
424.000000	 55.079770 
423.000000	 55.278635 
422.000000	 55.522251 
421.000000	 55.777263 
420.000000	 56.010866 
419.000000	 56.179380 
418.000000	 56.234073 
417.000000	 56.172895 
416.000000	 56.035423 
415.000000	 55.897402 
414.000000	 55.835461 
413.000000	 55.888819 
412.000000	 56.037712 
411.000000	 56.177687 
410.000000	 56.162548 
409.000000	 55.868792 
408.000000	 55.230855 
407.000000	 54.276442 
406.000000	 53.135490 
405.000000	 51.940941 
404.000000	 50.919556 
403.000000	 50.226330 
402.000000	 50.127816 
401.000000	 50.958395 
400.000000	 53.084015 
399.000000	 56.929326 
398.000000	 62.601280 
397.000000	 69.787120 
396.000000	 77.682352 
395.000000	 85.090899 
394.000000	 90.708160 
393.000000	 93.422961 
392.000000	 92.641854 
391.000000	 88.461613 
390.000000	 81.543946 
389.000000	 72.976088 
388.000000	 63.968157 
387.000000	 55.616307 
386.000000	 48.824596 
385.000000	 44.119429 
384.000000	 41.700029 
383.000000	 41.364312 
382.000000	 42.641115 
381.000000	 44.861745 
380.000000	 47.156715 
379.000000	 48.806858 
378.000000	 49.240326 
377.000000	 48.403239 
376.000000	 46.538496 
375.000000	 44.459033 
374.000000	 43.306350 
373.000000	 44.329190 
372.000000	 48.599457 
371.000000	 56.557917 
370.000000	 67.796158 

