PE IR       SPECTRUM    SPECTRUM    ASCII       PEDS        1.60        
  -1
C-468C~1.ASC
17/03/27
22:47:24.00
17/03/27
22:47:24.00
tln
$C-4040-8_t0101$<tbV0>[10.4,10.4,8.0,0.0,27,1,0]
370.000000
64









2002,4.07    
MIRTGS : RIGHTBACK : INTERNAL 2
MIR : ON : INTERNAL 2
OPTKBR

0.200000
8
8.000000
FILLER
RATIO
SPECTRUM
UNLOCKED 256

DOUBLE
64
COMBINED
1
0
0


1.000000
RATIO


1
0
TRUE
51149
0
LEFT NOT FITTED RIGHT NOT FITTED 0
NONE
NONE
15600
12.000000
4.427000
51148
TRUE
1 0 8 72 0 0 0 0 

15798.010000






#HDR
-1
-1
#GR
CM-1
%T
0.00002384185791015625
0.0
5000.000000
-1.000000
4631
8
199.999976
41.749191
#DATA
5000.000000	65.420484  
4999.000000	65.383577  
4998.000000	65.329694  
4997.000000	65.263795  
4996.000000	65.188646  
4995.000000	65.106582  
4994.000000	65.018796  
4993.000000	64.928936  
4992.000000	64.840126  
4991.000000	64.755749  
4990.000000	64.677882  
4989.000000	64.606952  
4988.000000	64.542126  
4987.000000	64.481663  
4986.000000	64.424395  
4985.000000	64.370083  
4984.000000	64.321184  
4983.000000	64.282441  
4982.000000	64.259648  
4981.000000	64.257717  
4980.000000	64.278602  
4979.000000	64.321112  
4978.000000	64.379024  
4977.000000	64.444684  
4976.000000	64.511108  
4975.000000	64.575505  
4974.000000	64.638710  
4973.000000	64.706492  
4972.000000	64.787530  
4971.000000	64.890336  
4970.000000	65.018749  
4969.000000	65.170621  
4968.000000	65.337634  
4967.000000	65.505385  
4966.000000	65.658354  
4965.000000	65.780186  
4964.000000	65.858554  
4963.000000	65.885424  
4962.000000	65.860319  
4961.000000	65.786886  
4960.000000	65.672540  
4959.000000	65.526938  
4958.000000	65.361404  
4957.000000	65.187835  
4956.000000	65.018224  
4955.000000	64.865231  
4954.000000	64.740920  
4953.000000	64.654827  
4952.000000	64.612269  
4951.000000	64.612650  
4950.000000	64.648747  
4949.000000	64.706826  
4948.000000	64.769148  
4947.000000	64.816522  
4946.000000	64.832949  
4945.000000	64.808249  
4944.000000	64.741063  
4943.000000	64.637398  
4942.000000	64.510798  
4941.000000	64.378905  
4940.000000	64.260506  
4939.000000	64.170670  
4938.000000	64.119553  
4937.000000	64.111518  
4936.000000	64.144444  
4935.000000	64.211106  
4934.000000	64.300775  
4933.000000	64.401674  
4932.000000	64.502263  
4931.000000	64.592719  
4930.000000	64.666438  
4929.000000	64.720416  
4928.000000	64.755940  
4927.000000	64.777803  
4926.000000	64.793133  
4925.000000	64.809560  
4924.000000	64.834594  
4923.000000	64.873170  
4922.000000	64.926886  
4921.000000	64.992833  
4920.000000	65.065407  
4919.000000	65.136241  
4918.000000	65.196251  
4917.000000	65.236616  
4916.000000	65.251708  
4915.000000	65.239000  
4914.000000	65.199661  
4913.000000	65.137958  
4912.000000	65.060710  
4911.000000	64.976072  
4910.000000	64.892268  
4909.000000	64.817118  
4908.000000	64.757370  
4907.000000	64.718151  
4906.000000	64.702868  
4905.000000	64.712405  
4904.000000	64.745163  
4903.000000	64.796924  
4902.000000	64.861202  
4901.000000	64.929199  
4900.000000	64.991116  
4899.000000	65.037202  
4898.000000	65.060067  
4897.000000	65.055298  
4896.000000	65.023565  
4895.000000	64.970731  
4894.000000	64.907407  
4893.000000	64.846873  
4892.000000	64.802861  
4891.000000	64.786696  
4890.000000	64.804863  
4889.000000	64.857745  
4888.000000	64.939308  
4887.000000	65.039491  
4886.000000	65.145039  
4885.000000	65.242552  
4884.000000	65.319943  
4883.000000	65.368199  
4882.000000	65.382313  
4881.000000	65.361499  
4880.000000	65.309214  
4879.000000	65.231966  
4878.000000	65.139579  
4877.000000	65.043854  
4876.000000	64.957475  
4875.000000	64.892125  
4874.000000	64.856982  
4873.000000	64.856886  
4872.000000	64.891791  
4871.000000	64.956498  
4870.000000	65.040659  
4869.000000	65.131068  
4868.000000	65.214562  
4867.000000	65.279841  
4866.000000	65.319418  
4865.000000	65.330171  
4864.000000	65.312767  
4863.000000	65.271091  
4862.000000	65.210413  
4861.000000	65.137076  
4860.000000	65.056967  
4859.000000	64.976310  
4858.000000	64.902043  
4857.000000	64.841270  
4856.000000	64.800930  
4855.000000	64.786577  
4854.000000	64.801478  
4853.000000	64.845108  
4852.000000	64.912819  
4851.000000	64.995241  
4850.000000	65.079808  
4849.000000	65.151953  
4848.000000	65.197920  
4847.000000	65.207457  
4846.000000	65.175700  
4845.000000	65.104150  
4844.000000	65.000128  
4843.000000	64.875698  
4842.000000	64.745092  
4841.000000	64.621996  
4840.000000	64.517402  
4839.000000	64.438104  
4838.000000	64.387035  
4837.000000	64.363527  
4836.000000	64.365506  
4835.000000	64.389634  
4834.000000	64.433407  
4833.000000	64.494538  
4832.000000	64.571714  
4831.000000	64.662313  
4830.000000	64.763045  
4829.000000	64.867973  
4828.000000	64.970350  
4827.000000	65.062737  
4826.000000	65.138745  
4825.000000	65.194034  
4824.000000	65.227365  
4823.000000	65.240859  
4822.000000	65.238881  
4821.000000	65.227007  
4820.000000	65.210223  
4819.000000	65.192008  
4818.000000	65.174484  
4817.000000	65.158462  
4816.000000	65.144014  
4815.000000	65.131235  
4814.000000	65.120673  
4813.000000	65.113472  
4812.000000	65.111112  
4811.000000	65.114927  
4810.000000	65.125131  
4809.000000	65.141177  
4808.000000	65.161418  
4807.000000	65.184283  
4806.000000	65.207910  
4805.000000	65.231442  
4804.000000	65.254759  
4803.000000	65.278887  
4802.000000	65.305948  
4801.000000	65.337657  
4800.000000	65.374684  
4799.000000	65.415620  
4798.000000	65.457367  
4797.000000	65.494561  
4796.000000	65.521049  
4795.000000	65.530824  
4794.000000	65.519881  
4793.000000	65.486693  
4792.000000	65.433001  
4791.000000	65.363502  
4790.000000	65.284895  
4789.000000	65.205097  
4788.000000	65.131664  
4787.000000	65.070509  
4786.000000	65.025186  
4785.000000	64.997029  
4784.000000	64.984941  
4783.000000	64.986228  
4782.000000	64.996814  
4781.000000	65.012168  
4780.000000	65.027594  
4779.000000	65.038347  
4778.000000	65.040850  
4777.000000	65.031766  
4776.000000	65.010333  
4775.000000	64.978098  
4774.000000	64.939141  
4773.000000	64.899349  
4772.000000	64.865040  
4771.000000	64.841890  
4770.000000	64.833354  
4769.000000	64.839720  
4768.000000	64.858722  
4767.000000	64.886307  
4766.000000	64.917659  
4765.000000	64.948463  
4764.000000	64.975976  
4763.000000	64.999461  
4762.000000	65.019631  
4761.000000	65.038514  
4760.000000	65.058255  
4759.000000	65.080642  
4758.000000	65.106844  
4757.000000	65.136647  
4756.000000	65.168738  
4755.000000	65.200209  
4754.000000	65.228366  
4753.000000	65.249657  
4752.000000	65.260791  
4751.000000	65.258932  
4750.000000	65.242481  
4749.000000	65.211677  
4748.000000	65.169167  
4747.000000	65.119528  
4746.000000	65.069031  
4745.000000	65.023636  
4744.000000	64.987921  
4743.000000	64.963865  
4742.000000	64.950609  
4741.000000	64.944601  
4740.000000	64.940738  
4739.000000	64.933919  
4738.000000	64.920473  
4737.000000	64.898991  
4736.000000	64.870524  
4735.000000	64.837932  
4734.000000	64.805221  
4733.000000	64.775991  
4732.000000	64.753198  
4731.000000	64.738440  
4730.000000	64.732003  
4729.000000	64.733552  
4728.000000	64.742016  
4727.000000	64.756488  
4726.000000	64.775443  
4725.000000	64.796686  
4724.000000	64.817595  
4723.000000	64.834094  
4722.000000	64.843106  
4721.000000	64.842987  
4720.000000	64.834880  
4719.000000	64.822459  
4718.000000	64.811515  
4717.000000	64.808630  
4716.000000	64.818978  
4715.000000	64.845228  
4714.000000	64.885759  
4713.000000	64.935040  
4712.000000	64.985036  
4711.000000	65.027427  
4710.000000	65.055894  
4709.000000	65.068125  
4708.000000	65.066456  
4707.000000	65.057468  
4706.000000	65.050268  
4705.000000	65.053796  
4704.000000	65.074729  
4703.000000	65.114951  
4702.000000	65.171527  
4701.000000	65.236377  
4700.000000	65.299606  
4699.000000	65.350008  
4698.000000	65.378189  
4697.000000	65.377593  
4696.000000	65.345907  
4695.000000	65.285587  
4694.000000	65.202951  
4693.000000	65.107607  
4692.000000	65.010356  
4691.000000	64.922237  
4690.000000	64.853000  
4689.000000	64.809632  
4688.000000	64.795517  
4687.000000	64.809846  
4686.000000	64.847922  
4685.000000	64.901447  
4684.000000	64.960098  
4683.000000	65.012836  
4682.000000	65.050578  
4681.000000	65.066885  
4680.000000	65.059995  
4679.000000	65.032887  
4678.000000	64.993047  
4677.000000	64.950442  
4676.000000	64.915490  
4675.000000	64.897131  
4674.000000	64.900422  
4673.000000	64.926123  
4672.000000	64.970254  
4671.000000	65.025639  
4670.000000	65.082955  
4669.000000	65.133237  
4668.000000	65.169358  
4667.000000	65.187621  
4666.000000	65.187907  
4665.000000	65.172910  
4664.000000	65.147328  
4663.000000	65.116333  
4662.000000	65.084910  
4661.000000	65.057134  
4660.000000	65.035152  
4659.000000	65.019226  
4658.000000	65.008878  
4657.000000	65.003323  
4656.000000	65.001559  
4655.000000	65.002727  
4654.000000	65.005683  
4653.000000	65.009498  
4652.000000	65.013289  
4651.000000	65.016317  
4650.000000	65.017604  
4649.000000	65.016269  
4648.000000	65.011882  
4647.000000	65.004181  
4646.000000	64.993548  
4645.000000	64.980220  
4644.000000	64.964318  
4643.000000	64.945602  
4642.000000	64.923334  
4641.000000	64.897155  
4640.000000	64.866900  
4639.000000	64.833974  
4638.000000	64.800453  
4637.000000	64.770936  
4636.000000	64.751410  
4635.000000	64.748525  
4634.000000	64.767861  
4633.000000	64.812207  
4632.000000	64.880204  
4631.000000	64.965963  
4630.000000	65.059471  
4629.000000	65.147542  
4628.000000	65.216588  
4627.000000	65.255188  
4626.000000	65.257000  
4625.000000	65.221714  
4624.000000	65.155577  
4623.000000	65.070319  
4622.000000	64.980459  
4621.000000	64.900565  
4620.000000	64.841723  
4619.000000	64.810395  
4618.000000	64.806485  
4617.000000	64.824652  
4616.000000	64.855122  
4615.000000	64.886832  
4614.000000	64.909482  
4613.000000	64.915323  
4612.000000	64.901232  
4611.000000	64.867901  
4610.000000	64.820480  
4609.000000	64.766454  
4608.000000	64.715003  
4607.000000	64.674663  
4606.000000	64.652347  
4605.000000	64.652228  
4604.000000	64.675378  
4603.000000	64.719724  
4602.000000	64.780926  
4601.000000	64.853215  
4600.000000	64.929986  
4599.000000	65.004825  
4598.000000	65.072607  
4597.000000	65.129923  
4596.000000	65.175056  
4595.000000	65.207743  
4594.000000	65.229296  
4593.000000	65.241360  
4592.000000	65.246558  
4591.000000	65.246677  
4590.000000	65.242981  
4589.000000	65.235805  
4588.000000	65.225648  
4587.000000	65.212774  
4586.000000	65.197753  
4585.000000	65.181970  
4584.000000	65.167593  
4583.000000	65.157270  
4582.000000	65.153908  
4581.000000	65.159416  
4580.000000	65.174317  
4579.000000	65.196800  
4578.000000	65.222930  
4577.000000	65.246844  
4576.000000	65.262174  
4575.000000	65.263509  
4574.000000	65.247893  
4573.000000	65.214967  
4572.000000	65.167737  
4571.000000	65.113043  
4570.000000	65.059971  
4569.000000	65.016937  
4568.000000	64.990568  
4567.000000	64.985060  
4566.000000	65.000939  
4565.000000	65.034961  
4564.000000	65.081000  
4563.000000	65.131783  
4562.000000	65.180158  
4561.000000	65.220618  
4560.000000	65.250134  
4559.000000	65.267729  
4558.000000	65.275073  
4557.000000	65.275263  
4556.000000	65.272474  
4555.000000	65.270256  
4554.000000	65.271902  
4553.000000	65.279674  
4552.000000	65.293622  
4551.000000	65.310955  
4550.000000	65.326523  
4549.000000	65.332794  
4548.000000	65.319919  
4547.000000	65.277075  
4546.000000	65.194201  
4545.000000	65.064573  
4544.000000	64.886665  
4543.000000	64.666152  
4542.000000	64.415597  
4541.000000	64.154195  
4540.000000	63.904404  
4539.000000	63.689899  
4538.000000	63.530135  
4537.000000	63.439011  
4536.000000	63.421511  
4535.000000	63.474607  
4534.000000	63.586020  
4533.000000	63.739204  
4532.000000	63.914465  
4531.000000	64.094519  
4530.000000	64.264059  
4529.000000	64.415240  
4528.000000	64.545893  
4527.000000	64.659786  
4526.000000	64.763045  
4525.000000	64.862084  
4524.000000	64.960336  
4523.000000	65.057110  
4522.000000	65.147018  
4521.000000	65.221214  
4520.000000	65.269160  
4519.000000	65.282964  
4518.000000	65.259003  
4517.000000	65.199255  
4516.000000	65.111112  
4515.000000	65.007209  
4514.000000	64.901947  
4513.000000	64.808201  
4512.000000	64.734649  
4511.000000	64.685559  
4510.000000	64.659142  
4509.000000	64.648699  
4508.000000	64.644575  
4507.000000	64.637613  
4506.000000	64.620685  
4505.000000	64.590167  
4504.000000	64.546346  
4503.000000	64.492321  
4502.000000	64.433145  
4501.000000	64.374232  
4500.000000	64.319562  
4499.000000	64.270663  
4498.000000	64.227747  
4497.000000	64.190649  
4496.000000	64.159154  
4495.000000	64.134025  
4494.000000	64.117813  
4493.000000	64.114761  
4492.000000	64.128994  
4491.000000	64.163994  
4490.000000	64.221286  
4489.000000	64.299798  
4488.000000	64.395284  
4487.000000	64.500617  
4486.000000	64.607477  
4485.000000	64.706730  
4484.000000	64.790272  
4483.000000	64.851427  
4482.000000	64.885902  
4481.000000	64.891910  
4480.000000	64.870572  
4479.000000	64.825344  
4478.000000	64.761853  
4477.000000	64.687323  
4476.000000	64.610290  
4475.000000	64.538955  
4474.000000	64.480710  
4473.000000	64.440345  
4472.000000	64.420127  
4471.000000	64.419007  
4470.000000	64.433336  
4469.000000	64.457535  
4468.000000	64.485311  
4467.000000	64.510083  
4466.000000	64.526462  
4465.000000	64.531016  
4464.000000	64.522552  
4463.000000	64.502573  
4462.000000	64.473462  
4461.000000	64.439105  
4460.000000	64.401507  
4459.000000	64.360427  
4458.000000	64.312815  
4457.000000	64.252734  
4456.000000	64.175057  
4455.000000	64.078521  
4454.000000	63.966727  
4453.000000	63.848876  
4452.000000	63.737535  
4451.000000	63.645339  
4450.000000	63.582158  
4449.000000	63.551831  
4448.000000	63.552212  
4447.000000	63.575196  
4446.000000	63.610434  
4445.000000	63.648509  
4444.000000	63.681554  
4443.000000	63.704657  
4442.000000	63.717389  
4441.000000	63.723778  
4440.000000	63.730335  
4439.000000	63.744521  
4438.000000	63.774204  
4437.000000	63.824295  
4436.000000	63.896322  
4435.000000	63.985681  
4434.000000	64.082646  
4433.000000	64.172434  
4432.000000	64.238977  
4431.000000	64.267611  
4430.000000	64.247202  
4429.000000	64.175105  
4428.000000	64.058756  
4427.000000	63.915610  
4426.000000	63.768196  
4425.000000	63.642406  
4424.000000	63.561367  
4423.000000	63.542819  
4422.000000	63.597488  
4421.000000	63.723850  
4420.000000	63.901329  
4419.000000	64.116144  
4418.000000	64.371204  
4417.000000	64.657664  
4416.000000	64.951300  
4415.000000	65.238523  
4414.000000	65.513110  
4413.000000	65.774202  
4412.000000	66.022300  
4411.000000	66.236472  
4410.000000	66.383647  
4409.000000	66.444563  
4408.000000	66.408991  
4407.000000	66.293406  
4406.000000	66.118741  
4405.000000	65.905380  
4404.000000	65.662789  
4403.000000	65.359258  
4402.000000	64.965033  
4401.000000	64.493656  
4400.000000	63.979411  
4399.000000	63.497352  
4398.000000	63.116097  
4397.000000	62.818312  
4396.000000	62.619519  
4395.000000	62.476301  
4394.000000	62.566852  
4393.000000	63.273286  
4392.000000	65.153193  
4391.000000	68.811154  
4390.000000	74.517631  
4389.000000	82.051849  
4388.000000	90.553712  
4387.000000	98.675060  
4386.000000	104.988694 
4385.000000	108.319687 
4384.000000	108.187294 
4383.000000	104.836893 
4382.000000	99.107599  
4381.000000	92.177152  
4380.000000	85.145854  
4379.000000	78.855061  
4378.000000	73.786067  
4377.000000	70.018100  
4376.000000	67.487168  
4375.000000	65.939474  
4374.000000	65.126037  
4373.000000	64.809226  
4372.000000	64.753818  
4371.000000	64.818763  
4370.000000	64.886999  
4369.000000	64.926600  
4368.000000	64.914655  
4367.000000	64.870142  
4366.000000	64.804697  
4365.000000	64.736771  
4364.000000	64.670109  
4363.000000	64.615368  
4362.000000	64.588332  
4361.000000	64.594936  
4360.000000	64.630413  
4359.000000	64.681673  
4358.000000	64.731454  
4357.000000	64.757180  
4356.000000	64.739203  
4355.000000	64.684796  
4354.000000	64.615964  
4353.000000	64.546203  
4352.000000	64.485383  
4351.000000	64.433574  
4350.000000	64.385104  
4349.000000	64.350748  
4348.000000	64.338016  
4347.000000	64.331173  
4346.000000	64.313650  
4345.000000	64.284062  
4344.000000	64.244055  
4343.000000	64.192914  
4342.000000	64.135146  
4341.000000	64.078903  
4340.000000	64.033508  
4339.000000	64.006853  
4338.000000	64.003992  
4337.000000	64.025616  
4336.000000	64.068603  
4335.000000	64.126777  
4334.000000	64.192748  
4333.000000	64.259862  
4332.000000	64.323949  
4331.000000	64.384007  
4330.000000	64.442229  
4329.000000	64.502525  
4328.000000	64.567899  
4327.000000	64.638996  
4326.000000	64.713072  
4325.000000	64.783906  
4324.000000	64.844226  
4323.000000	64.886236  
4322.000000	64.905476  
4321.000000	64.899682  
4320.000000	64.870023  
4319.000000	64.819407  
4318.000000	64.752149  
4317.000000	64.672684  
4316.000000	64.585113  
4315.000000	64.493036  
4314.000000	64.400291  
4313.000000	64.310884  
4312.000000	64.229559  
4311.000000	64.161229  
4310.000000	64.110422  
4309.000000	64.080452  
4308.000000	64.072656  
4307.000000	64.085984  
4306.000000	64.117360  
4305.000000	64.162206  
4304.000000	64.215445  
4303.000000	64.272141  
4302.000000	64.328289  
4301.000000	64.381217  
4300.000000	64.429259  
4299.000000	64.470958  
4298.000000	64.504575  
4297.000000	64.527845  
4296.000000	64.537978  
4295.000000	64.533090  
4294.000000	64.512348  
4293.000000	64.477252  
4292.000000	64.430856  
4291.000000	64.378738  
4290.000000	64.326262  
4289.000000	64.277672  
4288.000000	64.235091  
4287.000000	64.198160  
4286.000000	64.165258  
4285.000000	64.134550  
4284.000000	64.105653  
4283.000000	64.080333  
4282.000000	64.062643  
4281.000000	64.057922  
4280.000000	64.070796  
4279.000000	64.103531  
4278.000000	64.154577  
4277.000000	64.218759  
4276.000000	64.287900  
4275.000000	64.353322  
4274.000000	64.408040  
4273.000000	64.449119  
4272.000000	64.477872  
4271.000000	64.499950  
4270.000000	64.523386  
4269.000000	64.556574  
4268.000000	64.605450  
4267.000000	64.672255  
4266.000000	64.755463  
4265.000000	64.849305  
4264.000000	64.946913  
4263.000000	65.039038  
4262.000000	65.117216  
4261.000000	65.173029  
4260.000000	65.200471  
4259.000000	65.194702  
4258.000000	65.153193  
4257.000000	65.076255  
4256.000000	64.967966  
4255.000000	64.835882  
4254.000000	64.690709  
4253.000000	64.545774  
4252.000000	64.415073  
4251.000000	64.310789  
4250.000000	64.241433  
4249.000000	64.209794  
4248.000000	64.212894  
4247.000000	64.242768  
4246.000000	64.288926  
4245.000000	64.339399  
4244.000000	64.384603  
4243.000000	64.418244  
4242.000000	64.439392  
4241.000000	64.449620  
4240.000000	64.454030  
4239.000000	64.458608  
4238.000000	64.469456  
4237.000000	64.490389  
4236.000000	64.522790  
4235.000000	64.565777  
4234.000000	64.616608  
4233.000000	64.671421  
4232.000000	64.726734  
4231.000000	64.780163  
4230.000000	64.830565  
4229.000000	64.877700  
4228.000000	64.922165  
4227.000000	64.964556  
4226.000000	65.005207  
4225.000000	65.043425  
4224.000000	65.077495  
4223.000000	65.104413  
4222.000000	65.121436  
4221.000000	65.126037  
4220.000000	65.116643  
4219.000000	65.092515  
4218.000000	65.054821  
4217.000000	65.005755  
4216.000000	64.948463  
4215.000000	64.886307  
4214.000000	64.822864  
4213.000000	64.761185  
4212.000000	64.703869  
4211.000000	64.652824  
4210.000000	64.610004  
4209.000000	64.576268  
4208.000000	64.550662  
4207.000000	64.531207  
4206.000000	64.515042  
4205.000000	64.498901  
4204.000000	64.479541  
4203.000000	64.454698  
4202.000000	64.423322  
4201.000000	64.386749  
4200.000000	64.348459  
4199.000000	64.312911  
4198.000000	64.284276  
4197.000000	64.265990  
4196.000000	64.259529  
4195.000000	64.263367  
4194.000000	64.273214  
4193.000000	64.282536  
4192.000000	64.284753  
4191.000000	64.273619  
4190.000000	64.246988  
4189.000000	64.205884  
4188.000000	64.158225  
4187.000000	64.115405  
4186.000000	64.093565  
4185.000000	64.109015  
4184.000000	64.176654  
4183.000000	64.305925  
4182.000000	64.497542  
4181.000000	64.742636  
4180.000000	65.021777  
4179.000000	65.308761  
4178.000000	65.572714  
4177.000000	65.783858  
4176.000000	65.918350  
4175.000000	65.962982  
4174.000000	65.916848  
4173.000000	65.791225  
4172.000000	65.607881  
4171.000000	65.394496  
4170.000000	65.179467  
4169.000000	64.986801  
4168.000000	64.833593  
4167.000000	64.727807  
4166.000000	64.669585  
4165.000000	64.652752  
4164.000000	64.667701  
4163.000000	64.704346  
4162.000000	64.753556  
4161.000000	64.809203  
4160.000000	64.865565  
4159.000000	64.919638  
4158.000000	64.968109  
4157.000000	65.008997  
4156.000000	65.040063  
4155.000000	65.060186  
4154.000000	65.069460  
4153.000000	65.069842  
4152.000000	65.064764  
4151.000000	65.058994  
4150.000000	65.057849  
4149.000000	65.065407  
4148.000000	65.083551  
4147.000000	65.111994  
4146.000000	65.148711  
4145.000000	65.189743  
4144.000000	65.230226  
4143.000000	65.265464  
4142.000000	65.291738  
4141.000000	65.307021  
4140.000000	65.310811  
4139.000000	65.303182  
4138.000000	65.284800  
4137.000000	65.257382  
4136.000000	65.223479  
4135.000000	65.185856  
4134.000000	65.147924  
4133.000000	65.113592  
4132.000000	65.087080  
4131.000000	65.072607  
4130.000000	65.073084  
4129.000000	65.089488  
4128.000000	65.120220  
4127.000000	65.161299  
4126.000000	65.206789  
4125.000000	65.249633  
4124.000000	65.283441  
4123.000000	65.303874  
4122.000000	65.309405  
4121.000000	65.301609  
4120.000000	65.284705  
4119.000000	65.264487  
4118.000000	65.247058  
4117.000000	65.237545  
4116.000000	65.239572  
4115.000000	65.254449  
4114.000000	65.281629  
4113.000000	65.318751  
4112.000000	65.362334  
4111.000000	65.407943  
4110.000000	65.450739  
4109.000000	65.485858  
4108.000000	65.508890  
4107.000000	65.516352  
4106.000000	65.506482  
4105.000000	65.479254  
4104.000000	65.437078  
4103.000000	65.383982  
4102.000000	65.325856  
4101.000000	65.268540  
4100.000000	65.217351  
4099.000000	65.175652  
4098.000000	65.144515  
4097.000000	65.122890  
4096.000000	65.108346  
4095.000000	65.097880  
4094.000000	65.089011  
4093.000000	65.080404  
4092.000000	65.072154  
4091.000000	65.065526  
4090.000000	65.062141  
4089.000000	65.063428  
4088.000000	65.070152  
4087.000000	65.081834  
4086.000000	65.096783  
4085.000000	65.112495  
4084.000000	65.126132  
4083.000000	65.135359  
4082.000000	65.138554  
4081.000000	65.135169  
4080.000000	65.125608  
4079.000000	65.111041  
4078.000000	65.093159  
4077.000000	65.073680  
4076.000000	65.054154  
4075.000000	65.035820  
4074.000000	65.019130  
4073.000000	65.004062  
4072.000000	64.990258  
4071.000000	64.977335  
4070.000000	64.965415  
4069.000000	64.955115  
4068.000000	64.947748  
4067.000000	64.945125  
4066.000000	64.948725  
4065.000000	64.959025  
4064.000000	64.975118  
4063.000000	64.994668  
4062.000000	65.014147  
4061.000000	65.029644  
4060.000000	65.037846  
4059.000000	65.037250  
4058.000000	65.028500  
4057.000000	65.014815  
4056.000000	65.001010  
4055.000000	64.992570  
4054.000000	64.994263  
4053.000000	65.008878  
4052.000000	65.036392  
4051.000000	65.074157  
4050.000000	65.117835  
4049.000000	65.162158  
4048.000000	65.202307  
4047.000000	65.234756  
4046.000000	65.257763  
4045.000000	65.271282  
4044.000000	65.276646  
4043.000000	65.276050  
4042.000000	65.271830  
4041.000000	65.266036  
4040.000000	65.260362  
4039.000000	65.255641  
4038.000000	65.252041  
4037.000000	65.249300  
4036.000000	65.247058  
4035.000000	65.244913  
4034.000000	65.242552  
4033.000000	65.240049  
4032.000000	65.237665  
4031.000000	65.235710  
4030.000000	65.234208  
4029.000000	65.232968  
4028.000000	65.231037  
4027.000000	65.227079  
4026.000000	65.219330  
4025.000000	65.205836  
4024.000000	65.185093  
4023.000000	65.156602  
4022.000000	65.121126  
4021.000000	65.080618  
4020.000000	65.038156  
4019.000000	64.997267  
4018.000000	64.961409  
4017.000000	64.933085  
4016.000000	64.914107  
4015.000000	64.905214  
4014.000000	64.906430  
4013.000000	64.917111  
4012.000000	64.936399  
4011.000000	64.963340  
4010.000000	64.996910  
4009.000000	65.035915  
4008.000000	65.078997  
4007.000000	65.124583  
4006.000000	65.170741  
4005.000000	65.215158  
4004.000000	65.255475  
4003.000000	65.288925  
4002.000000	65.313339  
4001.000000	65.326666  
4000.000000	65.327596  
3999.000000	65.315461  
3998.000000	65.290999  
3997.000000	65.256094  
3996.000000	65.213322  
3995.000000	65.166306  
3994.000000	65.119433  
3993.000000	65.077209  
3992.000000	65.043878  
3991.000000	65.022540  
3990.000000	65.014791  
3989.000000	65.020394  
3988.000000	65.037202  
3987.000000	65.061354  
3986.000000	65.087985  
3985.000000	65.111875  
3984.000000	65.128374  
3983.000000	65.134286  
3982.000000	65.128278  
3981.000000	65.111017  
3980.000000	65.084934  
3979.000000	65.053486  
3978.000000	65.020871  
3977.000000	64.990997  
3976.000000	64.967441  
3975.000000	64.952611  
3974.000000	64.948320  
3973.000000	64.955902  
3972.000000	64.976215  
3971.000000	65.009689  
3970.000000	65.055537  
3969.000000	65.111708  
3968.000000	65.174031  
3967.000000	65.236663  
3966.000000	65.292143  
3965.000000	65.332508  
3964.000000	65.350842  
3963.000000	65.342736  
3962.000000	65.307331  
3961.000000	65.247750  
3960.000000	65.171337  
3959.000000	65.088295  
3958.000000	65.010571  
3957.000000	64.949822  
3956.000000	64.915251  
3955.000000	64.911699  
3954.000000	64.938879  
3953.000000	64.991354  
3952.000000	65.059351  
3951.000000	65.130925  
3950.000000	65.194129  
3949.000000	65.239739  
3948.000000	65.262484  
3947.000000	65.262269  
3946.000000	65.242838  
3945.000000	65.211153  
3944.000000	65.175271  
3943.000000	65.142607  
3942.000000	65.118360  
3941.000000	65.104508  
3940.000000	65.100884  
3939.000000	65.104794  
3938.000000	65.113186  
3937.000000	65.122604  
3936.000000	65.130257  
3935.000000	65.133905  
3934.000000	65.131974  
3933.000000	65.122699  
3932.000000	65.104150  
3931.000000	65.074634  
3930.000000	65.033149  
3929.000000	64.980268  
3928.000000	64.918613  
3927.000000	64.852547  
3926.000000	64.788007  
3925.000000	64.731502  
3924.000000	64.689445  
3923.000000	64.666604  
3922.000000	64.665913  
3921.000000	64.687371  
3920.000000	64.728808  
3919.000000	64.786458  
3918.000000	64.855575  
3917.000000	64.930820  
3916.000000	65.006875  
3915.000000	65.078759  
3914.000000	65.141701  
3913.000000	65.191531  
3912.000000	65.224480  
3911.000000	65.237617  
3910.000000	65.229177  
3909.000000	65.199565  
3908.000000	65.151047  
3907.000000	65.088033  
3906.000000	65.016508  
3905.000000	64.943766  
3904.000000	64.877009  
3903.000000	64.822411  
3902.000000	64.784193  
3901.000000	64.764070  
3900.000000	64.760756  
3899.000000	64.770269  
3898.000000	64.786958  
3897.000000	64.804673  
3896.000000	64.817190  
3895.000000	64.820098  
3894.000000	64.811134  
3893.000000	64.791274  
3892.000000	64.763593  
3891.000000	64.733314  
3890.000000	64.706254  
3889.000000	64.687442  
3888.000000	64.680337  
3887.000000	64.685750  
3886.000000	64.701533  
3885.000000	64.723825  
3884.000000	64.748311  
3883.000000	64.771151  
3882.000000	64.789628  
3881.000000	64.803004  
3880.000000	64.812350  
3879.000000	64.819788  
3878.000000	64.827609  
3877.000000	64.837479  
3876.000000	64.849925  
3875.000000	64.864826  
3874.000000	64.881706  
3873.000000	64.900374  
3872.000000	64.921069  
3871.000000	64.945507  
3870.000000	64.975976  
3869.000000	65.014457  
3868.000000	65.061545  
3867.000000	65.116262  
3866.000000	65.175318  
3865.000000	65.234065  
3864.000000	65.286469  
3863.000000	65.327358  
3862.000000	65.351772  
3861.000000	65.356564  
3860.000000	65.339803  
3859.000000	65.301632  
3858.000000	65.243721  
3857.000000	65.169548  
3856.000000	65.084028  
3855.000000	64.993357  
3854.000000	64.904379  
3853.000000	64.824056  
3852.000000	64.758753  
3851.000000	64.713358  
3850.000000	64.690709  
3849.000000	64.691472  
3848.000000	64.713716  
3847.000000	64.753532  
3846.000000	64.805555  
3845.000000	64.863920  
3844.000000	64.922595  
3843.000000	64.976596  
3842.000000	65.022277  
3841.000000	65.057945  
3840.000000	65.083122  
3839.000000	65.098786  
3838.000000	65.107035  
3837.000000	65.110182  
3836.000000	65.110707  
3835.000000	65.109848  
3834.000000	65.108156  
3833.000000	65.104675  
3832.000000	65.097713  
3831.000000	65.085363  
3830.000000	65.066266  
3829.000000	65.040612  
3828.000000	65.010404  
3827.000000	64.979481  
3826.000000	64.952516  
3825.000000	64.934539  
3824.000000	64.929747  
3823.000000	64.940190  
3822.000000	64.964938  
3821.000000	65.000391  
3820.000000	65.041065  
3819.000000	65.080213  
3818.000000	65.111517  
3817.000000	65.130019  
3816.000000	65.133285  
3815.000000	65.121603  
3814.000000	65.097761  
3813.000000	65.065908  
3812.000000	65.030789  
3811.000000	64.996862  
3810.000000	64.967322  
3809.000000	64.943981  
3808.000000	64.926934  
3807.000000	64.915418  
3806.000000	64.908146  
3805.000000	64.903950  
3804.000000	64.902424  
3803.000000	64.903569  
3802.000000	64.908337  
3801.000000	64.917683  
3800.000000	64.932608  
3799.000000	64.953660  
3798.000000	64.980483  
3797.000000	65.011811  
3796.000000	65.045523  
3795.000000	65.078854  
3794.000000	65.108919  
3793.000000	65.132951  
3792.000000	65.149068  
3791.000000	65.156388  
3790.000000	65.155076  
3789.000000	65.145969  
3788.000000	65.130496  
3787.000000	65.110254  
3786.000000	65.086793  
3785.000000	65.061855  
3784.000000	65.037298  
3783.000000	65.015411  
3782.000000	64.999032  
3781.000000	64.991211  
3780.000000	64.994335  
3779.000000	65.009784  
3778.000000	65.037488  
3777.000000	65.075349  
3776.000000	65.119385  
3775.000000	65.164303  
3774.000000	65.204572  
3773.000000	65.235137  
3772.000000	65.252518  
3771.000000	65.255141  
3770.000000	65.243339  
3769.000000	65.218925  
3768.000000	65.184664  
3767.000000	65.143275  
3766.000000	65.097475  
3765.000000	65.049767  
3764.000000	65.002679  
3763.000000	64.959144  
3762.000000	64.922261  
3761.000000	64.895296  
3760.000000	64.880967  
3759.000000	64.880728  
3758.000000	64.894771  
3757.000000	64.921259  
3756.000000	64.957380  
3755.000000	64.998888  
3754.000000	65.041637  
3753.000000	65.081977  
3752.000000	65.117716  
3751.000000	65.147590  
3750.000000	65.172028  
3749.000000	65.192174  
3748.000000	65.209579  
3747.000000	65.225291  
3746.000000	65.239620  
3745.000000	65.252041  
3744.000000	65.261244  
3743.000000	65.265774  
3742.000000	65.264892  
3741.000000	65.259027  
3740.000000	65.250015  
3739.000000	65.240764  
3738.000000	65.234827  
3737.000000	65.235495  
3736.000000	65.245199  
3735.000000	65.264511  
3734.000000	65.292143  
3733.000000	65.324735  
3732.000000	65.357947  
3731.000000	65.386652  
3730.000000	65.406274  
3729.000000	65.413117  
3728.000000	65.405297  
3727.000000	65.382862  
3726.000000	65.347790  
3725.000000	65.303421  
3724.000000	65.254068  
3723.000000	65.204024  
3722.000000	65.157532  
3721.000000	65.117454  
3720.000000	65.085458  
3719.000000	65.061545  
3718.000000	65.044546  
3717.000000	65.032386  
3716.000000	65.022683  
3715.000000	65.013527  
3714.000000	65.004038  
3713.000000	64.994502  
3712.000000	64.986276  
3711.000000	64.981365  
3710.000000	64.981770  
3709.000000	64.988756  
3708.000000	65.002202  
3707.000000	65.020656  
3706.000000	65.041494  
3705.000000	65.061283  
3704.000000	65.076541  
3703.000000	65.084600  
3702.000000	65.083956  
3701.000000	65.074682  
3700.000000	65.058374  
3699.000000	65.037584  
3698.000000	65.015411  
3697.000000	64.994931  
3696.000000	64.978551  
3695.000000	64.967942  
3694.000000	64.963579  
3693.000000	64.965558  
3692.000000	64.973020  
3691.000000	64.984631  
3690.000000	64.998722  
3689.000000	65.013647  
3688.000000	65.027904  
3687.000000	65.040040  
3686.000000	65.048909  
3685.000000	65.053701  
3684.000000	65.053892  
3683.000000	65.049076  
3682.000000	65.039134  
3681.000000	65.024423  
3680.000000	65.005874  
3679.000000	64.984917  
3678.000000	64.963746  
3677.000000	64.944839  
3676.000000	64.930582  
3675.000000	64.923310  
3674.000000	64.924359  
3673.000000	64.934539  
3672.000000	64.953589  
3671.000000	64.980387  
3670.000000	65.013074  
3669.000000	65.049219  
3668.000000	65.085887  
3667.000000	65.119957  
3666.000000	65.148520  
3665.000000	65.169143  
3664.000000	65.180206  
3663.000000	65.181326  
3662.000000	65.173387  
3661.000000	65.158629  
3660.000000	65.140390  
3659.000000	65.122294  
3658.000000	65.107917  
3657.000000	65.099620  
3656.000000	65.098261  
3655.000000	65.103125  
3654.000000	65.112447  
3653.000000	65.123772  
3652.000000	65.134930  
3651.000000	65.144515  
3650.000000	65.152621  
3649.000000	65.160274  
3648.000000	65.169167  
3647.000000	65.180706  
3646.000000	65.195488  
3645.000000	65.212869  
3644.000000	65.230989  
3643.000000	65.247249  
3642.000000	65.258812  
3641.000000	65.263772  
3640.000000	65.261220  
3639.000000	65.251755  
3638.000000	65.236973  
3637.000000	65.219306  
3636.000000	65.200996  
3635.000000	65.183711  
3634.000000	65.168642  
3633.000000	65.156626  
3632.000000	65.148544  
3631.000000	65.145325  
3630.000000	65.148472  
3629.000000	65.159535  
3628.000000	65.179753  
3627.000000	65.209317  
3626.000000	65.246701  
3625.000000	65.288424  
3624.000000	65.329623  
3623.000000	65.364694  
3622.000000	65.388441  
3621.000000	65.397143  
3620.000000	65.389585  
3619.000000	65.367054  
3618.000000	65.333366  
3617.000000	65.293598  
3616.000000	65.253210  
3615.000000	65.216755  
3614.000000	65.187358  
3613.000000	65.166020  
3612.000000	65.152168  
3611.000000	65.143847  
3610.000000	65.138769  
3609.000000	65.134572  
3608.000000	65.129709  
3607.000000	65.123438  
3606.000000	65.115904  
3605.000000	65.107893  
3604.000000	65.100455  
3603.000000	65.094780  
3602.000000	65.091967  
3601.000000	65.093135  
3600.000000	65.099072  
3599.000000	65.110516  
3598.000000	65.127658  
3597.000000	65.150284  
3596.000000	65.177297  
3595.000000	65.206766  
3594.000000	65.235900  
3593.000000	65.261316  
3592.000000	65.279436  
3591.000000	65.287256  
3590.000000	65.282702  
3589.000000	65.265488  
3588.000000	65.236949  
3587.000000	65.199971  
3586.000000	65.158534  
3585.000000	65.117335  
3584.000000	65.080666  
3583.000000	65.051698  
3582.000000	65.032267  
3581.000000	65.022516  
3580.000000	65.021395  
3579.000000	65.027165  
3578.000000	65.037798  
3577.000000	65.051364  
3576.000000	65.067028  
3575.000000	65.084791  
3574.000000	65.105080  
3573.000000	65.128421  
3572.000000	65.154552  
3571.000000	65.182328  
3570.000000	65.209531  
3569.000000	65.233540  
3568.000000	65.251660  
3567.000000	65.262269  
3566.000000	65.265393  
3565.000000	65.262770  
3564.000000	65.258049  
3563.000000	65.255451  
3562.000000	65.259170  
3561.000000	65.271830  
3560.000000	65.294218  
3559.000000	65.324234  
3558.000000	65.357875  
3557.000000	65.388917  
3556.000000	65.410590  
3555.000000	65.416264  
3554.000000	65.401458  
3553.000000	65.363693  
3552.000000	65.303492  
3551.000000	65.224242  
3550.000000	65.131926  
3549.000000	65.034437  
3548.000000	64.940595  
3547.000000	64.859127  
3546.000000	64.797377  
3545.000000	64.760661  
3544.000000	64.751338  
3543.000000	64.768290  
3542.000000	64.807248  
3541.000000	64.860892  
3540.000000	64.920568  
3539.000000	64.976763  
3538.000000	65.021562  
3537.000000	65.049481  
3536.000000	65.059065  
3535.000000	65.052056  
3534.000000	65.033745  
3533.000000	65.011143  
3532.000000	64.991784  
3531.000000	64.981937  
3530.000000	64.985346  
3529.000000	65.002894  
3528.000000	65.032339  
3527.000000	65.069484  
3526.000000	65.108656  
3525.000000	65.144324  
3524.000000	65.171909  
3523.000000	65.188765  
3522.000000	65.194201  
3521.000000	65.189290  
3520.000000	65.176701  
3519.000000	65.159964  
3518.000000	65.142536  
3517.000000	65.127015  
3516.000000	65.115213  
3515.000000	65.107560  
3514.000000	65.103316  
3513.000000	65.100598  
3512.000000	65.097117  
3511.000000	65.090656  
3510.000000	65.079545  
3509.000000	65.063071  
3508.000000	65.041327  
3507.000000	65.015649  
3506.000000	64.988279  
3505.000000	64.961910  
3504.000000	64.939045  
3503.000000	64.921998  
3502.000000	64.912271  
3501.000000	64.910817  
3500.000000	64.918017  
3499.000000	64.934110  
3498.000000	64.959049  
3497.000000	64.992427  
3496.000000	65.033197  
3495.000000	65.079402  
3494.000000	65.127992  
3493.000000	65.174508  
3492.000000	65.213537  
3491.000000	65.239405  
3490.000000	65.247440  
3489.000000	65.235161  
3488.000000	65.202975  
3487.000000	65.154671  
3486.000000	65.096712  
3485.000000	65.037655  
3484.000000	64.985942  
3483.000000	64.948320  
3482.000000	64.928722  
3481.000000	64.927554  
3480.000000	64.942359  
3479.000000	64.968681  
3478.000000	65.001487  
3477.000000	65.036606  
3476.000000	65.071129  
3475.000000	65.103363  
3474.000000	65.132331  
3473.000000	65.157103  
3472.000000	65.176081  
3471.000000	65.186858  
3470.000000	65.186715  
3469.000000	65.173387  
3468.000000	65.146088  
3467.000000	65.106391  
3466.000000	65.058326  
3465.000000	65.007829  
3464.000000	64.961767  
3463.000000	64.926576  
3462.000000	64.906430  
3461.000000	64.902853  
3460.000000	64.914441  
3459.000000	64.937591  
3458.000000	64.967203  
3457.000000	64.997935  
3456.000000	65.025329  
3455.000000	65.046834  
3454.000000	65.061283  
3453.000000	65.069723  
3452.000000	65.073966  
3451.000000	65.076637  
3450.000000	65.080285  
3449.000000	65.086507  
3448.000000	65.095734  
3447.000000	65.107131  
3446.000000	65.119051  
3445.000000	65.129375  
3444.000000	65.136075  
3443.000000	65.137767  
3442.000000	65.134096  
3441.000000	65.125775  
3440.000000	65.114378  
3439.000000	65.101814  
3438.000000	65.089964  
3437.000000	65.079903  
3436.000000	65.071845  
3435.000000	65.065026  
3434.000000	65.058088  
3433.000000	65.049505  
3432.000000	65.038156  
3431.000000	65.023827  
3430.000000	65.007185  
3429.000000	64.989686  
3428.000000	64.973115  
3427.000000	64.958882  
3426.000000	64.948391  
3425.000000	64.942693  
3424.000000	64.942908  
3423.000000	64.949584  
3422.000000	64.963507  
3421.000000	64.985537  
3420.000000	65.016317  
3419.000000	65.055775  
3418.000000	65.102815  
3417.000000	65.155076  
3416.000000	65.209031  
3415.000000	65.260100  
3414.000000	65.303468  
3413.000000	65.334820  
3412.000000	65.351295  
3411.000000	65.351939  
3410.000000	65.337872  
3409.000000	65.311861  
3408.000000	65.278267  
3407.000000	65.241694  
3406.000000	65.206527  
3405.000000	65.175771  
3404.000000	65.151214  
3403.000000	65.132665  
3402.000000	65.118598  
3401.000000	65.106320  
3400.000000	65.092849  
3399.000000	65.075802  
3398.000000	65.053868  
3397.000000	65.027427  
3396.000000	64.998412  
3395.000000	64.969968  
3394.000000	64.945578  
3393.000000	64.928555  
3392.000000	64.920830  
3391.000000	64.922857  
3390.000000	64.933395  
3389.000000	64.949750  
3388.000000	64.968609  
3387.000000	64.986944  
3386.000000	65.002989  
3385.000000	65.016436  
3384.000000	65.028309  
3383.000000	65.040373  
3382.000000	65.054392  
3381.000000	65.071344  
3380.000000	65.090799  
3379.000000	65.111041  
3378.000000	65.129113  
3377.000000	65.142107  
3376.000000	65.147542  
3375.000000	65.144062  
3374.000000	65.131855  
3373.000000	65.112781  
3372.000000	65.090084  
3371.000000	65.067672  
3370.000000	65.049266  
3369.000000	65.037751  
3368.000000	65.034508  
3367.000000	65.039110  
3366.000000	65.049386  
3365.000000	65.062189  
3364.000000	65.073752  
3363.000000	65.080738  
3362.000000	65.080928  
3361.000000	65.073943  
3360.000000	65.061521  
3359.000000	65.047216  
3358.000000	65.035772  
3357.000000	65.032052  
3356.000000	65.040206  
3355.000000	65.062665  
3354.000000	65.099477  
3353.000000	65.147924  
3352.000000	65.203547  
3351.000000	65.260195  
3350.000000	65.311646  
3349.000000	65.351819  
3348.000000	65.376234  
3347.000000	65.381789  
3346.000000	65.367794  
3345.000000	65.335392  
3344.000000	65.287613  
3343.000000	65.229201  
3342.000000	65.165829  
3341.000000	65.103721  
3340.000000	65.048885  
3339.000000	65.006422  
3338.000000	64.980196  
3337.000000	64.971971  
3336.000000	64.981484  
3335.000000	65.006089  
3334.000000	65.041589  
3333.000000	65.082502  
3332.000000	65.123105  
3331.000000	65.158081  
3330.000000	65.183377  
3329.000000	65.196752  
3328.000000	65.197801  
3327.000000	65.187811  
3326.000000	65.169119  
3325.000000	65.144681  
3324.000000	65.117263  
3323.000000	65.089106  
3322.000000	65.061736  
3321.000000	65.036225  
3320.000000	65.013074  
3319.000000	64.992475  
3318.000000	64.974665  
3317.000000	64.960074  
3316.000000	64.949274  
3315.000000	64.942812  
3314.000000	64.941263  
3313.000000	64.944744  
3312.000000	64.953398  
3311.000000	64.967012  
3310.000000	64.985013  
3309.000000	65.006375  
3308.000000	65.029835  
3307.000000	65.053915  
3306.000000	65.076637  
3305.000000	65.095782  
3304.000000	65.109181  
3303.000000	65.115070  
3302.000000	65.112519  
3301.000000	65.101695  
3300.000000	65.083909  
3299.000000	65.061163  
3298.000000	65.036106  
3297.000000	65.011167  
3296.000000	64.988207  
3295.000000	64.968371  
3294.000000	64.952039  
3293.000000	64.939188  
3292.000000	64.929723  
3291.000000	64.923834  
3290.000000	64.921927  
3289.000000	64.924955  
3288.000000	64.933753  
3287.000000	64.948844  
3286.000000	64.969825  
3285.000000	64.995694  
3284.000000	65.024566  
3283.000000	65.054202  
3282.000000	65.082263  
3281.000000	65.107059  
3280.000000	65.127682  
3279.000000	65.143847  
3278.000000	65.155839  
3277.000000	65.164065  
3276.000000	65.168976  
3275.000000	65.170931  
3274.000000	65.170097  
3273.000000	65.166687  
3272.000000	65.160655  
3271.000000	65.152454  
3270.000000	65.142202  
3269.000000	65.130257  
3268.000000	65.116596  
3267.000000	65.101289  
3266.000000	65.084409  
3265.000000	65.066123  
3264.000000	65.047168  
3263.000000	65.028691  
3262.000000	65.012645  
3261.000000	65.001392  
3260.000000	64.997410  
3259.000000	65.002655  
3258.000000	65.018177  
3257.000000	65.043616  
3256.000000	65.077257  
3255.000000	65.116357  
3254.000000	65.157270  
3253.000000	65.196394  
3252.000000	65.230655  
3251.000000	65.257859  
3250.000000	65.276932  
3249.000000	65.287566  
3248.000000	65.290546  
3247.000000	65.286779  
3246.000000	65.277314  
3245.000000	65.262889  
3244.000000	65.243840  
3243.000000	65.220212  
3242.000000	65.192341  
3241.000000	65.160965  
3240.000000	65.127706  
3239.000000	65.095019  
3238.000000	65.065884  
3237.000000	65.043568  
3236.000000	65.030717  
3235.000000	65.028905  
3234.000000	65.037751  
3233.000000	65.055489  
3232.000000	65.078878  
3231.000000	65.103960  
3230.000000	65.126705  
3229.000000	65.144276  
3228.000000	65.155577  
3227.000000	65.160989  
3226.000000	65.162062  
3225.000000	65.160846  
3224.000000	65.159225  
3223.000000	65.158152  
3222.000000	65.157628  
3221.000000	65.157246  
3220.000000	65.156412  
3219.000000	65.155124  
3218.000000	65.154004  
3217.000000	65.154266  
3216.000000	65.157175  
3215.000000	65.163683  
3214.000000	65.173697  
3213.000000	65.185666  
3212.000000	65.197014  
3211.000000	65.204954  
3210.000000	65.206885  
3209.000000	65.201258  
3208.000000	65.187573  
3207.000000	65.167164  
3206.000000	65.141367  
3205.000000	65.111446  
3204.000000	65.077853  
3203.000000	65.040326  
3202.000000	64.998435  
3201.000000	64.952325  
3200.000000	64.903593  
3199.000000	64.855551  
3198.000000	64.813184  
3197.000000	64.782309  
3196.000000	64.767765  
3195.000000	64.772439  
3194.000000	64.795875  
3193.000000	64.834761  
3192.000000	64.882898  
3191.000000	64.933419  
3190.000000	64.979839  
3189.000000	65.018153  
3188.000000	65.047311  
3187.000000	65.069293  
3186.000000	65.087842  
3185.000000	65.107560  
3184.000000	65.131735  
3183.000000	65.161967  
3182.000000	65.197682  
3181.000000	65.236377  
3180.000000	65.274786  
3179.000000	65.309333  
3178.000000	65.337371  
3177.000000	65.356993  
3176.000000	65.367579  
3175.000000	65.369200  
3174.000000	65.362215  
3173.000000	65.347385  
3172.000000	65.325760  
3171.000000	65.298533  
3170.000000	65.267443  
3169.000000	65.234994  
3168.000000	65.204501  
3167.000000	65.179729  
3166.000000	65.164375  
3165.000000	65.161061  
3164.000000	65.171003  
3163.000000	65.193510  
3162.000000	65.225934  
3161.000000	65.264225  
3160.000000	65.303492  
3159.000000	65.339183  
3158.000000	65.367412  
3157.000000	65.385389  
3156.000000	65.391874  
3155.000000	65.386939  
3154.000000	65.371632  
3153.000000	65.347552  
3152.000000	65.316963  
3151.000000	65.282750  
3150.000000	65.248537  
3149.000000	65.218162  
3148.000000	65.195751  
3147.000000	65.185332  
3146.000000	65.189504  
3145.000000	65.208649  
3144.000000	65.240216  
3143.000000	65.278887  
3142.000000	65.317034  
3141.000000	65.346384  
3140.000000	65.359640  
3139.000000	65.352654  
3138.000000	65.325617  
3137.000000	65.283370  
3136.000000	65.234327  
3135.000000	65.188622  
3134.000000	65.156126  
3133.000000	65.143561  
3132.000000	65.153479  
3131.000000	65.183234  
3130.000000	65.226101  
3129.000000	65.272498  
3128.000000	65.312957  
3127.000000	65.339446  
3126.000000	65.347313  
3125.000000	65.335464  
3124.000000	65.305995  
3123.000000	65.263295  
3122.000000	65.212345  
3121.000000	65.158176  
3120.000000	65.104913  
3119.000000	65.055704  
3118.000000	65.013027  
3117.000000	64.978909  
3116.000000	64.955353  
3115.000000	64.944052  
3114.000000	64.946699  
3113.000000	64.964461  
3112.000000	64.997768  
3111.000000	65.045356  
3110.000000	65.104436  
3109.000000	65.170383  
3108.000000	65.237307  
3107.000000	65.298581  
3106.000000	65.347623  
3105.000000	65.378904  
3104.000000	65.388774  
3103.000000	65.376567  
3102.000000	65.344357  
3101.000000	65.296769  
3100.000000	65.240120  
3099.000000	65.181756  
3098.000000	65.128183  
3097.000000	65.084409  
3096.000000	65.052676  
3095.000000	65.032744  
3094.000000	65.022158  
3093.000000	65.017294  
3092.000000	65.014481  
3091.000000	65.010881  
3090.000000	65.004849  
3089.000000	64.996290  
3088.000000	64.985990  
3087.000000	64.975690  
3086.000000	64.966821  
3085.000000	64.960670  
3084.000000	64.957761  
3083.000000	64.958357  
3082.000000	64.962577  
3081.000000	64.970588  
3080.000000	64.982724  
3079.000000	64.999437  
3078.000000	65.020990  
3077.000000	65.047240  
3076.000000	65.077066  
3075.000000	65.108585  
3074.000000	65.139317  
3073.000000	65.166425  
3072.000000	65.187668  
3071.000000	65.201067  
3070.000000	65.205621  
3069.000000	65.201354  
3068.000000	65.189623  
3067.000000	65.172433  
3066.000000	65.152263  
3065.000000	65.131878  
3064.000000	65.113973  
3063.000000	65.100765  
3062.000000	65.093398  
3061.000000	65.092206  
3060.000000	65.096330  
3059.000000	65.104055  
3058.000000	65.113186  
3057.000000	65.121126  
3056.000000	65.125751  
3055.000000	65.125775  
3054.000000	65.121173  
3053.000000	65.112805  
3052.000000	65.102624  
3051.000000	65.093064  
3050.000000	65.086817  
3049.000000	65.085887  
3048.000000	65.091943  
3047.000000	65.105962  
3046.000000	65.128254  
3045.000000	65.158462  
3044.000000	65.195536  
3043.000000	65.237808  
3042.000000	65.282940  
3041.000000	65.327811  
3040.000000	65.369224  
3039.000000	65.404105  
3038.000000	65.429949  
3037.000000	65.445113  
3036.000000	65.449357  
3035.000000	65.443658  
3034.000000	65.430116  
3033.000000	65.411472  
3032.000000	65.390443  
3031.000000	65.368962  
3030.000000	65.348267  
3029.000000	65.328645  
3028.000000	65.309762  
3027.000000	65.290808  
3026.000000	65.271472  
3025.000000	65.251851  
3024.000000	65.232419  
3023.000000	65.214228  
3022.000000	65.198278  
3021.000000	65.185737  
3020.000000	65.177154  
3019.000000	65.172648  
3018.000000	65.171670  
3017.000000	65.172910  
3016.000000	65.174746  
3015.000000	65.175151  
3014.000000	65.172100  
3013.000000	65.164232  
3012.000000	65.151238  
3011.000000	65.133690  
3010.000000	65.113282  
3009.000000	65.092682  
3008.000000	65.075135  
3007.000000	65.063524  
3006.000000	65.059995  
3005.000000	65.065455  
3004.000000	65.079665  
3003.000000	65.100836  
3002.000000	65.126609  
3001.000000	65.154600  
3000.000000	65.183091  
2999.000000	65.211057  
2998.000000	65.238451  
2997.000000	65.265583  
2996.000000	65.292406  
2995.000000	65.318655  
2994.000000	65.342855  
2993.000000	65.363073  
2992.000000	65.376591  
2991.000000	65.381336  
2990.000000	65.375566  
2989.000000	65.358638  
2988.000000	65.330982  
2987.000000	65.294384  
2986.000000	65.251421  
2985.000000	65.205311  
2984.000000	65.159296  
2983.000000	65.116357  
2982.000000	65.078783  
2981.000000	65.048050  
2980.000000	65.024542  
2979.000000	65.007805  
2978.000000	64.996361  
2977.000000	64.988350  
2976.000000	64.981460  
2975.000000	64.973831  
2974.000000	64.963984  
2973.000000	64.951539  
2972.000000	64.936852  
2971.000000	64.921331  
2970.000000	64.906620  
2969.000000	64.894604  
2968.000000	64.886713  
2967.000000	64.883828  
2966.000000	64.886188  
2965.000000	64.893460  
2964.000000	64.904642  
2963.000000	64.918398  
2962.000000	64.933133  
2961.000000	64.947247  
2960.000000	64.959120  
2959.000000	64.967751  
2958.000000	64.972615  
2957.000000	64.974021  
2956.000000	64.972877  
2955.000000	64.970564  
2954.000000	64.968609  
2953.000000	64.968490  
2952.000000	64.971303  
2951.000000	64.977431  
2950.000000	64.986729  
2949.000000	64.998745  
2948.000000	65.012788  
2947.000000	65.028333  
2946.000000	65.044927  
2945.000000	65.062403  
2944.000000	65.080571  
2943.000000	65.099072  
2942.000000	65.116906  
2941.000000	65.132713  
2940.000000	65.144681  
2939.000000	65.150737  
2938.000000	65.149068  
2937.000000	65.138983  
2936.000000	65.120625  
2935.000000	65.095376  
2934.000000	65.065383  
2933.000000	65.033388  
2932.000000	65.001749  
2931.000000	64.972305  
2930.000000	64.945697  
2929.000000	64.921689  
2928.000000	64.899396  
2927.000000	64.877986  
2926.000000	64.856886  
2925.000000	64.836335  
2924.000000	64.817023  
2923.000000	64.800119  
2922.000000	64.786529  
2921.000000	64.776730  
2920.000000	64.770436  
2919.000000	64.767074  
2918.000000	64.765334  
2917.000000	64.764332  
2916.000000	64.763712  
2915.000000	64.764332  
2914.000000	64.767456  
2913.000000	64.775109  
2912.000000	64.789414  
2911.000000	64.811658  
2910.000000	64.841866  
2909.000000	64.878296  
2908.000000	64.917445  
2907.000000	64.954662  
2906.000000	64.985275  
2905.000000	65.005373  
2904.000000	65.012836  
2903.000000	65.008020  
2902.000000	64.993715  
2901.000000	64.974308  
2900.000000	64.954781  
2899.000000	64.939832  
2898.000000	64.932608  
2897.000000	64.934277  
2896.000000	64.943861  
2895.000000	64.958882  
2894.000000	64.975881  
2893.000000	64.991426  
2892.000000	65.002775  
2891.000000	65.008378  
2890.000000	65.008068  
2889.000000	65.002512  
2888.000000	64.993524  
2887.000000	64.982867  
2886.000000	64.972901  
2885.000000	64.965796  
2884.000000	64.963507  
2883.000000	64.967656  
2882.000000	64.979290  
2881.000000	64.998912  
2880.000000	65.025877  
2879.000000	65.058326  
2878.000000	65.093731  
2877.000000	65.129041  
2876.000000	65.161108  
2875.000000	65.187096  
2874.000000	65.205144  
2873.000000	65.214395  
2872.000000	65.215182  
2871.000000	65.208816  
2870.000000	65.197157  
2869.000000	65.181946  
2868.000000	65.165257  
2867.000000	65.148758  
2866.000000	65.133738  
2865.000000	65.120887  
2864.000000	65.110969  
2863.000000	65.104103  
2862.000000	65.100264  
2861.000000	65.098738  
2860.000000	65.098571  
2859.000000	65.098333  
2858.000000	65.096449  
2857.000000	65.091300  
2856.000000	65.081548  
2855.000000	65.065979  
2854.000000	65.043902  
2853.000000	65.014910  
2852.000000	64.979290  
2851.000000	64.938092  
2850.000000	64.893364  
2849.000000	64.847993  
2848.000000	64.805769  
2847.000000	64.771175  
2846.000000	64.748930  
2845.000000	64.742922  
2844.000000	64.755845  
2843.000000	64.788365  
2842.000000	64.839029  
2841.000000	64.903712  
2840.000000	64.976525  
2839.000000	65.050363  
2838.000000	65.118050  
2837.000000	65.173482  
2836.000000	65.212535  
2835.000000	65.233325  
2834.000000	65.236568  
2833.000000	65.225267  
2832.000000	65.203857  
2831.000000	65.177392  
2830.000000	65.150403  
2829.000000	65.126919  
2828.000000	65.109157  
2827.000000	65.098047  
2826.000000	65.092873  
2825.000000	65.092301  
2824.000000	65.094327  
2823.000000	65.096926  
2822.000000	65.098428  
2821.000000	65.097808  
2820.000000	65.094637  
2819.000000	65.089035  
2818.000000	65.081691  
2817.000000	65.073704  
2816.000000	65.066266  
2815.000000	65.060710  
2814.000000	65.058183  
2813.000000	65.059518  
2812.000000	65.065097  
2811.000000	65.074682  
2810.000000	65.087270  
2809.000000	65.101313  
2808.000000	65.115070  
2807.000000	65.126800  
2806.000000	65.135002  
2805.000000	65.138983  
2804.000000	65.139126  
2803.000000	65.136814  
2802.000000	65.133976  
2801.000000	65.132832  
2800.000000	65.135216  
2799.000000	65.142297  
2798.000000	65.154218  
2797.000000	65.170001  
2796.000000	65.187835  
2795.000000	65.205597  
2794.000000	65.221428  
2793.000000	65.233874  
2792.000000	65.242385  
2791.000000	65.247154  
2790.000000	65.249204  
2789.000000	65.249967  
2788.000000	65.250682  
2787.000000	65.252590  
2786.000000	65.256142  
2785.000000	65.261268  
2784.000000	65.267157  
2783.000000	65.272831  
2782.000000	65.276932  
2781.000000	65.278267  
2780.000000	65.275764  
2779.000000	65.268778  
2778.000000	65.257143  
2777.000000	65.241217  
2776.000000	65.221500  
2775.000000	65.198874  
2774.000000	65.174341  
2773.000000	65.149044  
2772.000000	65.124201  
2771.000000	65.100932  
2770.000000	65.080547  
2769.000000	65.064287  
2768.000000	65.053367  
2767.000000	65.048718  
2766.000000	65.050911  
2765.000000	65.059924  
2764.000000	65.074992  
2763.000000	65.094733  
2762.000000	65.117287  
2761.000000	65.140962  
2760.000000	65.164041  
2759.000000	65.185546  
2758.000000	65.205097  
2757.000000	65.223026  
2756.000000	65.239930  
2755.000000	65.256595  
2754.000000	65.273427  
2753.000000	65.289950  
2752.000000	65.305161  
2751.000000	65.317130  
2750.000000	65.323877  
2749.000000	65.323352  
2748.000000	65.314555  
2747.000000	65.297293  
2746.000000	65.272951  
2745.000000	65.243935  
2744.000000	65.213632  
2743.000000	65.185427  
2742.000000	65.162301  
2741.000000	65.146160  
2740.000000	65.137648  
2739.000000	65.135931  
2738.000000	65.139007  
2737.000000	65.144348  
2736.000000	65.149617  
2735.000000	65.153002  
2734.000000	65.153837  
2733.000000	65.152215  
2732.000000	65.149164  
2731.000000	65.146040  
2730.000000	65.144062  
2729.000000	65.143847  
2728.000000	65.145182  
2727.000000	65.147185  
2726.000000	65.148472  
2725.000000	65.147662  
2724.000000	65.143728  
2723.000000	65.136384  
2722.000000	65.126204  
2721.000000	65.114426  
2720.000000	65.102767  
2719.000000	65.092992  
2718.000000	65.086555  
2717.000000	65.084338  
2716.000000	65.086650  
2715.000000	65.093326  
2714.000000	65.103864  
2713.000000	65.117621  
2712.000000	65.133762  
2711.000000	65.151262  
2710.000000	65.168929  
2709.000000	65.185213  
2708.000000	65.198469  
2707.000000	65.206813  
2706.000000	65.208745  
2705.000000	65.203332  
2704.000000	65.190744  
2703.000000	65.172219  
2702.000000	65.150284  
2701.000000	65.128183  
2700.000000	65.109276  
2699.000000	65.096402  
2698.000000	65.091538  
2697.000000	65.095090  
2696.000000	65.105938  
2695.000000	65.121889  
2694.000000	65.140104  
2693.000000	65.157866  
2692.000000	65.172982  
2691.000000	65.184283  
2690.000000	65.191769  
2689.000000	65.196275  
2688.000000	65.199089  
2687.000000	65.201592  
2686.000000	65.204715  
2685.000000	65.208649  
2684.000000	65.212750  
2683.000000	65.215802  
2682.000000	65.216302  
2681.000000	65.213084  
2680.000000	65.205574  
2679.000000	65.193986  
2678.000000	65.179443  
2677.000000	65.163803  
2676.000000	65.149569  
2675.000000	65.138983  
2674.000000	65.134310  
2673.000000	65.137171  
2672.000000	65.148496  
2671.000000	65.168309  
2670.000000	65.195584  
2669.000000	65.228414  
2668.000000	65.263986  
2667.000000	65.299034  
2666.000000	65.330195  
2665.000000	65.354514  
2664.000000	65.369772  
2663.000000	65.374946  
2662.000000	65.370202  
2661.000000	65.356779  
2660.000000	65.336656  
2659.000000	65.312361  
2658.000000	65.286231  
2657.000000	65.260028  
2656.000000	65.235114  
2655.000000	65.212249  
2654.000000	65.192031  
2653.000000	65.174865  
2652.000000	65.161442  
2651.000000	65.152478  
2650.000000	65.148591  
2649.000000	65.150070  
2648.000000	65.156364  
2647.000000	65.166234  
2646.000000	65.177822  
2645.000000	65.188884  
2644.000000	65.197277  
2643.000000	65.201163  
2642.000000	65.199613  
2641.000000	65.192461  
2640.000000	65.180420  
2639.000000	65.165066  
2638.000000	65.148353  
2637.000000	65.132474  
2636.000000	65.119361  
2635.000000	65.110492  
2634.000000	65.106821  
2633.000000	65.108561  
2632.000000	65.115237  
2631.000000	65.125823  
2630.000000	65.138936  
2629.000000	65.153050  
2628.000000	65.166735  
2627.000000	65.178823  
2626.000000	65.188431  
2625.000000	65.195226  
2624.000000	65.199160  
2623.000000	65.200185  
2622.000000	65.198302  
2621.000000	65.193438  
2620.000000	65.185546  
2619.000000	65.174770  
2618.000000	65.161538  
2617.000000	65.146851  
2616.000000	65.131878  
2615.000000	65.118098  
2614.000000	65.106725  
2613.000000	65.098738  
2612.000000	65.094566  
2611.000000	65.094089  
2610.000000	65.096974  
2609.000000	65.102624  
2608.000000	65.110349  
2607.000000	65.119481  
2606.000000	65.129542  
2605.000000	65.140223  
2604.000000	65.151357  
2603.000000	65.162754  
2602.000000	65.174341  
2601.000000	65.185952  
2600.000000	65.197563  
2599.000000	65.208983  
2598.000000	65.220069  
2597.000000	65.230560  
2596.000000	65.240049  
2595.000000	65.248131  
2594.000000	65.254378  
2593.000000	65.258359  
2592.000000	65.260076  
2591.000000	65.259790  
2590.000000	65.258026  
2589.000000	65.255665  
2588.000000	65.253496  
2587.000000	65.252232  
2586.000000	65.252447  
2585.000000	65.254402  
2584.000000	65.258193  
2583.000000	65.263700  
2582.000000	65.270876  
2581.000000	65.279388  
2580.000000	65.288758  
2579.000000	65.298008  
2578.000000	65.305972  
2577.000000	65.311121  
2576.000000	65.312004  
2575.000000	65.307641  
2574.000000	65.297627  
2573.000000	65.282845  
2572.000000	65.265154  
2571.000000	65.247297  
2570.000000	65.232014  
2569.000000	65.221500  
2568.000000	65.216875  
2567.000000	65.217709  
2566.000000	65.222311  
2565.000000	65.228271  
2564.000000	65.233063  
2563.000000	65.234947  
2562.000000	65.233278  
2561.000000	65.228748  
2560.000000	65.222954  
2559.000000	65.217757  
2558.000000	65.214729  
2557.000000	65.214323  
2556.000000	65.216016  
2555.000000	65.218234  
2554.000000	65.219020  
2553.000000	65.216636  
2552.000000	65.210127  
2551.000000	65.199565  
2550.000000	65.185904  
2549.000000	65.170645  
2548.000000	65.155196  
2547.000000	65.140676  
2546.000000	65.127778  
2545.000000	65.116834  
2544.000000	65.108060  
2543.000000	65.101599  
2542.000000	65.097928  
2541.000000	65.097355  
2540.000000	65.100121  
2539.000000	65.106105  
2538.000000	65.114355  
2537.000000	65.123462  
2536.000000	65.131521  
2535.000000	65.137004  
2534.000000	65.138840  
2533.000000	65.137004  
2532.000000	65.132832  
2531.000000	65.128517  
2530.000000	65.126419  
2529.000000	65.128636  
2528.000000	65.136289  
2527.000000	65.149235  
2526.000000	65.166020  
2525.000000	65.184402  
2524.000000	65.201854  
2523.000000	65.215969  
2522.000000	65.225005  
2521.000000	65.228128  
2520.000000	65.225505  
2519.000000	65.218067  
2518.000000	65.207362  
2517.000000	65.194797  
2516.000000	65.181875  
2515.000000	65.169501  
2514.000000	65.158486  
2513.000000	65.149307  
2512.000000	65.142655  
2511.000000	65.139293  
2510.000000	65.140557  
2509.000000	65.147781  
2508.000000	65.162420  
2507.000000	65.185332  
2506.000000	65.216636  
2505.000000	65.255069  
2504.000000	65.298104  
2503.000000	65.342164  
2502.000000	65.383267  
2501.000000	65.417647  
2500.000000	65.442919  
2499.000000	65.458559  
2498.000000	65.465927  
2497.000000	65.467762  
2496.000000	65.467071  
2495.000000	65.466284  
2494.000000	65.466237  
2493.000000	65.465760  
2492.000000	65.462112  
2491.000000	65.451979  
2490.000000	65.432548  
2489.000000	65.402913  
2488.000000	65.364813  
2487.000000	65.322446  
2486.000000	65.281844  
2485.000000	65.249490  
2484.000000	65.230631  
2483.000000	65.228176  
2482.000000	65.241742  
2481.000000	65.267944  
2480.000000	65.301322  
2479.000000	65.335345  
2478.000000	65.364146  
2477.000000	65.383291  
2476.000000	65.390586  
2475.000000	65.385985  
2474.000000	65.370941  
2473.000000	65.348172  
2472.000000	65.320730  
2471.000000	65.291786  
2470.000000	65.263915  
2469.000000	65.239357  
2468.000000	65.219950  
2467.000000	65.206933  
2466.000000	65.200996  
2465.000000	65.201878  
2464.000000	65.208292  
2463.000000	65.218043  
2462.000000	65.228390  
2461.000000	65.236306  
2460.000000	65.239262  
2459.000000	65.235495  
2458.000000	65.224385  
2457.000000	65.206861  
2456.000000	65.184688  
2455.000000	65.160155  
2454.000000	65.135383  
2453.000000	65.111851  
2452.000000	65.090322  
2451.000000	65.071177  
2450.000000	65.054178  
2449.000000	65.038919  
2448.000000	65.025019  
2447.000000	65.012645  
2446.000000	65.002226  
2445.000000	64.994311  
2444.000000	64.989447  
2443.000000	64.988207  
2442.000000	64.991235  
2441.000000	64.999294  
2440.000000	65.013480  
2439.000000	65.034747  
2438.000000	65.063667  
2437.000000	65.099358  
2436.000000	65.139698  
2435.000000	65.180230  
2434.000000	65.214562  
2433.000000	65.235257  
2432.000000	65.235114  
2431.000000	65.209245  
2430.000000	65.156102  
2429.000000	65.079283  
2428.000000	64.986920  
2427.000000	64.891624  
2426.000000	64.807772  
2425.000000	64.749312  
2424.000000	64.726686  
2423.000000	64.744710  
2422.000000	64.801549  
2421.000000	64.888906  
2420.000000	64.993977  
2419.000000	65.101885  
2418.000000	65.198898  
2417.000000	65.274906  
2416.000000	65.324926  
2415.000000	65.349388  
2414.000000	65.353369  
2413.000000	65.344738  
2412.000000	65.331673  
2411.000000	65.320992  
2410.000000	65.316581  
2409.000000	65.319657  
2408.000000	65.328264  
2407.000000	65.339517  
2406.000000	65.349769  
2405.000000	65.356349  
2404.000000	65.357899  
2403.000000	65.354490  
2402.000000	65.347409  
2401.000000	65.338134  
2400.000000	65.328240  
2399.000000	65.318870  
2398.000000	65.310597  
2397.000000	65.303659  
2396.000000	65.297865  
2395.000000	65.292716  
2394.000000	65.287661  
2393.000000	65.282416  
2392.000000	65.277028  
2391.000000	65.271878  
2390.000000	65.267491  
2389.000000	65.264463  
2388.000000	65.263485  
2387.000000	65.265035  
2386.000000	65.268850  
2385.000000	65.274024  
2384.000000	65.279173  
2383.000000	65.282821  
2382.000000	65.283513  
2381.000000	65.279960  
2380.000000	65.271496  
2379.000000	65.258216  
2378.000000	65.240812  
2377.000000	65.220713  
2376.000000	65.199565  
2375.000000	65.178871  
2374.000000	65.160036  
2373.000000	65.144181  
2372.000000	65.132188  
2371.000000	65.124773  
2370.000000	65.122461  
2369.000000	65.125274  
2368.000000	65.132665  
2367.000000	65.143585  
2366.000000	65.156507  
2365.000000	65.169763  
2364.000000	65.181922  
2363.000000	65.192127  
2362.000000	65.200161  
2361.000000	65.206503  
2360.000000	65.211892  
2359.000000	65.217089  
2358.000000	65.222597  
2357.000000	65.228462  
2356.000000	65.234327  
2355.000000	65.239667  
2354.000000	65.243816  
2353.000000	65.246415  
2352.000000	65.247178  
2351.000000	65.246367  
2350.000000	65.244197  
2349.000000	65.240693  
2348.000000	65.235614  
2347.000000	65.228629  
2346.000000	65.219306  
2345.000000	65.207290  
2344.000000	65.192842  
2343.000000	65.176987  
2342.000000	65.161156  
2341.000000	65.147018  
2340.000000	65.136027  
2339.000000	65.129089  
2338.000000	65.126276  
2337.000000	65.127110  
2336.000000	65.130424  
2335.000000	65.134763  
2334.000000	65.139031  
2333.000000	65.142488  
2332.000000	65.144896  
2331.000000	65.146422  
2330.000000	65.147709  
2329.000000	65.149402  
2328.000000	65.152025  
2327.000000	65.155744  
2326.000000	65.160393  
2325.000000	65.165686  
2324.000000	65.171360  
2323.000000	65.177345  
2322.000000	65.183854  
2321.000000	65.191483  
2320.000000	65.200924  
2319.000000	65.212702  
2318.000000	65.227007  
2317.000000	65.243339  
2316.000000	65.260505  
2315.000000	65.276741  
2314.000000	65.289855  
2313.000000	65.297794  
2312.000000	65.299201  
2311.000000	65.293717  
2310.000000	65.282154  
2309.000000	65.266609  
2308.000000	65.249872  
2307.000000	65.234708  
2306.000000	65.223312  
2305.000000	65.216708  
2304.000000	65.214586  
2303.000000	65.215611  
2302.000000	65.217685  
2301.000000	65.218830  
2300.000000	65.217685  
2299.000000	65.213966  
2298.000000	65.208601  
2297.000000	65.203166  
2296.000000	65.199518  
2295.000000	65.199255  
2294.000000	65.203189  
2293.000000	65.210890  
2292.000000	65.221190  
2291.000000	65.232324  
2290.000000	65.242576  
2289.000000	65.250778  
2288.000000	65.256500  
2287.000000	65.260124  
2286.000000	65.262508  
2285.000000	65.264630  
2284.000000	65.267038  
2283.000000	65.269660  
2282.000000	65.271735  
2281.000000	65.272021  
2280.000000	65.269327  
2279.000000	65.263009  
2278.000000	65.253090  
2277.000000	65.240645  
2276.000000	65.227317  
2275.000000	65.215253  
2274.000000	65.206217  
2273.000000	65.201377  
2272.000000	65.201044  
2271.000000	65.204811  
2270.000000	65.211486  
2269.000000	65.219831  
2268.000000	65.228796  
2267.000000	65.237879  
2266.000000	65.247154  
2265.000000	65.257072  
2264.000000	65.267944  
2263.000000	65.279936  
2262.000000	65.292859  
2261.000000	65.305972  
2260.000000	65.318250  
2259.000000	65.328645  
2258.000000	65.336465  
2257.000000	65.341329  
2256.000000	65.343117  
2255.000000	65.341877  
2254.000000	65.337753  
2253.000000	65.330529  
2252.000000	65.319800  
2251.000000	65.304970  
2250.000000	65.285348  
2249.000000	65.260696  
2248.000000	65.231060  
2247.000000	65.197157  
2246.000000	65.160369  
2245.000000	65.122604  
2244.000000	65.086388  
2243.000000	65.054035  
2242.000000	65.028190  
2241.000000	65.010952  
2240.000000	65.004229  
2239.000000	65.009117  
2238.000000	65.026021  
2237.000000	65.054225  
2236.000000	65.092158  
2235.000000	65.136909  
2234.000000	65.185070  
2233.000000	65.232777  
2232.000000	65.276479  
2231.000000	65.313053  
2230.000000	65.340495  
2229.000000	65.357899  
2228.000000	65.365576  
2227.000000	65.364885  
2226.000000	65.357780  
2225.000000	65.346169  
2224.000000	65.332102  
2223.000000	65.316891  
2222.000000	65.301227  
2221.000000	65.284824  
2220.000000	65.267133  
2219.000000	65.247488  
2218.000000	65.225434  
2217.000000	65.201115  
2216.000000	65.175342  
2215.000000	65.149712  
2214.000000	65.126061  
2213.000000	65.106105  
2212.000000	65.091252  
2211.000000	65.082097  
2210.000000	65.078234  
2209.000000	65.078377  
2208.000000	65.080523  
2207.000000	65.082740  
2206.000000	65.083646  
2205.000000	65.082716  
2204.000000	65.080189  
2203.000000	65.077567  
2202.000000	65.076947  
2201.000000	65.080404  
2200.000000	65.089607  
2199.000000	65.105509  
2198.000000	65.128040  
2197.000000	65.156102  
2196.000000	65.187644  
2195.000000	65.219736  
2194.000000	65.249228  
2193.000000	65.273308  
2192.000000	65.290117  
2191.000000	65.298962  
2190.000000	65.300703  
2189.000000	65.297627  
2188.000000	65.292954  
2187.000000	65.289926  
2186.000000	65.290760  
2185.000000	65.296554  
2184.000000	65.306377  
2183.000000	65.317773  
2182.000000	65.327048  
2181.000000	65.330410  
2180.000000	65.325140  
2179.000000	65.310597  
2178.000000	65.288376  
2177.000000	65.261888  
2176.000000	65.235638  
2175.000000	65.214085  
2174.000000	65.200614  
2173.000000	65.196752  
2172.000000	65.202331  
2171.000000	65.215778  
2170.000000	65.234971  
2169.000000	65.257740  
2168.000000	65.282535  
2167.000000	65.308570  
2166.000000	65.335297  
2165.000000	65.362548  
2164.000000	65.389800  
2163.000000	65.416288  
2162.000000	65.440869  
2161.000000	65.461993  
2160.000000	65.478634  
2159.000000	65.489578  
2158.000000	65.494441  
2157.000000	65.492200  
2156.000000	65.482187  
2155.000000	65.463066  
2154.000000	65.433692  
2153.000000	65.393424  
2152.000000	65.342998  
2151.000000	65.284895  
2150.000000	65.223598  
2149.000000	65.164875  
2148.000000	65.114951  
2147.000000	65.079188  
2146.000000	65.060973  
2145.000000	65.061044  
2144.000000	65.077257  
2143.000000	65.105485  
2142.000000	65.140652  
2141.000000	65.177607  
2140.000000	65.212440  
2139.000000	65.242576  
2138.000000	65.267324  
2137.000000	65.286970  
2136.000000	65.302205  
2135.000000	65.313291  
2134.000000	65.319609  
2133.000000	65.320134  
2132.000000	65.313267  
2131.000000	65.298151  
2130.000000	65.274405  
2129.000000	65.243244  
2128.000000	65.207147  
2127.000000	65.169358  
2126.000000	65.133643  
2125.000000	65.103292  
2124.000000	65.080952  
2123.000000	65.068006  
2122.000000	65.065145  
2121.000000	65.072226  
2120.000000	65.088891  
2119.000000	65.114736  
2118.000000	65.149211  
2117.000000	65.191507  
2116.000000	65.240478  
2115.000000	65.293884  
2114.000000	65.348386  
2113.000000	65.399527  
2112.000000	65.442419  
2111.000000	65.472555  
2110.000000	65.486645  
2109.000000	65.483307  
2108.000000	65.463542  
2107.000000	65.430378  
2106.000000	65.388536  
2105.000000	65.343284  
2104.000000	65.300130  
2103.000000	65.263295  
2102.000000	65.235328  
2101.000000	65.216851  
2100.000000	65.207409  
2099.000000	65.205001  
2098.000000	65.206909  
2097.000000	65.209937  
2096.000000	65.211296  
2095.000000	65.208697  
2094.000000	65.200924  
2093.000000	65.187978  
2092.000000	65.170812  
2091.000000	65.152144  
2090.000000	65.135669  
2089.000000	65.125179  
2088.000000	65.123915  
2087.000000	65.134096  
2086.000000	65.156078  
2085.000000	65.187549  
2084.000000	65.224218  
2083.000000	65.260386  
2082.000000	65.291047  
2081.000000	65.311932  
2080.000000	65.321969  
2079.000000	65.323233  
2078.000000	65.321350  
2077.000000	65.323877  
2076.000000	65.338563  
2075.000000	65.371251  
2074.000000	65.424036  
2073.000000	65.494823  
2072.000000	65.576648  
2071.000000	65.659379  
2070.000000	65.731310  
2069.000000	65.782237  
2068.000000	65.804696  
2067.000000	65.795540  
2066.000000	65.755963  
2065.000000	65.691089  
2064.000000	65.608167  
2063.000000	65.514945  
2062.000000	65.418386  
2061.000000	65.323734  
2060.000000	65.234327  
2059.000000	65.152025  
2058.000000	65.078139  
2057.000000	65.014004  
2056.000000	64.961314  
2055.000000	64.922523  
2054.000000	64.899253  
2053.000000	64.893269  
2052.000000	64.904689  
2051.000000	64.932703  
2050.000000	64.974260  
2049.000000	65.025305  
2048.000000	65.080928  
2047.000000	65.136313  
2046.000000	65.186882  
2045.000000	65.229296  
2044.000000	65.261507  
2043.000000	65.282750  
2042.000000	65.293407  
2041.000000	65.294694  
2040.000000	65.288281  
2039.000000	65.276026  
2038.000000	65.259695  
2037.000000	65.241384  
2036.000000	65.223169  
2035.000000	65.207171  
2034.000000	65.195465  
2033.000000	65.189552  
2032.000000	65.190148  
2031.000000	65.197229  
2030.000000	65.209746  
2029.000000	65.225458  
2028.000000	65.241336  
2027.000000	65.254497  
2026.000000	65.262460  
2025.000000	65.263605  
2024.000000	65.257453  
2023.000000	65.244889  
2022.000000	65.227770  
2021.000000	65.208435  
2020.000000	65.189242  
2019.000000	65.172028  
2018.000000	65.158057  
2017.000000	65.147948  
2016.000000	65.141749  
2015.000000	65.139031  
2014.000000	65.139293  
2013.000000	65.142178  
2012.000000	65.147328  
2011.000000	65.154266  
2010.000000	65.162467  
2009.000000	65.171408  
2008.000000	65.180325  
2007.000000	65.188288  
2006.000000	65.194487  
2005.000000	65.198183  
2004.000000	65.199041  
2003.000000	65.197324  
2002.000000	65.193605  
2001.000000	65.188789  
2000.000000	65.183973  
1999.000000	65.180063  
1998.000000	65.177583  
1997.000000	65.176415  
1996.000000	65.176081  
1995.000000	65.175867  
1994.000000	65.175104  
1993.000000	65.173602  
1992.000000	65.171551  
1991.000000	65.169715  
1990.000000	65.169048  
1989.000000	65.170454  
1988.000000	65.174412  
1987.000000	65.180659  
1986.000000	65.188193  
1985.000000	65.195345  
1984.000000	65.200304  
1983.000000	65.201568  
1982.000000	65.198445  
1981.000000	65.191197  
1980.000000	65.181279  
1979.000000	65.171027  
1978.000000	65.163516  
1977.000000	65.161347  
1976.000000	65.166664  
1975.000000	65.180397  
1974.000000	65.202116  
1973.000000	65.230202  
1972.000000	65.261936  
1971.000000	65.294170  
1970.000000	65.323710  
1969.000000	65.347957  
1968.000000	65.365076  
1967.000000	65.374088  
1966.000000	65.375065  
1965.000000	65.368914  
1964.000000	65.357351  
1963.000000	65.342402  
1962.000000	65.326237  
1961.000000	65.310907  
1960.000000	65.297913  
1959.000000	65.288209  
1958.000000	65.281653  
1957.000000	65.277457  
1956.000000	65.274310  
1955.000000	65.270638  
1954.000000	65.264868  
1953.000000	65.256023  
1952.000000	65.243840  
1951.000000	65.228915  
1950.000000	65.212440  
1949.000000	65.196323  
1948.000000	65.182495  
1947.000000	65.172863  
1946.000000	65.168857  
1945.000000	65.171384  
1944.000000	65.180730  
1943.000000	65.196681  
1942.000000	65.218377  
1941.000000	65.244555  
1940.000000	65.273666  
1939.000000	65.303802  
1938.000000	65.332961  
1937.000000	65.359020  
1936.000000	65.380144  
1935.000000	65.394878  
1934.000000	65.402317  
1933.000000	65.402126  
1932.000000	65.394639  
1931.000000	65.380597  
1930.000000	65.361309  
1929.000000	65.338349  
1928.000000	65.313267  
1927.000000	65.287804  
1926.000000	65.263485  
1925.000000	65.241646  
1924.000000	65.223121  
1923.000000	65.208292  
1922.000000	65.197014  
1921.000000	65.188384  
1920.000000	65.181207  
1919.000000	65.173959  
1918.000000	65.165543  
1917.000000	65.155100  
1916.000000	65.142965  
1915.000000	65.130043  
1914.000000	65.118217  
1913.000000	65.109658  
1912.000000	65.106391  
1911.000000	65.109825  
1910.000000	65.120172  
1909.000000	65.136671  
1908.000000	65.157246  
1907.000000	65.179061  
1906.000000	65.199089  
1905.000000	65.214681  
1904.000000	65.224051  
1903.000000	65.226459  
1902.000000	65.222382  
1901.000000	65.213251  
1900.000000	65.201377  
1899.000000	65.189170  
1898.000000	65.178823  
1897.000000	65.172076  
1896.000000	65.169978  
1895.000000	65.173006  
1894.000000	65.180754  
1893.000000	65.192365  
1892.000000	65.206646  
1891.000000	65.222382  
1890.000000	65.238475  
1889.000000	65.254044  
1888.000000	65.268635  
1887.000000	65.281605  
1886.000000	65.292525  
1885.000000	65.300655  
1884.000000	65.305328  
1883.000000	65.305829  
1882.000000	65.301585  
1881.000000	65.292382  
1880.000000	65.278768  
1879.000000	65.261864  
1878.000000	65.243291  
1877.000000	65.224885  
1876.000000	65.208530  
1875.000000	65.195488  
1874.000000	65.186595  
1873.000000	65.181851  
1872.000000	65.180850  
1871.000000	65.182900  
1870.000000	65.187501  
1869.000000	65.194439  
1868.000000	65.203690  
1867.000000	65.215301  
1866.000000	65.228796  
1865.000000	65.243387  
1864.000000	65.257620  
1863.000000	65.269708  
1862.000000	65.277934  
1861.000000	65.281128  
1860.000000	65.278792  
1859.000000	65.271639  
1858.000000	65.261197  
1857.000000	65.249538  
1856.000000	65.238618  
1855.000000	65.229988  
1854.000000	65.224528  
1853.000000	65.222191  
1852.000000	65.222382  
1851.000000	65.224409  
1850.000000	65.227913  
1849.000000	65.233111  
1848.000000	65.240645  
1847.000000	65.251421  
1846.000000	65.266108  
1845.000000	65.284729  
1844.000000	65.306305  
1843.000000	65.328931  
1842.000000	65.350127  
1841.000000	65.367054  
1840.000000	65.377545  
1839.000000	65.380311  
1838.000000	65.375447  
1837.000000	65.364241  
1836.000000	65.349054  
1835.000000	65.332555  
1834.000000	65.317296  
1833.000000	65.304899  
1832.000000	65.296077  
1831.000000	65.290331  
1830.000000	65.286207  
1829.000000	65.282011  
1828.000000	65.276193  
1827.000000	65.267872  
1826.000000	65.257167  
1825.000000	65.245270  
1824.000000	65.233874  
1823.000000	65.225076  
1822.000000	65.220546  
1821.000000	65.221261  
1820.000000	65.227055  
1819.000000	65.236711  
1818.000000	65.248179  
1817.000000	65.258955  
1816.000000	65.266823  
1815.000000	65.270066  
1814.000000	65.267944  
1813.000000	65.260791  
1812.000000	65.249752  
1811.000000	65.236663  
1810.000000	65.223240  
1809.000000	65.211129  
1808.000000	65.201115  
1807.000000	65.193462  
1806.000000	65.187621  
1805.000000	65.182638  
1804.000000	65.177512  
1803.000000	65.171480  
1802.000000	65.164399  
1801.000000	65.156769  
1800.000000	65.149617  
1799.000000	65.144252  
1798.000000	65.141868  
1797.000000	65.143203  
1796.000000	65.148210  
1795.000000	65.156006  
1794.000000	65.165257  
1793.000000	65.174221  
1792.000000	65.181326  
1791.000000	65.185523  
1790.000000	65.186381  
1789.000000	65.184116  
1788.000000	65.179419  
1787.000000	65.173411  
1786.000000	65.167188  
1785.000000	65.161514  
1784.000000	65.156960  
1783.000000	65.153574  
1782.000000	65.151309  
1781.000000	65.149927  
1780.000000	65.149259  
1779.000000	65.149092  
1778.000000	65.149259  
1777.000000	65.149712  
1776.000000	65.150356  
1775.000000	65.151166  
1774.000000	65.152025  
1773.000000	65.152883  
1772.000000	65.153598  
1771.000000	65.154147  
1770.000000	65.154528  
1769.000000	65.154576  
1768.000000	65.154147  
1767.000000	65.153241  
1766.000000	65.151906  
1765.000000	65.150260  
1764.000000	65.148329  
1763.000000	65.146064  
1762.000000	65.143013  
1761.000000	65.138649  
1760.000000	65.132069  
1759.000000	65.122199  
1758.000000	65.108036  
1757.000000	65.088987  
1756.000000	65.065145  
1755.000000	65.037322  
1754.000000	65.007233  
1753.000000	64.977264  
1752.000000	64.949941  
1751.000000	64.927458  
1750.000000	64.911389  
1749.000000	64.902496  
1748.000000	64.900422  
1747.000000	64.903807  
1746.000000	64.910745  
1745.000000	64.919161  
1744.000000	64.926671  
1743.000000	64.930820  
1742.000000	64.929437  
1741.000000	64.920902  
1740.000000	64.904332  
1739.000000	64.879822  
1738.000000	64.848685  
1737.000000	64.813566  
1736.000000	64.778184  
1735.000000	64.746665  
1734.000000	64.723038  
1733.000000	64.710140  
1732.000000	64.709448  
1731.000000	64.720225  
1730.000000	64.739894  
1729.000000	64.764666  
1728.000000	64.790296  
1727.000000	64.813327  
1726.000000	64.831495  
1725.000000	64.844799  
1724.000000	64.854741  
1723.000000	64.864730  
1722.000000	64.878368  
1721.000000	64.899230  
1720.000000	64.929413  
1719.000000	64.969539  
1718.000000	65.018486  
1717.000000	65.073513  
1716.000000	65.130901  
1715.000000	65.186691  
1714.000000	65.237212  
1713.000000	65.279650  
1712.000000	65.312170  
1711.000000	65.334010  
1710.000000	65.345096  
1709.000000	65.345859  
1708.000000	65.336990  
1707.000000	65.319561  
1706.000000	65.294647  
1705.000000	65.263819  
1704.000000	65.228915  
1703.000000	65.192461  
1702.000000	65.157246  
1701.000000	65.126013  
1700.000000	65.101313  
1699.000000	65.084934  
1698.000000	65.077972  
1697.000000	65.080475  
1696.000000	65.091705  
1695.000000	65.109848  
1694.000000	65.132594  
1693.000000	65.157389  
1692.000000	65.181493  
1691.000000	65.202236  
1690.000000	65.217232  
1689.000000	65.224766  
1688.000000	65.223813  
1687.000000	65.214014  
1686.000000	65.196371  
1685.000000	65.172791  
1684.000000	65.145897  
1683.000000	65.118575  
1682.000000	65.093588  
1681.000000	65.073323  
1680.000000	65.059065  
1679.000000	65.051388  
1678.000000	65.050005  
1677.000000	65.054440  
1676.000000	65.063858  
1675.000000	65.077614  
1674.000000	65.094900  
1673.000000	65.114927  
1672.000000	65.136575  
1671.000000	65.158557  
1670.000000	65.179181  
1669.000000	65.196847  
1668.000000	65.210199  
1667.000000	65.218353  
1666.000000	65.221023  
1665.000000	65.218496  
1664.000000	65.211606  
1663.000000	65.201306  
1662.000000	65.188384  
1661.000000	65.173482  
1660.000000	65.156817  
1659.000000	65.138649  
1658.000000	65.119528  
1657.000000	65.100455  
1656.000000	65.082907  
1655.000000	65.068674  
1654.000000	65.059494  
1653.000000	65.056633  
1652.000000	65.060687  
1651.000000	65.071058  
1650.000000	65.086245  
1649.000000	65.104031  
1648.000000	65.121984  
1647.000000	65.138030  
1646.000000	65.150451  
1645.000000	65.158343  
1644.000000	65.161728  
1643.000000	65.161085  
1642.000000	65.157437  
1641.000000	65.151715  
1640.000000	65.145111  
1639.000000	65.138602  
1638.000000	65.133118  
1637.000000	65.129399  
1636.000000	65.127873  
1635.000000	65.128636  
1634.000000	65.131378  
1633.000000	65.135288  
1632.000000	65.139436  
1631.000000	65.143060  
1630.000000	65.145635  
1629.000000	65.147256  
1628.000000	65.148639  
1627.000000	65.150976  
1626.000000	65.155673  
1625.000000	65.163660  
1624.000000	65.175056  
1623.000000	65.188980  
1622.000000	65.203571  
1621.000000	65.216445  
1620.000000	65.225195  
1619.000000	65.228128  
1618.000000	65.224695  
1617.000000	65.215420  
1616.000000	65.202116  
1615.000000	65.186905  
1614.000000	65.172052  
1613.000000	65.159106  
1612.000000	65.148806  
1611.000000	65.140962  
1610.000000	65.134692  
1609.000000	65.128636  
1608.000000	65.121555  
1607.000000	65.112400  
1606.000000	65.100693  
1605.000000	65.086579  
1604.000000	65.070700  
1603.000000	65.054106  
1602.000000	65.037870  
1601.000000	65.023136  
1600.000000	65.010976  
1599.000000	65.002131  
1598.000000	64.996886  
1597.000000	64.995145  
1596.000000	64.996433  
1595.000000	64.999771  
1594.000000	65.004181  
1593.000000	65.008831  
1592.000000	65.013480  
1591.000000	65.018272  
1590.000000	65.023970  
1589.000000	65.031480  
1588.000000	65.041589  
1587.000000	65.054535  
1586.000000	65.069675  
1585.000000	65.085482  
1584.000000	65.099716  
1583.000000	65.110015  
1582.000000	65.114140  
1581.000000	65.110540  
1580.000000	65.098786  
1579.000000	65.079927  
1578.000000	65.055918  
1577.000000	65.029501  
1576.000000	65.003561  
1575.000000	64.980483  
1574.000000	64.961743  
1573.000000	64.947485  
1572.000000	64.936947  
1571.000000	64.928841  
1570.000000	64.921736  
1569.000000	64.914727  
1568.000000	64.907670  
1567.000000	64.901161  
1566.000000	64.896202  
1565.000000	64.894104  
1564.000000	64.895439  
1563.000000	64.900302  
1562.000000	64.907670  
1561.000000	64.916348  
1560.000000	64.924788  
1559.000000	64.932227  
1558.000000	64.938974  
1557.000000	64.946556  
1556.000000	64.956927  
1555.000000	64.972066  
1554.000000	64.992928  
1553.000000	65.018892  
1552.000000	65.047669  
1551.000000	65.075778  
1550.000000	65.099287  
1549.000000	65.115070  
1548.000000	65.121412  
1547.000000	65.118408  
1546.000000	65.107703  
1545.000000	65.092086  
1544.000000	65.074849  
1543.000000	65.058660  
1542.000000	65.045452  
1541.000000	65.035963  
1540.000000	65.029978  
1539.000000	65.026760  
1538.000000	65.025138  
1537.000000	65.024161  
1536.000000	65.022993  
1535.000000	65.020728  
1534.000000	65.016698  
1533.000000	65.010166  
1532.000000	65.000820  
1531.000000	64.988636  
1530.000000	64.974451  
1529.000000	64.959859  
1528.000000	64.947175  
1527.000000	64.938879  
1526.000000	64.937067  
1525.000000	64.942693  
1524.000000	64.955377  
1523.000000	64.973354  
1522.000000	64.993500  
1521.000000	65.012121  
1520.000000	65.025711  
1519.000000	65.031599  
1518.000000	65.028667  
1517.000000	65.017247  
1516.000000	64.998936  
1515.000000	64.976310  
1514.000000	64.952111  
1513.000000	64.929270  
1512.000000	64.910316  
1511.000000	64.897561  
1510.000000	64.892721  
1509.000000	64.897179  
1508.000000	64.911437  
1507.000000	64.935541  
1506.000000	64.968490  
1505.000000	65.008687  
1504.000000	65.053844  
1503.000000	65.101075  
1502.000000	65.147256  
1501.000000	65.188908  
1500.000000	65.222549  
1499.000000	65.245056  
1498.000000	65.253996  
1497.000000	65.248298  
1496.000000	65.228891  
1495.000000	65.198659  
1494.000000	65.162134  
1493.000000	65.125274  
1492.000000	65.093946  
1491.000000	65.073275  
1490.000000	65.066051  
1489.000000	65.072727  
1488.000000	65.090656  
1487.000000	65.115141  
1486.000000	65.140175  
1485.000000	65.159559  
1484.000000	65.168642  
1483.000000	65.165138  
1482.000000	65.149998  
1481.000000	65.126705  
1480.000000	65.100789  
1479.000000	65.078353  
1478.000000	65.064334  
1477.000000	65.061330  
1476.000000	65.068602  
1475.000000	65.082645  
1474.000000	65.097928  
1473.000000	65.108513  
1472.000000	65.109276  
1471.000000	65.097284  
1470.000000	65.072107  
1469.000000	65.036034  
1468.000000	64.992737  
1467.000000	64.946842  
1466.000000	64.902520  
1465.000000	64.863157  
1464.000000	64.830994  
1463.000000	64.807224  
1462.000000	64.792370  
1461.000000	64.786767  
1460.000000	64.790749  
1459.000000	64.804911  
1458.000000	64.829087  
1457.000000	64.862942  
1456.000000	64.904689  
1455.000000	64.951825  
1454.000000	65.000963  
1453.000000	65.048527  
1452.000000	65.091133  
1451.000000	65.125918  
1450.000000	65.150904  
1449.000000	65.165042  
1448.000000	65.168476  
1447.000000	65.161991  
1446.000000	65.147018  
1445.000000	65.125513  
1444.000000	65.099835  
1443.000000	65.072464  
1442.000000	65.045738  
1441.000000	65.021777  
1440.000000	65.002226  
1439.000000	64.988207  
1438.000000	64.980006  
1437.000000	64.977383  
1436.000000	64.979600  
1435.000000	64.985299  
1434.000000	64.993023  
1433.000000	65.001201  
1432.000000	65.008711  
1431.000000	65.014386  
1430.000000	65.017580  
1429.000000	65.017867  
1428.000000	65.015578  
1427.000000	65.011572  
1426.000000	65.007376  
1425.000000	65.004658  
1424.000000	65.005016  
1423.000000	65.009832  
1422.000000	65.019631  
1421.000000	65.033817  
1420.000000	65.050959  
1419.000000	65.069293  
1418.000000	65.086793  
1417.000000	65.101838  
1416.000000	65.113520  
1415.000000	65.121746  
1414.000000	65.127277  
1413.000000	65.131425  
1412.000000	65.135598  
1411.000000	65.140891  
1410.000000	65.147900  
1409.000000	65.156483  
1408.000000	65.165948  
1407.000000	65.175056  
1406.000000	65.182709  
1405.000000	65.187931  
1404.000000	65.190339  
1403.000000	65.189933  
1402.000000	65.187191  
1401.000000	65.182638  
1400.000000	65.177059  
1399.000000	65.170764  
1398.000000	65.163755  
1397.000000	65.155696  
1396.000000	65.146207  
1395.000000	65.134978  
1394.000000	65.122008  
1393.000000	65.107989  
1392.000000	65.094161  
1391.000000	65.082311  
1390.000000	65.074324  
1389.000000	65.071821  
1388.000000	65.075588  
1387.000000	65.085482  
1386.000000	65.100288  
1385.000000	65.117931  
1384.000000	65.135765  
1383.000000	65.151286  
1382.000000	65.162324  
1381.000000	65.167617  
1380.000000	65.166711  
1379.000000	65.160083  
1378.000000	65.148472  
1377.000000	65.132808  
1376.000000	65.113472  
1375.000000	65.090608  
1374.000000	65.063905  
1373.000000	65.033078  
1372.000000	64.998149  
1371.000000	64.959836  
1370.000000	64.919996  
1369.000000	64.881277  
1368.000000	64.847183  
1367.000000	64.821243  
1366.000000	64.806413  
1365.000000	64.804577  
1364.000000	64.816117  
1363.000000	64.839744  
1362.000000	64.872574  
1361.000000	64.910674  
1360.000000	64.949679  
1359.000000	64.985489  
1358.000000	65.014696  
1357.000000	65.035295  
1356.000000	65.046572  
1355.000000	65.049266  
1354.000000	65.045046  
1353.000000	65.036368  
1352.000000	65.025901  
1351.000000	65.015816  
1350.000000	65.008020  
1349.000000	65.003156  
1348.000000	65.001225  
1347.000000	65.001249  
1346.000000	65.001964  
1345.000000	65.001583  
1344.000000	64.998650  
1343.000000	64.992046  
1342.000000	64.981365  
1341.000000	64.966988  
1340.000000	64.950084  
1339.000000	64.932513  
1338.000000	64.916515  
1337.000000	64.904332  
1336.000000	64.897799  
1335.000000	64.897871  
1334.000000	64.904236  
1333.000000	64.915585  
1332.000000	64.929866  
1331.000000	64.944601  
1330.000000	64.957690  
1329.000000	64.967799  
1328.000000	64.974522  
1327.000000	64.978599  
1326.000000	64.981317  
1325.000000	64.984059  
1324.000000	64.987492  
1323.000000	64.991331  
1322.000000	64.994025  
1321.000000	64.993166  
1320.000000	64.986109  
1319.000000	64.971041  
1318.000000	64.947247  
1317.000000	64.915943  
1316.000000	64.879679  
1315.000000	64.841866  
1314.000000	64.806270  
1313.000000	64.776039  
1312.000000	64.753293  
1311.000000	64.738941  
1310.000000	64.733052  
1309.000000	64.735269  
1308.000000	64.744830  
1307.000000	64.761066  
1306.000000	64.783430  
1305.000000	64.811348  
1304.000000	64.844012  
1303.000000	64.880180  
1302.000000	64.917945  
1301.000000	64.954853  
1300.000000	64.988327  
1299.000000	65.015769  
1298.000000	65.035200  
1297.000000	65.045166  
1296.000000	65.045356  
1295.000000	65.036249  
1294.000000	65.019083  
1293.000000	64.995646  
1292.000000	64.968442  
1291.000000	64.940261  
1290.000000	64.914059  
1289.000000	64.892697  
1288.000000	64.878678  
1287.000000	64.874172  
1286.000000	64.880418  
1285.000000	64.897799  
1284.000000	64.925479  
1283.000000	64.961719  
1282.000000	65.003609  
1281.000000	65.047430  
1280.000000	65.088653  
1279.000000	65.122699  
1278.000000	65.145540  
1277.000000	65.154433  
1276.000000	65.148258  
1275.000000	65.127992  
1274.000000	65.096211  
1273.000000	65.057182  
1272.000000	65.015435  
1271.000000	64.975380  
1270.000000	64.939999  
1269.000000	64.910864  
1268.000000	64.887738  
1267.000000	64.869022  
1266.000000	64.852714  
1265.000000	64.837288  
1264.000000	64.822530  
1263.000000	64.809465  
1262.000000	64.800620  
1261.000000	64.798951  
1260.000000	64.807367  
1259.000000	64.827203  
1258.000000	64.858174  
1257.000000	64.897918  
1256.000000	64.942526  
1255.000000	64.987111  
1254.000000	65.026855  
1253.000000	65.058040  
1252.000000	65.078353  
1251.000000	65.087437  
1250.000000	65.086674  
1249.000000	65.078639  
1248.000000	65.066552  
1247.000000	65.053224  
1246.000000	65.040969  
1245.000000	65.030717  
1244.000000	65.022683  
1243.000000	65.016007  
1242.000000	65.009570  
1241.000000	65.002083  
1240.000000	64.992880  
1239.000000	64.981794  
1238.000000	64.969015  
1237.000000	64.955139  
1236.000000	64.940905  
1235.000000	64.926934  
1234.000000	64.913630  
1233.000000	64.901065  
1232.000000	64.889121  
1231.000000	64.877653  
1230.000000	64.866662  
1229.000000	64.856386  
1228.000000	64.847350  
1227.000000	64.840388  
1226.000000	64.836478  
1225.000000	64.836382  
1224.000000	64.840555  
1223.000000	64.849328  
1222.000000	64.862346  
1221.000000	64.878654  
1220.000000	64.896798  
1219.000000	64.915156  
1218.000000	64.932060  
1217.000000	64.946055  
1216.000000	64.956140  
1215.000000	64.961814  
1214.000000	64.963126  
1213.000000	64.960885  
1212.000000	64.956307  
1211.000000	64.950752  
1210.000000	64.945650  
1209.000000	64.942359  
1208.000000	64.941668  
1207.000000	64.943766  
1206.000000	64.948225  
1205.000000	64.954304  
1204.000000	64.961218  
1203.000000	64.968371  
1202.000000	64.975309  
1201.000000	64.982008  
1200.000000	64.988231  
1199.000000	64.993357  
1198.000000	64.996242  
1197.000000	64.995145  
1196.000000	64.988207  
1195.000000	64.973902  
1194.000000	64.951515  
1193.000000	64.921569  
1192.000000	64.885687  
1191.000000	64.846873  
1190.000000	64.808607  
1189.000000	64.774751  
1188.000000	64.748835  
1187.000000	64.733409  
1186.000000	64.729833  
1185.000000	64.737796  
1184.000000	64.755582  
1183.000000	64.780330  
1182.000000	64.808273  
1181.000000	64.835691  
1180.000000	64.859175  
1179.000000	64.876604  
1178.000000	64.886903  
1177.000000	64.890432  
1176.000000	64.888548  
1175.000000	64.883160  
1174.000000	64.876079  
1173.000000	64.868497  
1172.000000	64.860892  
1171.000000	64.852929  
1170.000000	64.843773  
1169.000000	64.832806  
1168.000000	64.819955  
1167.000000	64.806056  
1166.000000	64.792943  
1165.000000	64.782738  
1164.000000	64.777517  
1163.000000	64.778518  
1162.000000	64.785933  
1161.000000	64.798545  
1160.000000	64.814352  
1159.000000	64.830875  
1158.000000	64.845800  
1157.000000	64.857220  
1156.000000	64.864158  
1155.000000	64.866638  
1154.000000	64.865207  
1153.000000	64.860558  
1152.000000	64.853143  
1151.000000	64.842963  
1150.000000	64.829635  
1149.000000	64.812588  
1148.000000	64.791417  
1147.000000	64.766359  
1146.000000	64.738392  
1145.000000	64.709258  
1144.000000	64.681291  
1143.000000	64.657020  
1142.000000	64.638590  
1141.000000	64.627313  
1140.000000	64.623355  
1139.000000	64.625835  
1138.000000	64.632749  
1137.000000	64.641785  
1136.000000	64.650225  
1135.000000	64.656376  
1134.000000	64.659547  
1133.000000	64.660835  
1132.000000	64.662075  
1131.000000	64.665818  
1130.000000	64.674329  
1129.000000	64.689040  
1128.000000	64.709854  
1127.000000	64.735293  
1126.000000	64.762711  
1125.000000	64.789175  
1124.000000	64.811968  
1123.000000	64.829468  
1122.000000	64.841461  
1121.000000	64.849138  
1120.000000	64.854550  
1119.000000	64.860105  
1118.000000	64.867758  
1117.000000	64.878821  
1116.000000	64.893293  
1115.000000	64.910411  
1114.000000	64.928245  
1113.000000	64.944887  
1112.000000	64.957833  
1111.000000	64.964389  
1110.000000	64.961886  
1109.000000	64.947962  
1108.000000	64.921212  
1107.000000	64.881253  
1106.000000	64.829587  
1105.000000	64.769721  
1104.000000	64.706969  
1103.000000	64.647841  
1102.000000	64.598989  
1101.000000	64.565801  
1100.000000	64.551448  
1099.000000	64.556217  
1098.000000	64.577245  
1097.000000	64.609169  
1096.000000	64.645409  
1095.000000	64.679360  
1094.000000	64.705491  
1093.000000	64.720320  
1092.000000	64.722752  
1091.000000	64.713931  
1090.000000	64.696168  
1089.000000	64.672422  
1088.000000	64.645743  
1087.000000	64.618992  
1086.000000	64.594650  
1085.000000	64.575052  
1084.000000	64.562582  
1083.000000	64.559507  
1082.000000	64.567756  
1081.000000	64.588189  
1080.000000	64.620161  
1079.000000	64.661049  
1078.000000	64.706444  
1077.000000	64.750742  
1076.000000	64.787840  
1075.000000	64.812779  
1074.000000	64.822840  
1073.000000	64.818096  
1072.000000	64.801383  
1071.000000	64.777636  
1070.000000	64.752888  
1069.000000	64.732503  
1068.000000	64.719915  
1067.000000	64.716053  
1066.000000	64.719343  
1065.000000	64.726352  
1064.000000	64.732933  
1063.000000	64.735364  
1062.000000	64.731311  
1061.000000	64.720439  
1060.000000	64.704346  
1059.000000	64.685678  
1058.000000	64.667558  
1057.000000	64.651989  
1056.000000	64.640378  
1055.000000	64.633011  
1054.000000	64.629840  
1053.000000	64.630532  
1052.000000	64.635229  
1051.000000	64.644789  
1050.000000	64.660048  
1049.000000	64.681363  
1048.000000	64.707970  
1047.000000	64.737129  
1046.000000	64.765119  
1045.000000	64.787817  
1044.000000	64.801669  
1043.000000	64.804697  
1042.000000	64.797067  
1041.000000	64.781379  
1040.000000	64.761567  
1039.000000	64.741730  
1038.000000	64.724683  
1037.000000	64.711332  
1036.000000	64.700317  
1035.000000	64.689016  
1034.000000	64.674615  
1033.000000	64.655804  
1032.000000	64.633822  
1031.000000	64.612770  
1030.000000	64.598822  
1029.000000	64.598917  
1028.000000	64.618611  
1027.000000	64.660143  
1026.000000	64.721512  
1025.000000	64.796280  
1024.000000	64.875078  
1023.000000	64.946937  
1022.000000	65.001964  
1021.000000	65.032935  
1020.000000	65.037131  
1019.000000	65.015792  
1018.000000	64.973783  
1017.000000	64.917969  
1016.000000	64.855790  
1015.000000	64.793920  
1014.000000	64.737367  
1013.000000	64.689159  
1012.000000	64.650678  
1011.000000	64.621949  
1010.000000	64.602279  
1009.000000	64.590358  
1008.000000	64.584946  
1007.000000	64.584660  
1006.000000	64.588570  
1005.000000	64.595437  
1004.000000	64.604282  
1003.000000	64.614319  
1002.000000	64.625334  
1001.000000	64.637017  
1000.000000	64.649486  
999.000000	 64.662551  
998.000000	 64.676332  
997.000000	 64.690685  
996.000000	 64.705991  
995.000000	 64.722561  
994.000000	 64.741015  
993.000000	 64.762091  
992.000000	 64.785957  
991.000000	 64.812493  
990.000000	 64.840173  
989.000000	 64.866256  
988.000000	 64.887166  
987.000000	 64.899086  
986.000000	 64.898896  
985.000000	 64.885091  
984.000000	 64.857840  
983.000000	 64.819025  
982.000000	 64.772129  
981.000000	 64.721345  
980.000000	 64.670348  
979.000000	 64.622139  
978.000000	 64.578175  
977.000000	 64.539217  
976.000000	 64.505887  
975.000000	 64.479470  
974.000000	 64.461827  
973.000000	 64.455652  
972.000000	 64.463639  
971.000000	 64.487504  
970.000000	 64.526772  
969.000000	 64.578294  
968.000000	 64.636135  
967.000000	 64.692878  
966.000000	 64.740633  
965.000000	 64.772963  
964.000000	 64.786052  
963.000000	 64.779782  
962.000000	 64.757633  
961.000000	 64.725756  
960.000000	 64.691448  
959.000000	 64.661502  
958.000000	 64.640831  
957.000000	 64.631748  
956.000000	 64.633440  
955.000000	 64.643073  
954.000000	 64.656615  
953.000000	 64.669513  
952.000000	 64.677858  
951.000000	 64.679169  
950.000000	 64.672303  
949.000000	 64.656972  
948.000000	 64.634156  
947.000000	 64.604902  
946.000000	 64.571499  
945.000000	 64.536643  
944.000000	 64.503884  
943.000000	 64.477300  
942.000000	 64.461159  
941.000000	 64.459109  
940.000000	 64.473628  
939.000000	 64.505076  
938.000000	 64.551901  
937.000000	 64.610886  
936.000000	 64.677023  
935.000000	 64.744210  
934.000000	 64.806818  
933.000000	 64.860606  
932.000000	 64.902830  
931.000000	 64.932346  
930.000000	 64.950442  
929.000000	 64.960336  
928.000000	 64.966607  
927.000000	 64.973998  
926.000000	 64.986658  
925.000000	 65.006613  
924.000000	 65.033936  
923.000000	 65.065622  
922.000000	 65.096473  
921.000000	 65.119957  
920.000000	 65.130090  
919.000000	 65.123248  
918.000000	 65.099287  
917.000000	 65.062046  
916.000000	 65.019416  
915.000000	 64.980483  
914.000000	 64.954066  
913.000000	 64.944624  
912.000000	 64.952111  
911.000000	 64.969205  
910.000000	 64.984107  
909.000000	 64.981746  
908.000000	 64.948081  
907.000000	 64.873886  
906.000000	 64.757800  
905.000000	 64.607000  
904.000000	 64.436054  
903.000000	 64.263820  
902.000000	 64.109802  
901.000000	 63.989543  
900.000000	 63.912439  
899.000000	 63.880443  
898.000000	 63.889169  
897.000000	 63.929700  
896.000000	 63.991689  
895.000000	 64.065027  
894.000000	 64.142680  
893.000000	 64.219403  
892.000000	 64.293050  
891.000000	 64.362049  
890.000000	 64.425539  
889.000000	 64.481925  
888.000000	 64.528632  
887.000000	 64.562892  
886.000000	 64.581513  
885.000000	 64.583063  
884.000000	 64.566445  
883.000000	 64.531850  
882.000000	 64.480805  
881.000000	 64.416313  
880.000000	 64.343452  
879.000000	 64.268970  
878.000000	 64.201426  
877.000000	 64.150071  
876.000000	 64.123249  
875.000000	 64.126634  
874.000000	 64.161849  
873.000000	 64.225792  
872.000000	 64.310574  
871.000000	 64.405250  
870.000000	 64.497804  
869.000000	 64.577841  
868.000000	 64.637947  
867.000000	 64.675450  
866.000000	 64.691686  
865.000000	 64.691972  
864.000000	 64.683413  
863.000000	 64.673233  
862.000000	 64.666986  
861.000000	 64.667439  
860.000000	 64.675521  
859.000000	 64.689445  
858.000000	 64.706778  
857.000000	 64.723777  
856.000000	 64.737153  
855.000000	 64.743852  
854.000000	 64.741492  
853.000000	 64.729189  
852.000000	 64.707422  
851.000000	 64.678192  
850.000000	 64.644527  
849.000000	 64.609956  
848.000000	 64.577722  
847.000000	 64.549970  
846.000000	 64.527392  
845.000000	 64.508771  
844.000000	 64.491534  
843.000000	 64.472579  
842.000000	 64.449286  
841.000000	 64.420771  
840.000000	 64.387989  
839.000000	 64.353609  
838.000000	 64.321279  
837.000000	 64.294481  
836.000000	 64.275884  
835.000000	 64.265751  
834.000000	 64.263200  
833.000000	 64.266824  
832.000000	 64.275050  
831.000000	 64.287257  
830.000000	 64.302945  
829.000000	 64.321470  
828.000000	 64.341306  
827.000000	 64.359450  
826.000000	 64.371728  
825.000000	 64.373517  
824.000000	 64.360904  
823.000000	 64.332151  
822.000000	 64.288687  
821.000000	 64.235281  
820.000000	 64.179253  
819.000000	 64.128971  
818.000000	 64.092040  
817.000000	 64.073681  
816.000000	 64.075422  
815.000000	 64.095258  
814.000000	 64.128637  
813.000000	 64.169502  
812.000000	 64.212179  
811.000000	 64.251685  
810.000000	 64.284348  
809.000000	 64.307761  
808.000000	 64.320135  
807.000000	 64.320778  
806.000000	 64.309477  
805.000000	 64.287471  
804.000000	 64.257693  
803.000000	 64.224290  
802.000000	 64.192295  
801.000000	 64.166712  
800.000000	 64.151740  
799.000000	 64.149570  
798.000000	 64.159917  
797.000000	 64.179706  
796.000000	 64.203548  
795.000000	 64.224791  
794.000000	 64.236736  
793.000000	 64.233994  
792.000000	 64.213538  
791.000000	 64.175128  
790.000000	 64.121341  
789.000000	 64.056921  
788.000000	 63.988041  
787.000000	 63.920783  
786.000000	 63.860535  
785.000000	 63.811278  
784.000000	 63.775515  
783.000000	 63.754034  
782.000000	 63.746619  
781.000000	 63.751840  
780.000000	 63.768458  
779.000000	 63.795065  
778.000000	 63.830780  
777.000000	 63.874340  
776.000000	 63.924098  
775.000000	 63.976955  
774.000000	 64.028906  
773.000000	 64.074993  
772.000000	 64.110636  
771.000000	 64.132142  
770.000000	 64.137458  
769.000000	 64.126658  
768.000000	 64.102077  
767.000000	 64.068126  
766.000000	 64.029788  
765.000000	 63.991999  
764.000000	 63.959455  
763.000000	 63.935995  
762.000000	 63.924312  
761.000000	 63.925647  
760.000000	 63.939428  
759.000000	 63.963556  
758.000000	 63.994598  
757.000000	 64.028525  
756.000000	 64.059877  
755.000000	 64.084339  
754.000000	 64.098906  
753.000000	 64.103627  
752.000000	 64.101290  
751.000000	 64.097356  
750.000000	 64.099073  
749.000000	 64.112591  
748.000000	 64.141702  
747.000000	 64.184665  
746.000000	 64.234495  
745.000000	 64.278793  
744.000000	 64.302730  
743.000000	 64.291381  
742.000000	 64.233541  
741.000000	 64.124250  
740.000000	 63.966822  
739.000000	 63.772511  
738.000000	 63.559436  
737.000000	 63.349676  
736.000000	 63.166451  
735.000000	 63.029646  
734.000000	 62.953376  
733.000000	 62.943291  
732.000000	 62.997126  
731.000000	 63.104581  
730.000000	 63.250637  
729.000000	 63.417983  
728.000000	 63.590002  
727.000000	 63.751721  
726.000000	 63.891911  
725.000000	 64.002704  
724.000000	 64.079642  
723.000000	 64.120078  
722.000000	 64.123535  
721.000000	 64.091157  
720.000000	 64.026403  
719.000000	 63.935756  
718.000000	 63.827776  
717.000000	 63.713240  
716.000000	 63.603591  
715.000000	 63.509821  
714.000000	 63.439774  
713.000000	 63.397312  
712.000000	 63.381218  
711.000000	 63.386344  
710.000000	 63.404893  
709.000000	 63.428735  
708.000000	 63.451290  
707.000000	 63.468861  
706.000000	 63.480019  
705.000000	 63.485097  
704.000000	 63.485360  
703.000000	 63.481259  
702.000000	 63.471293  
701.000000	 63.452696  
700.000000	 63.421845  
699.000000	 63.376474  
698.000000	 63.317275  
697.000000	 63.248562  
696.000000	 63.177657  
695.000000	 63.114976  
694.000000	 63.071775  
693.000000	 63.057589  
692.000000	 63.077092  
691.000000	 63.129782  
690.000000	 63.209438  
689.000000	 63.305139  
688.000000	 63.403463  
687.000000	 63.490796  
686.000000	 63.556075  
685.000000	 63.592720  
684.000000	 63.599443  
683.000000	 63.579201  
682.000000	 63.538122  
681.000000	 63.484358  
680.000000	 63.425970  
679.000000	 63.369846  
678.000000	 63.320422  
677.000000	 63.280415  
676.000000	 63.250279  
675.000000	 63.229393  
674.000000	 63.215923  
673.000000	 63.207888  
672.000000	 63.203358  
671.000000	 63.200736  
670.000000	 63.198375  
669.000000	 63.194966  
668.000000	 63.188457  
667.000000	 63.175916  
666.000000	 63.153934  
665.000000	 63.119363  
664.000000	 63.070464  
663.000000	 63.007521  
662.000000	 62.933969  
661.000000	 62.856149  
660.000000	 62.782502  
659.000000	 62.722134  
658.000000	 62.682723  
657.000000	 62.669181  
656.000000	 62.682986  
655.000000	 62.721824  
654.000000	 62.779712  
653.000000	 62.848305  
652.000000	 62.918472  
651.000000	 62.982106  
650.000000	 63.032531  
649.000000	 63.066148  
648.000000	 63.081598  
647.000000	 63.080739  
646.000000	 63.067030  
645.000000	 63.045835  
644.000000	 63.023376  
643.000000	 63.005900  
642.000000	 62.999081  
641.000000	 63.006448  
640.000000	 63.029360  
639.000000	 63.066220  
638.000000	 63.113212  
637.000000	 63.164782  
636.000000	 63.215041  
635.000000	 63.259029  
634.000000	 63.293886  
633.000000	 63.318634  
632.000000	 63.333845  
631.000000	 63.341522  
630.000000	 63.343930  
629.000000	 63.342642  
628.000000	 63.337850  
627.000000	 63.328838  
626.000000	 63.313746  
625.000000	 63.290953  
624.000000	 63.258910  
623.000000	 63.217210  
622.000000	 63.166093  
621.000000	 63.107347  
620.000000	 63.043165  
619.000000	 62.975621  
618.000000	 62.906932  
617.000000	 62.839698  
616.000000	 62.776827  
615.000000	 62.720775  
614.000000	 62.674403  
613.000000	 62.640404  
612.000000	 62.621283  
611.000000	 62.618374  
610.000000	 62.632894  
609.000000	 62.664985  
608.000000	 62.714028  
607.000000	 62.777900  
606.000000	 62.853240  
605.000000	 62.934899  
604.000000	 63.016271  
603.000000	 63.089585  
602.000000	 63.146328  
601.000000	 63.178515  
600.000000	 63.180589  
599.000000	 63.150143  
598.000000	 63.088750  
597.000000	 63.001656  
596.000000	 62.898206  
595.000000	 62.789082  
594.000000	 62.684869  
593.000000	 62.593412  
592.000000	 62.519502  
591.000000	 62.463641  
590.000000	 62.423396  
589.000000	 62.394022  
588.000000	 62.370491  
587.000000	 62.348151  
586.000000	 62.323307  
585.000000	 62.294292  
584.000000	 62.260723  
583.000000	 62.224054  
582.000000	 62.186408  
581.000000	 62.150883  
580.000000	 62.120771  
579.000000	 62.099862  
578.000000	 62.092113  
577.000000	 62.100720  
576.000000	 62.128186  
575.000000	 62.176156  
574.000000	 62.245035  
573.000000	 62.333154  
572.000000	 62.436532  
571.000000	 62.549638  
570.000000	 62.664794  
569.000000	 62.773489  
568.000000	 62.866115  
567.000000	 62.933278  
566.000000	 62.967252  
565.000000	 62.963294  
564.000000	 62.921524  
563.000000	 62.847757  
562.000000	 62.753248  
561.000000	 62.653684  
560.000000	 62.565565  
559.000000	 62.503743  
558.000000	 62.477445  
557.000000	 62.488937  
556.000000	 62.532997  
555.000000	 62.598776  
554.000000	 62.671685  
553.000000	 62.736582  
552.000000	 62.780523  
551.000000	 62.795186  
550.000000	 62.777280  
549.000000	 62.728714  
548.000000	 62.655591  
547.000000	 62.566971  
546.000000	 62.473058  
545.000000	 62.383818  
544.000000	 62.308359  
543.000000	 62.252831  
542.000000	 62.221217  
541.000000	 62.212920  
540.000000	 62.223720  
539.000000	 62.245273  
538.000000	 62.266683  
537.000000	 62.276411  
536.000000	 62.264966  
535.000000	 62.226128  
534.000000	 62.158203  
533.000000	 62.063741  
532.000000	 61.948657  
531.000000	 61.820316  
530.000000	 61.685872  
529.000000	 61.551284  
528.000000	 61.420655  
527.000000	 61.297440  
526.000000	 61.185097  
525.000000	 61.087059  
524.000000	 61.007142  
523.000000	 60.948753  
522.000000	 60.914850  
521.000000	 60.905861  
520.000000	 60.920643  
519.000000	 60.954856  
518.000000	 61.003708  
517.000000	 61.061906  
516.000000	 61.126303  
515.000000	 61.195969  
514.000000	 61.271905  
513.000000	 61.355757  
512.000000	 61.447358  
511.000000	 61.544084  
510.000000	 61.638426  
509.000000	 61.718893  
508.000000	 61.771702  
507.000000	 61.784577  
506.000000	 61.749982  
505.000000	 61.667919  
504.000000	 61.547493  
503.000000	 61.406064  
502.000000	 61.266541  
501.000000	 61.152863  
500.000000	 61.085176  
499.000000	 61.075544  
498.000000	 61.126518  
497.000000	 61.230850  
496.000000	 61.373329  
495.000000	 61.534118  
494.000000	 61.693429  
493.000000	 61.834836  
492.000000	 61.946320  
491.000000	 62.022042  
490.000000	 62.061166  
489.000000	 62.067174  
488.000000	 62.045764  
487.000000	 62.003898  
486.000000	 61.948466  
485.000000	 61.885976  
484.000000	 61.823582  
483.000000	 61.767435  
482.000000	 61.724710  
481.000000	 61.699986  
480.000000	 61.695837  
479.000000	 61.710309  
478.000000	 61.737799  
477.000000	 61.768269  
476.000000	 61.789250  
475.000000	 61.787962  
474.000000	 61.754345  
473.000000	 61.681985  
472.000000	 61.569070  
471.000000	 61.417913  
470.000000	 61.234331  
469.000000	 61.023521  
468.000000	 60.790681  
467.000000	 60.542821  
466.000000	 60.290145  
465.000000	 60.044550  
464.000000	 59.821867  
463.000000	 59.640002  
462.000000	 59.517383  
461.000000	 59.468960  
460.000000	 59.502482  
459.000000	 59.613537  
458.000000	 59.785962  
457.000000	 59.994220  
456.000000	 60.206174  
455.000000	 60.386204  
454.000000	 60.504841  
453.000000	 60.542559  
452.000000	 60.496354  
451.000000	 60.379981  
450.000000	 60.219407  
449.000000	 60.047173  
448.000000	 59.889888  
447.000000	 59.761595  
446.000000	 59.657740  
445.000000	 59.557151  
444.000000	 59.423899  
443.000000	 59.218764  
442.000000	 58.909583  
441.000000	 58.484339  
440.000000	 57.955336  
439.000000	 57.365226  
438.000000	 56.771135  
437.000000	 56.244945  
436.000000	 55.861043  
435.000000	 55.685997  
434.000000	 55.757498  
433.000000	 56.083345  
432.000000	 56.643342  
431.000000	 57.385802  
430.000000	 58.232426  
429.000000	 59.089493  
428.000000	 59.864830  
427.000000	 60.476160  
426.000000	 60.857534  
425.000000	 60.976815  
424.000000	 60.837244  
423.000000	 60.482192  
422.000000	 59.988975  
421.000000	 59.449744  
420.000000	 58.950400  
419.000000	 58.575177  
418.000000	 58.393263  
417.000000	 58.426237  
416.000000	 58.641600  
415.000000	 58.966445  
414.000000	 59.293866  
413.000000	 59.508943  
412.000000	 59.501767  
411.000000	 59.181523  
410.000000	 58.493685  
409.000000	 57.426333  
408.000000	 56.014156  
407.000000	 54.362702  
406.000000	 52.605342  
405.000000	 50.840282  
404.000000	 49.146223  
403.000000	 47.650027  
402.000000	 46.422815  
401.000000	 45.413780  
400.000000	 44.546389  
399.000000	 43.730187  
398.000000	 42.943906  
397.000000	 42.225670  
396.000000	 41.749191  
395.000000	 41.769647  
394.000000	 42.594313  
393.000000	 44.471669  
392.000000	 47.553992  
391.000000	 51.800942  
390.000000	 56.960058  
389.000000	 62.567996  
388.000000	 67.859959  
387.000000	 71.957349  
386.000000	 74.115395  
385.000000	 73.934364  
384.000000	 71.485733  
383.000000	 67.388367  
382.000000	 62.503004  
381.000000	 58.075070  
380.000000	 55.098509  
379.000000	 54.708790  
378.000000	 58.274984  
377.000000	 66.890883  
376.000000	 81.582522  
375.000000	 102.197837 
374.000000	 126.989746 
373.000000	 153.020238 
372.000000	 176.076841 
371.000000	 192.815566 
370.000000	 199.999976 

