PE IR       SPECTRUM    SPECTRUM    ASCII       PEDS        1.60        
  -1
C-9B6F~1.ASC
17/03/27
18:02:21.00
17/03/27
18:02:21.00
tln
$C-4040-8_t0044$<tbV0>[-13.0,-5.2,8.0,0.0,27,1,0]
370.000000
64









2002,4.07    
MIRTGS : RIGHTBACK : INTERNAL 2
MIR : ON : INTERNAL 2
OPTKBR

0.200000
8
8.000000
FILLER
RATIO
SPECTRUM
UNLOCKED 256

DOUBLE
64
COMBINED
1
0
0


1.000000
RATIO


1
0
TRUE
51149
0
LEFT NOT FITTED RIGHT NOT FITTED 0
NONE
NONE
15600
12.000000
4.427000
51148
TRUE
1 0 8 72 0 0 0 0 

15798.010000






#HDR
-1
-1
#GR
CM-1
%T
0.00002384185791015625
0.0
5000.000000
-1.000000
4631
8
77.659559
26.124310
#DATA
5000.000000	64.717984 
4999.000000	64.643621 
4998.000000	64.616394 
4997.000000	64.639735 
4996.000000	64.706659 
4995.000000	64.802241 
4994.000000	64.905118 
4993.000000	64.992308 
4992.000000	65.043568 
4991.000000	65.044927 
4990.000000	64.992189 
4989.000000	64.890694 
4988.000000	64.755034 
4987.000000	64.604926 
4986.000000	64.462518 
4985.000000	64.347720 
4984.000000	64.276266 
4983.000000	64.257383 
4982.000000	64.293837 
4981.000000	64.381861 
4980.000000	64.512228 
4979.000000	64.671492 
4978.000000	64.843201 
4977.000000	65.010285 
4976.000000	65.156269 
4975.000000	65.268063 
4974.000000	65.336656 
4973.000000	65.358829 
4972.000000	65.337252 
4971.000000	65.279984 
4970.000000	65.199923 
4969.000000	65.111255 
4968.000000	65.028119 
4967.000000	64.961051 
4966.000000	64.916968 
4965.000000	64.897084 
4964.000000	64.898705 
4963.000000	64.915442 
4962.000000	64.939355 
4961.000000	64.963436 
4960.000000	64.983081 
4959.000000	64.996743 
4958.000000	65.005326 
4957.000000	65.011954 
4956.000000	65.020442 
4955.000000	65.034461 
4954.000000	65.055942 
4953.000000	65.084385 
4952.000000	65.116786 
4951.000000	65.148639 
4950.000000	65.174746 
4949.000000	65.190505 
4948.000000	65.192890 
4947.000000	65.180850 
4946.000000	65.155768 
4945.000000	65.121459 
4944.000000	65.082716 
4943.000000	65.044593 
4942.000000	65.010666 
4941.000000	64.983010 
4940.000000	64.960575 
4939.000000	64.941024 
4938.000000	64.919853 
4937.000000	64.891910 
4936.000000	64.852786 
4935.000000	64.800262 
4934.000000	64.734983 
4933.000000	64.660120 
4932.000000	64.581537 
4931.000000	64.506363 
4930.000000	64.441680 
4929.000000	64.392876 
4928.000000	64.363145 
4927.000000	64.353275 
4926.000000	64.361977 
4925.000000	64.386868 
4924.000000	64.424705 
4923.000000	64.472222 
4922.000000	64.526391 
4921.000000	64.584517 
4920.000000	64.643239 
4919.000000	64.699363 
4918.000000	64.749646 
4917.000000	64.791870 
4916.000000	64.825177 
4915.000000	64.850401 
4914.000000	64.869785 
4913.000000	64.886403 
4912.000000	64.904093 
4911.000000	64.925217 
4910.000000	64.950084 
4909.000000	64.977073 
4908.000000	65.003323 
4907.000000	65.026164 
4906.000000	65.044498 
4905.000000	65.060067 
4904.000000	65.077519 
4903.000000	65.102601 
4902.000000	65.140056 
4901.000000	65.191674 
4900.000000	65.254569 
4899.000000	65.320301 
4898.000000	65.376257 
4897.000000	65.408396 
4896.000000	65.404868 
4895.000000	65.359401 
4894.000000	65.273880 
4893.000000	65.158033 
4892.000000	65.028738 
4891.000000	64.906835 
4890.000000	64.812850 
4889.000000	64.762258 
4888.000000	64.762663 
4887.000000	64.813423 
4886.000000	64.905190 
4885.000000	65.022134 
4884.000000	65.145754 
4883.000000	65.258622 
4882.000000	65.347862 
4881.000000	65.405964 
4880.000000	65.432858 
4879.000000	65.434026 
4878.000000	65.419340 
4877.000000	65.400004 
4876.000000	65.386009 
4875.000000	65.383887 
4874.000000	65.395665 
4873.000000	65.418601 
4872.000000	65.446472 
4871.000000	65.470933 
4870.000000	65.483880 
4869.000000	65.479183 
4868.000000	65.453982 
4867.000000	65.409159 
4866.000000	65.348863 
4865.000000	65.278983 
4864.000000	65.205788 
4863.000000	65.133762 
4862.000000	65.065574 
4861.000000	65.000796 
4860.000000	64.936423 
4859.000000	64.868998 
4858.000000	64.796137 
4857.000000	64.718818 
4856.000000	64.641332 
4855.000000	64.572000 
4854.000000	64.520382 
4853.000000	64.496326 
4852.000000	64.506793 
4851.000000	64.553236 
4850.000000	64.630270 
4849.000000	64.726781 
4848.000000	64.827966 
4847.000000	64.918208 
4846.000000	64.984416 
4845.000000	65.018796 
4844.000000	65.020251 
4843.000000	64.994263 
4842.000000	64.951276 
4841.000000	64.903283 
4840.000000	64.861488 
4839.000000	64.833760 
4838.000000	64.823794 
4837.000000	64.831900 
4836.000000	64.855408 
4835.000000	64.891314 
4834.000000	64.936280 
4833.000000	64.987683 
4832.000000	65.042996 
4831.000000	65.099644 
4830.000000	65.153932 
4829.000000	65.200614 
4828.000000	65.233540 
4827.000000	65.246939 
4826.000000	65.236473 
4825.000000	65.200567 
4824.000000	65.141510 
4823.000000	65.065693 
4822.000000	64.982628 
4821.000000	64.903640 
4820.000000	64.839601 
4819.000000	64.799118 
4818.000000	64.787673 
4817.000000	64.806222 
4816.000000	64.851427 
4815.000000	64.916014 
4814.000000	64.990019 
4813.000000	65.062594 
4812.000000	65.122914 
4811.000000	65.162730 
4810.000000	65.176987 
4809.000000	65.165400 
4808.000000	65.131735 
4807.000000	65.083599 
4806.000000	65.030193 
4805.000000	64.980864 
4804.000000	64.943528 
4803.000000	64.923071 
4802.000000	64.921784 
4801.000000	64.938068 
4800.000000	64.968013 
4799.000000	65.005373 
4798.000000	65.043401 
4797.000000	65.075302 
4796.000000	65.095257 
4795.000000	65.099191 
4794.000000	65.085315 
4793.000000	65.054512 
4792.000000	65.010261 
4791.000000	64.958190 
4790.000000	64.904904 
4789.000000	64.857864 
4788.000000	64.823627 
4787.000000	64.806318 
4786.000000	64.806890 
4785.000000	64.823436 
4784.000000	64.851355 
4783.000000	64.884686 
4782.000000	64.917016 
4781.000000	64.942836 
4780.000000	64.958286 
4779.000000	64.961647 
4778.000000	64.952898 
4777.000000	64.933180 
4776.000000	64.904356 
4775.000000	64.868235 
4774.000000	64.826989 
4773.000000	64.783120 
4772.000000	64.739322 
4771.000000	64.698600 
4770.000000	64.664220 
4769.000000	64.639258 
4768.000000	64.626097 
4767.000000	64.625954 
4766.000000	64.638471 
4765.000000	64.662075 
4764.000000	64.694738 
4763.000000	64.734864 
4762.000000	64.781379 
4761.000000	64.834165 
4760.000000	64.893674 
4759.000000	64.960074 
4758.000000	65.032339 
4757.000000	65.107369 
4756.000000	65.180301 
4755.000000	65.244483 
4754.000000	65.293383 
4753.000000	65.321683 
4752.000000	65.327048 
4751.000000	65.310764 
4750.000000	65.278363 
4749.000000	65.237975 
4748.000000	65.198850 
4747.000000	65.169310 
4746.000000	65.155482 
4745.000000	65.159702 
4744.000000	65.180397 
4743.000000	65.212845 
4742.000000	65.250778 
4741.000000	65.287256 
4740.000000	65.316200 
4739.000000	65.332913 
4738.000000	65.334916 
4737.000000	65.321183 
4736.000000	65.292191 
4735.000000	65.249180 
4734.000000	65.194058 
4733.000000	65.129613 
4732.000000	65.059161 
4731.000000	64.986371 
4730.000000	64.915442 
4729.000000	64.850807 
4728.000000	64.797258 
4727.000000	64.758038 
4726.000000	64.736056 
4725.000000	64.733171 
4724.000000	64.750528 
4723.000000	64.787483 
4722.000000	64.842486 
4721.000000	64.912676 
4720.000000	64.993691 
4719.000000	65.079474 
4718.000000	65.163183 
4717.000000	65.237474 
4716.000000	65.296030 
4715.000000	65.334296 
4714.000000	65.350651 
4713.000000	65.346503 
4712.000000	65.326356 
4711.000000	65.296673 
4710.000000	65.264201 
4709.000000	65.233945 
4708.000000	65.208554 
4707.000000	65.187311 
4706.000000	65.166616 
4705.000000	65.141177 
4704.000000	65.106391 
4703.000000	65.059661 
4702.000000	65.001630 
4701.000000	64.936470 
4700.000000	64.871001 
4699.000000	64.813065 
4698.000000	64.769411 
4697.000000	64.743876 
4696.000000	64.736390 
4695.000000	64.743018 
4694.000000	64.756941 
4693.000000	64.770340 
4692.000000	64.776515 
4691.000000	64.771628 
4690.000000	64.755558 
4689.000000	64.731860 
4688.000000	64.706182 
4687.000000	64.685273 
4686.000000	64.674901 
4685.000000	64.678597 
4684.000000	64.696788 
4683.000000	64.727210 
4682.000000	64.765453 
4681.000000	64.806604 
4680.000000	64.845919 
4679.000000	64.879846 
4678.000000	64.906096 
4677.000000	64.923906 
4676.000000	64.933300 
4675.000000	64.934563 
4674.000000	64.928197 
4673.000000	64.914703 
4672.000000	64.894914 
4671.000000	64.870405 
4670.000000	64.843559 
4669.000000	64.817786 
4668.000000	64.796781 
4667.000000	64.783740 
4666.000000	64.780855 
4665.000000	64.788722 
4664.000000	64.806485 
4663.000000	64.831924 
4662.000000	64.862394 
4661.000000	64.895057 
4660.000000	64.927983 
4659.000000	64.960217 
4658.000000	64.991664 
4657.000000	65.022635 
4656.000000	65.053248 
4655.000000	65.083074 
4654.000000	65.110921 
4653.000000	65.134930 
4652.000000	65.152955 
4651.000000	65.162611 
4650.000000	65.162587 
4649.000000	65.152192 
4648.000000	65.131807 
4647.000000	65.102553 
4646.000000	65.066361 
4645.000000	65.025424 
4644.000000	64.982819 
4643.000000	64.941525 
4642.000000	64.904832 
4641.000000	64.875245 
4640.000000	64.854645 
4639.000000	64.843559 
4638.000000	64.840745 
4637.000000	64.843988 
4636.000000	64.850378 
4635.000000	64.857077 
4634.000000	64.861607 
4633.000000	64.862251 
4632.000000	64.858365 
4631.000000	64.850306 
4630.000000	64.839386 
4629.000000	64.827561 
4628.000000	64.817047 
4627.000000	64.810299 
4626.000000	64.809393 
4625.000000	64.815735 
4624.000000	64.829826 
4623.000000	64.851427 
4622.000000	64.879059 
4621.000000	64.910030 
4620.000000	64.940500 
4619.000000	64.966464 
4618.000000	64.983558 
4617.000000	64.988207 
4616.000000	64.977192 
4615.000000	64.949107 
4614.000000	64.903140 
4613.000000	64.839768 
4612.000000	64.760828 
4611.000000	64.669561 
4610.000000	64.571523 
4609.000000	64.474081 
4608.000000	64.386510 
4607.000000	64.318728 
4606.000000	64.279651 
4605.000000	64.275360 
4604.000000	64.307498 
4603.000000	64.372611 
4602.000000	64.462995 
4601.000000	64.568495 
4600.000000	64.677810 
4599.000000	64.781427 
4598.000000	64.872717 
4597.000000	64.948964 
4596.000000	65.011239 
4595.000000	65.062737 
4594.000000	65.107035 
4593.000000	65.146160 
4592.000000	65.180468 
4591.000000	65.207505 
4590.000000	65.223717 
4589.000000	65.224790 
4588.000000	65.208554 
4587.000000	65.174841 
4586.000000	65.126800 
4585.000000	65.070128 
4584.000000	65.012359 
4583.000000	64.961338 
4582.000000	64.923644 
4581.000000	64.903426 
4580.000000	64.901733 
4579.000000	64.915513 
4578.000000	64.938259 
4577.000000	64.961504 
4576.000000	64.976763 
4575.000000	64.977431 
4574.000000	64.960861 
4573.000000	64.928507 
4572.000000	64.886379 
4571.000000	64.843940 
4570.000000	64.811992 
4569.000000	64.799666 
4568.000000	64.812636 
4567.000000	64.852094 
4566.000000	64.914107 
4565.000000	64.990496 
4564.000000	65.070724 
4563.000000	65.144062 
4562.000000	65.201592 
4561.000000	65.238165 
4560.000000	65.252590 
4559.000000	65.246963 
4558.000000	65.226554 
4557.000000	65.197682 
4556.000000	65.167355 
4555.000000	65.142273 
4554.000000	65.127444 
4553.000000	65.126252 
4552.000000	65.139412 
4551.000000	65.165233 
4550.000000	65.199089 
4549.000000	65.234184 
4548.000000	65.262269 
4547.000000	65.275430 
4546.000000	65.267157 
4545.000000	65.234494 
4544.000000	65.178799 
4543.000000	65.106654 
4542.000000	65.028238 
4541.000000	64.956188 
4540.000000	64.902329 
4539.000000	64.876103 
4538.000000	64.882540 
4537.000000	64.922046 
4536.000000	64.991140 
4535.000000	65.082621 
4534.000000	65.187835 
4533.000000	65.296673 
4532.000000	65.399289 
4531.000000	65.485763 
4530.000000	65.546965 
4529.000000	65.575265 
4528.000000	65.565419 
4527.000000	65.515637 
4526.000000	65.428376 
4525.000000	65.310025 
4524.000000	65.170574 
4523.000000	65.022063 
4522.000000	64.877104 
4521.000000	64.746546 
4520.000000	64.638447 
4519.000000	64.557099 
4518.000000	64.503860 
4517.000000	64.478039 
4516.000000	64.478111 
4515.000000	64.501857 
4514.000000	64.546847 
4513.000000	64.609146 
4512.000000	64.683794 
4511.000000	64.762783 
4510.000000	64.837694 
4509.000000	64.899349 
4508.000000	64.941191 
4507.000000	64.960527 
4506.000000	64.959287 
4505.000000	64.943718 
4504.000000	64.922738 
4503.000000	64.905691 
4502.000000	64.899539 
4501.000000	64.907550 
4500.000000	64.927935 
4499.000000	64.954805 
4498.000000	64.980483 
4497.000000	64.998102 
4496.000000	65.003824 
4495.000000	64.997935 
4494.000000	64.983940 
4493.000000	64.967298 
4492.000000	64.953637 
4491.000000	64.946889 
4490.000000	64.947247 
4489.000000	64.951610 
4488.000000	64.955592 
4487.000000	64.954710 
4486.000000	64.945983 
4485.000000	64.929389 
4484.000000	64.907979 
4483.000000	64.887642 
4482.000000	64.875435 
4481.000000	64.877891 
4480.000000	64.898753 
4479.000000	64.937806 
4478.000000	64.990854 
4477.000000	65.049791 
4476.000000	65.104627 
4475.000000	65.144968 
4474.000000	65.162467 
4473.000000	65.152263 
4472.000000	65.114212 
4471.000000	65.053081 
4470.000000	64.977836 
4469.000000	64.900445 
4468.000000	64.833641 
4467.000000	64.789390 
4466.000000	64.776635 
4465.000000	64.799952 
4464.000000	64.858603 
4463.000000	64.947605 
4462.000000	65.057754 
4461.000000	65.177106 
4460.000000	65.292739 
4459.000000	65.392446 
4458.000000	65.466928 
4457.000000	65.509939 
4456.000000	65.520286 
4455.000000	65.501523 
4454.000000	65.461349 
4453.000000	65.410208 
4452.000000	65.359187 
4451.000000	65.318679 
4450.000000	65.295624 
4449.000000	65.293526 
4448.000000	65.311026 
4447.000000	65.343379 
4446.000000	65.383315 
4445.000000	65.423250 
4444.000000	65.457034 
4443.000000	65.480995 
4442.000000	65.494394 
4441.000000	65.498709 
4440.000000	65.495920 
4439.000000	65.487027 
4438.000000	65.471673 
4437.000000	65.447545 
4436.000000	65.411281 
4435.000000	65.359020 
4434.000000	65.289640 
4433.000000	65.204191 
4432.000000	65.106272 
4431.000000	65.001320 
4430.000000	64.895367 
4429.000000	64.794468 
4428.000000	64.703440 
4427.000000	64.625787 
4426.000000	64.562988 
4425.000000	64.515471 
4424.000000	64.482355 
4423.000000	64.462709 
4422.000000	64.454650 
4421.000000	64.457345 
4420.000000	64.470314 
4419.000000	64.494299 
4418.000000	64.530396 
4417.000000	64.578270 
4416.000000	64.635205 
4415.000000	64.696407 
4414.000000	64.755988 
4413.000000	64.810466 
4412.000000	64.859676 
4411.000000	64.905619 
4410.000000	64.952397 
4409.000000	65.003776 
4408.000000	65.062737 
4407.000000	65.132260 
4406.000000	65.213513 
4405.000000	65.303349 
4404.000000	65.396642 
4403.000000	65.488600 
4402.000000	65.574049 
4401.000000	65.651559 
4400.000000	65.718293 
4399.000000	65.769791 
4398.000000	65.799331 
4397.000000	65.799212 
4396.000000	65.763807 
4395.000000	65.685725 
4394.000000	65.575289 
4393.000000	65.462827 
4392.000000	65.390229 
4391.000000	65.403580 
4390.000000	65.521883 
4389.000000	65.728211 
4388.000000	65.967631 
4387.000000	66.161918 
4386.000000	66.230916 
4385.000000	66.121745 
4384.000000	65.829467 
4383.000000	65.406727 
4382.000000	64.957737 
4381.000000	64.610862 
4380.000000	64.485096 
4379.000000	64.653325 
4378.000000	65.120244 
4377.000000	65.813946 
4376.000000	66.612529 
4375.000000	67.356777 
4374.000000	67.907595 
4373.000000	68.143892 
4372.000000	68.004441 
4371.000000	67.463302 
4370.000000	66.519188 
4369.000000	65.207576 
4368.000000	63.576388 
4367.000000	61.740946 
4366.000000	59.874844 
4365.000000	58.219385 
4364.000000	57.049465 
4363.000000	56.605577 
4362.000000	57.034492 
4361.000000	58.321857 
4360.000000	60.281276 
4359.000000	62.575340 
4358.000000	64.793372 
4357.000000	66.539573 
4356.000000	67.534542 
4355.000000	67.678189 
4354.000000	67.071104 
4353.000000	65.976881 
4352.000000	64.745330 
4351.000000	63.711547 
4350.000000	63.111066 
4349.000000	63.031721 
4348.000000	63.403296 
4347.000000	64.055824 
4346.000000	64.763593 
4345.000000	65.346813 
4344.000000	65.690112 
4343.000000	65.773820 
4342.000000	65.653967 
4341.000000	65.415573 
4340.000000	65.155649 
4339.000000	64.937520 
4338.000000	64.793968 
4337.000000	64.723300 
4336.000000	64.700770 
4335.000000	64.695072 
4334.000000	64.685201 
4333.000000	64.670276 
4332.000000	64.659047 
4331.000000	64.667725 
4330.000000	64.705586 
4329.000000	64.773535 
4328.000000	64.864563 
4327.000000	64.965891 
4326.000000	65.062761 
4325.000000	65.142154 
4324.000000	65.202450 
4323.000000	65.246868 
4322.000000	65.276432 
4321.000000	65.292310 
4320.000000	65.291833 
4319.000000	65.273189 
4318.000000	65.242338 
4317.000000	65.205454 
4316.000000	65.169024 
4315.000000	65.136075 
4314.000000	65.104293 
4313.000000	65.069890 
4312.000000	65.030288 
4311.000000	64.984726 
4310.000000	64.935541 
4309.000000	64.888429 
4308.000000	64.851164 
4307.000000	64.832425 
4306.000000	64.839553 
4305.000000	64.876174 
4304.000000	64.941024 
4303.000000	65.027856 
4302.000000	65.126752 
4301.000000	65.226531 
4300.000000	65.316700 
4299.000000	65.390038 
4298.000000	65.442800 
4297.000000	65.474605 
4296.000000	65.487384 
4295.000000	65.483784 
4294.000000	65.466547 
4293.000000	65.438628 
4292.000000	65.402579 
4291.000000	65.361618 
4290.000000	65.319132 
4289.000000	65.279936 
4288.000000	65.248298 
4287.000000	65.227699 
4286.000000	65.219402 
4285.000000	65.222263 
4284.000000	65.232443 
4283.000000	65.244269 
4282.000000	65.251541 
4281.000000	65.249133 
4280.000000	65.234398 
4279.000000	65.207934 
4278.000000	65.173602 
4277.000000	65.137743 
4276.000000	65.107250 
4275.000000	65.088295 
4274.000000	65.085148 
4273.000000	65.099287 
4272.000000	65.129303 
4271.000000	65.171146 
4270.000000	65.219783 
4269.000000	65.269041 
4268.000000	65.313148 
4267.000000	65.346360 
4266.000000	65.363526 
4265.000000	65.360236 
4264.000000	65.333509 
4263.000000	65.282154 
4262.000000	65.207219 
4261.000000	65.112733 
4260.000000	65.006065 
4259.000000	64.896893 
4258.000000	64.795875 
4257.000000	64.712953 
4256.000000	64.655661 
4255.000000	64.627623 
4254.000000	64.628076 
4253.000000	64.651775 
4252.000000	64.690017 
4251.000000	64.731836 
4250.000000	64.766478 
4249.000000	64.784669 
4248.000000	64.780950 
4247.000000	64.754271 
4246.000000	64.708709 
4245.000000	64.651894 
4244.000000	64.594364 
4243.000000	64.546465 
4242.000000	64.517426 
4241.000000	64.513349 
4240.000000	64.536786 
4239.000000	64.586663 
4238.000000	64.658808 
4237.000000	64.747047 
4236.000000	64.843821 
4235.000000	64.941263 
4234.000000	65.031528 
4233.000000	65.107679 
4232.000000	65.163969 
4231.000000	65.196061 
4230.000000	65.202283 
4229.000000	65.183663 
4228.000000	65.144181 
4227.000000	65.090203 
4226.000000	65.030241 
4225.000000	64.973402 
4224.000000	64.927458 
4223.000000	64.897561 
4222.000000	64.885926 
4221.000000	64.891409 
4220.000000	64.909696 
4219.000000	64.934825 
4218.000000	64.960598 
4217.000000	64.982461 
4216.000000	64.998292 
4215.000000	65.008664 
4214.000000	65.015125 
4213.000000	65.020179 
4212.000000	65.026116 
4211.000000	65.034365 
4210.000000	65.044069 
4209.000000	65.053772 
4208.000000	65.062499 
4207.000000	65.069580 
4206.000000	65.075302 
4205.000000	65.080261 
4204.000000	65.085363 
4203.000000	65.090250 
4202.000000	65.092992 
4201.000000	65.090489 
4200.000000	65.079712 
4199.000000	65.059447 
4198.000000	65.031862 
4197.000000	65.003752 
4196.000000	64.985585 
4195.000000	64.990448 
4194.000000	65.029239 
4193.000000	65.107488 
4192.000000	65.221047 
4191.000000	65.356755 
4190.000000	65.492296 
4189.000000	65.601229 
4188.000000	65.656948 
4187.000000	65.640401 
4186.000000	65.542507 
4185.000000	65.366959 
4184.000000	65.129327 
4183.000000	64.854049 
4182.000000	64.570140 
4181.000000	64.305448 
4180.000000	64.083218 
4179.000000	63.919067 
4178.000000	63.819956 
4177.000000	63.785076 
4176.000000	63.807463 
4175.000000	63.876295 
4174.000000	63.979291 
4173.000000	64.104247 
4172.000000	64.239764 
4171.000000	64.375925 
4170.000000	64.504718 
4169.000000	64.620256 
4168.000000	64.718794 
4167.000000	64.798474 
4166.000000	64.859485 
4165.000000	64.903187 
4164.000000	64.932441 
4163.000000	64.950370 
4162.000000	64.960384 
4161.000000	64.965510 
4160.000000	64.969015 
4159.000000	64.973711 
4158.000000	64.983010 
4157.000000	64.999818 
4156.000000	65.026879 
4155.000000	65.065670 
4154.000000	65.116357 
4153.000000	65.177154 
4152.000000	65.244722 
4151.000000	65.314221 
4150.000000	65.379714 
4149.000000	65.436100 
4148.000000	65.480136 
4147.000000	65.510416 
4146.000000	65.527462 
4145.000000	65.533280 
4144.000000	65.530657 
4143.000000	65.522551 
4142.000000	65.511417 
4141.000000	65.498447 
4140.000000	65.483593 
4139.000000	65.466976 
4138.000000	65.448713 
4137.000000	65.429377 
4136.000000	65.410017 
4135.000000	65.392327 
4134.000000	65.377855 
4133.000000	65.367531 
4132.000000	65.361237 
4131.000000	65.357947 
4130.000000	65.355610 
4129.000000	65.351819 
4128.000000	65.344309 
4127.000000	65.331196 
4126.000000	65.311622 
4125.000000	65.285730 
4124.000000	65.254759 
4123.000000	65.220713 
4122.000000	65.185666 
4121.000000	65.151333 
4120.000000	65.118408 
4119.000000	65.086650 
4118.000000	65.054368 
4117.000000	65.019202 
4116.000000	64.978790 
4115.000000	64.932131 
4114.000000	64.879846 
4113.000000	64.824938 
4112.000000	64.772248 
4111.000000	64.728093 
4110.000000	64.698767 
4109.000000	64.689493 
4108.000000	64.702892 
4107.000000	64.738631 
4106.000000	64.792895 
4105.000000	64.859795 
4104.000000	64.931845 
4103.000000	65.002107 
4102.000000	65.065026 
4101.000000	65.117478 
4100.000000	65.158891 
4099.000000	65.190458 
4098.000000	65.214395 
4097.000000	65.232443 
4096.000000	65.244984 
4095.000000	65.250754 
4094.000000	65.247511 
4093.000000	65.232944 
4092.000000	65.206003 
4091.000000	65.167975 
4090.000000	65.122818 
4089.000000	65.076732 
4088.000000	65.036845 
4087.000000	65.009570 
4086.000000	64.999127 
4085.000000	65.006279 
4084.000000	65.028071 
4083.000000	65.058898 
4082.000000	65.091705 
4081.000000	65.119528 
4080.000000	65.137529 
4079.000000	65.143680 
4078.000000	65.139389 
4077.000000	65.128254 
4076.000000	65.115427 
4075.000000	65.105748 
4074.000000	65.102601 
4073.000000	65.107512 
4072.000000	65.119457 
4071.000000	65.135622 
4070.000000	65.151667 
4069.000000	65.163731 
4068.000000	65.168118 
4067.000000	65.162324 
4066.000000	65.145301 
4065.000000	65.117335 
4064.000000	65.079855 
4063.000000	65.035200 
4062.000000	64.986181 
4061.000000	64.935922 
4060.000000	64.887881 
4059.000000	64.845609 
4058.000000	64.812397 
4057.000000	64.791131 
4056.000000	64.783644 
4055.000000	64.790964 
4054.000000	64.812326 
4053.000000	64.845752 
4052.000000	64.887881 
4051.000000	64.934706 
4050.000000	64.981937 
4049.000000	65.025877 
4048.000000	65.063405 
4047.000000	65.092611 
4046.000000	65.112662 
4045.000000	65.123295 
4044.000000	65.124940 
4043.000000	65.117907 
4042.000000	65.102481 
4041.000000	65.079045 
4040.000000	65.048503 
4039.000000	65.012788 
4038.000000	64.975237 
4037.000000	64.940381 
4036.000000	64.913344 
4035.000000	64.898967 
4034.000000	64.900755 
4033.000000	64.919734 
4032.000000	64.954257 
4031.000000	64.999723 
4030.000000	65.049719 
4029.000000	65.097212 
4028.000000	65.136313 
4027.000000	65.163326 
4026.000000	65.177440 
4025.000000	65.180635 
4024.000000	65.176939 
4023.000000	65.170955 
4022.000000	65.166759 
4021.000000	65.166854 
4020.000000	65.171647 
4019.000000	65.180253 
4018.000000	65.190291 
4017.000000	65.199375 
4016.000000	65.205097 
4015.000000	65.206098 
4014.000000	65.201473 
4013.000000	65.191006 
4012.000000	65.174889 
4011.000000	65.153741 
4010.000000	65.128684 
4009.000000	65.101265 
4008.000000	65.073704 
4007.000000	65.048408 
4006.000000	65.028023 
4005.000000	65.014624 
4004.000000	65.008783 
4003.000000	65.009522 
4002.000000	65.014219 
4001.000000	65.019321 
4000.000000	65.021157 
3999.000000	65.017199 
3998.000000	65.006852 
3997.000000	64.991497 
3996.000000	64.974594 
3995.000000	64.960312 
3994.000000	64.952373 
3993.000000	64.952802 
3992.000000	64.961242 
3991.000000	64.974975 
3990.000000	64.989662 
3989.000000	65.000319 
3988.000000	65.002822 
3987.000000	64.994883 
3986.000000	64.976882 
3985.000000	64.951634 
3984.000000	64.923763 
3983.000000	64.898586 
3982.000000	64.880728 
3981.000000	64.873456 
3980.000000	64.878320 
3979.000000	64.895009 
3978.000000	64.921808 
3977.000000	64.956283 
3976.000000	64.995718 
3975.000000	65.037608 
3974.000000	65.079569 
3973.000000	65.119385 
3972.000000	65.154910 
3971.000000	65.183973 
3970.000000	65.204811 
3969.000000	65.216159 
3968.000000	65.217781 
3967.000000	65.210843 
3966.000000	65.197801 
3965.000000	65.182352 
3964.000000	65.168428 
3963.000000	65.159869 
3962.000000	65.158748 
3961.000000	65.165185 
3960.000000	65.177059 
3959.000000	65.190720 
3958.000000	65.201306 
3957.000000	65.204024 
3956.000000	65.195345 
3955.000000	65.173697 
3954.000000	65.139555 
3953.000000	65.095448 
3952.000000	65.045237 
3951.000000	64.993453 
3950.000000	64.944553 
3949.000000	64.902257 
3948.000000	64.869117 
3947.000000	64.846301 
3946.000000	64.833974 
3945.000000	64.831304 
3944.000000	64.836239 
3943.000000	64.846301 
3942.000000	64.858746 
3941.000000	64.871406 
3940.000000	64.881849 
3939.000000	64.889121 
3938.000000	64.893436 
3937.000000	64.896607 
3936.000000	64.901375 
3935.000000	64.911127 
3934.000000	64.928722 
3933.000000	64.956021 
3932.000000	64.993262 
3931.000000	65.038800 
3930.000000	65.089249 
3929.000000	65.140271 
3928.000000	65.187144 
3927.000000	65.225625 
3926.000000	65.252375 
3925.000000	65.265774 
3924.000000	65.265750 
3923.000000	65.253663 
3922.000000	65.231585 
3921.000000	65.202736 
3920.000000	65.170073 
3919.000000	65.136194 
3918.000000	65.102720 
3917.000000	65.070772 
3916.000000	65.040707 
3915.000000	65.012431 
3914.000000	64.986014 
3913.000000	64.961600 
3912.000000	64.940571 
3911.000000	64.925217 
3910.000000	64.918708 
3909.000000	64.923906 
3908.000000	64.942741 
3907.000000	64.975118 
3906.000000	65.018415 
3905.000000	65.067458 
3904.000000	65.115642 
3903.000000	65.156126 
3902.000000	65.183329 
3901.000000	65.194153 
3900.000000	65.188932 
3899.000000	65.171289 
3898.000000	65.147113 
3897.000000	65.123128 
3896.000000	65.105748 
3895.000000	65.099573 
3894.000000	65.106606 
3893.000000	65.125989 
3892.000000	65.154623 
3891.000000	65.187907 
3890.000000	65.221118 
3889.000000	65.250110 
3888.000000	65.271902 
3887.000000	65.285396 
3886.000000	65.290784 
3885.000000	65.289783 
3884.000000	65.284848 
3883.000000	65.278983 
3882.000000	65.275096 
3881.000000	65.275359 
3880.000000	65.280890 
3879.000000	65.291166 
3878.000000	65.304303 
3877.000000	65.316939 
3876.000000	65.325093 
3875.000000	65.324640 
3874.000000	65.312457 
3873.000000	65.286970 
3872.000000	65.249013 
3871.000000	65.201568 
3870.000000	65.149545 
3869.000000	65.099096 
3868.000000	65.056252 
3867.000000	65.025758 
3866.000000	65.010046 
3865.000000	65.008783 
3864.000000	65.019202 
3863.000000	65.036392 
3862.000000	65.055012 
3861.000000	65.070319 
3860.000000	65.079498 
3859.000000	65.081882 
3858.000000	65.078973 
3857.000000	65.073418 
3856.000000	65.068125 
3855.000000	65.065217 
3854.000000	65.065336 
3853.000000	65.067410 
3852.000000	65.069150 
3851.000000	65.068078 
3850.000000	65.062403 
3849.000000	65.051794 
3848.000000	65.037751 
3847.000000	65.023279 
3846.000000	65.011906 
3845.000000	65.006613 
3844.000000	65.008950 
3843.000000	65.018320 
3842.000000	65.031838 
3841.000000	65.044856 
3840.000000	65.052294 
3839.000000	65.049958 
3838.000000	65.035176 
3837.000000	65.008473 
3836.000000	64.972925 
3835.000000	64.934873 
3834.000000	64.901733 
3833.000000	64.881229 
3832.000000	64.879727 
3831.000000	64.900588 
3830.000000	64.943480 
3829.000000	65.003824 
3828.000000	65.073895 
3827.000000	65.143656 
3826.000000	65.203022 
3825.000000	65.243625 
3824.000000	65.260457 
3823.000000	65.252900 
3822.000000	65.224575 
3821.000000	65.182638 
3820.000000	65.136170 
3819.000000	65.094041 
3818.000000	65.063047 
3817.000000	65.047073 
3816.000000	65.046358 
3815.000000	65.058183 
3814.000000	65.077948 
3813.000000	65.100598 
3812.000000	65.122199 
3811.000000	65.140151 
3810.000000	65.154027 
3809.000000	65.164446 
3808.000000	65.172958 
3807.000000	65.181088 
3806.000000	65.189743 
3805.000000	65.198707 
3804.000000	65.206694 
3803.000000	65.211987 
3802.000000	65.212798 
3801.000000	65.208125 
3800.000000	65.197920 
3799.000000	65.183115 
3798.000000	65.165448 
3797.000000	65.147185 
3796.000000	65.130543 
3795.000000	65.117192 
3794.000000	65.108013 
3793.000000	65.103006 
3792.000000	65.101814 
3791.000000	65.103888 
3790.000000	65.109038 
3789.000000	65.117144 
3788.000000	65.128350 
3787.000000	65.142583 
3786.000000	65.159511 
3785.000000	65.178108 
3784.000000	65.196394 
3783.000000	65.211582 
3782.000000	65.220522 
3781.000000	65.220236 
3780.000000	65.208792 
3779.000000	65.185785 
3778.000000	65.152549 
3777.000000	65.112566 
3776.000000	65.070772 
3775.000000	65.032935 
3774.000000	65.004491 
3773.000000	64.989566 
3772.000000	64.990043 
3771.000000	65.005159 
3770.000000	65.031504 
3769.000000	65.063905 
3768.000000	65.096426 
3767.000000	65.123462 
3766.000000	65.141105 
3765.000000	65.147805 
3764.000000	65.144658 
3763.000000	65.135073 
3762.000000	65.123820 
3761.000000	65.115880 
3760.000000	65.115046 
3759.000000	65.123414 
3758.000000	65.140581 
3757.000000	65.164041 
3756.000000	65.189385 
3755.000000	65.212130 
3754.000000	65.228033 
3753.000000	65.234589 
3752.000000	65.231227 
3751.000000	65.219545 
3750.000000	65.202713 
3749.000000	65.184879 
3748.000000	65.169954 
3747.000000	65.160942 
3746.000000	65.158963 
3745.000000	65.163493 
3744.000000	65.172266 
3743.000000	65.182137 
3742.000000	65.189480 
3741.000000	65.191292 
3740.000000	65.185594 
3739.000000	65.172123 
3738.000000	65.152215 
3737.000000	65.128898 
3736.000000	65.105891 
3735.000000	65.087294 
3734.000000	65.076541 
3733.000000	65.076255 
3732.000000	65.087413 
3731.000000	65.109419 
3730.000000	65.140438 
3729.000000	65.177822 
3728.000000	65.218329 
3727.000000	65.258598 
3726.000000	65.295624 
3725.000000	65.326476 
3724.000000	65.348768 
3723.000000	65.360641 
3722.000000	65.361142 
3721.000000	65.350127 
3720.000000	65.328598 
3719.000000	65.298414 
3718.000000	65.262174 
3717.000000	65.223026 
3716.000000	65.184497 
3715.000000	65.149664 
3714.000000	65.121078 
3713.000000	65.100288 
3712.000000	65.087866 
3711.000000	65.083360 
3710.000000	65.085506 
3709.000000	65.092301 
3708.000000	65.101623 
3707.000000	65.111517 
3706.000000	65.120410 
3705.000000	65.127372 
3704.000000	65.131759 
3703.000000	65.133237 
3702.000000	65.131449 
3701.000000	65.126037 
3700.000000	65.116620 
3699.000000	65.103054 
3698.000000	65.085434 
3697.000000	65.064358 
3696.000000	65.040874 
3695.000000	65.016889 
3694.000000	64.994740 
3693.000000	64.976596 
3692.000000	64.964795 
3691.000000	64.961171 
3690.000000	64.966845 
3689.000000	64.982080 
3688.000000	65.005850 
3687.000000	65.035843 
3686.000000	65.068888 
3685.000000	65.101242 
3684.000000	65.128898 
3683.000000	65.148353 
3682.000000	65.157341 
3681.000000	65.155196 
3680.000000	65.143060 
3679.000000	65.123772 
3678.000000	65.101313 
3677.000000	65.080237 
3676.000000	65.064668 
3675.000000	65.057110 
3674.000000	65.058612 
3673.000000	65.067815 
3672.000000	65.081620 
3671.000000	65.095496 
3670.000000	65.104627 
3669.000000	65.104651 
3668.000000	65.092730 
3667.000000	65.068101 
3666.000000	65.032172 
3665.000000	64.988732 
3664.000000	64.943003 
3663.000000	64.901185 
3662.000000	64.869141 
3661.000000	64.851570 
3660.000000	64.850997 
3659.000000	64.867639 
3658.000000	64.899492 
3657.000000	64.942836 
3656.000000	64.993023 
3655.000000	65.045309 
3654.000000	65.095591 
3653.000000	65.140795 
3652.000000	65.179204 
3651.000000	65.210032 
3650.000000	65.233206 
3649.000000	65.249180 
3648.000000	65.258240 
3647.000000	65.260982 
3646.000000	65.257525 
3645.000000	65.248060 
3644.000000	65.232610 
3643.000000	65.211915 
3642.000000	65.187072 
3641.000000	65.159773 
3640.000000	65.132260 
3639.000000	65.106916 
3638.000000	65.086293 
3637.000000	65.072751 
3636.000000	65.067934 
3635.000000	65.072655 
3634.000000	65.086483 
3633.000000	65.107989 
3632.000000	65.134811 
3631.000000	65.163993 
3630.000000	65.192461 
3629.000000	65.217471 
3628.000000	65.237069 
3627.000000	65.249991 
3626.000000	65.255856 
3625.000000	65.254592 
3624.000000	65.246605 
3623.000000	65.232491 
3622.000000	65.213513 
3621.000000	65.191173 
3620.000000	65.167570 
3619.000000	65.144729 
3618.000000	65.124750 
3617.000000	65.109252 
3616.000000	65.099191 
3615.000000	65.094280 
3614.000000	65.093469 
3613.000000	65.094780 
3612.000000	65.096020 
3611.000000	65.094757 
3610.000000	65.088987 
3609.000000	65.077400 
3608.000000	65.059661 
3607.000000	65.036582 
3606.000000	65.010023 
3605.000000	64.982748 
3604.000000	64.958000 
3603.000000	64.939284 
3602.000000	64.929676 
3601.000000	64.931201 
3600.000000	64.944624 
3599.000000	64.969110 
3598.000000	65.002012 
3597.000000	65.039300 
3596.000000	65.076017 
3595.000000	65.107417 
3594.000000	65.129613 
3593.000000	65.140390 
3592.000000	65.139412 
3591.000000	65.127944 
3590.000000	65.108966 
3589.000000	65.086340 
3588.000000	65.064215 
3587.000000	65.046095 
3586.000000	65.034461 
3585.000000	65.030741 
3584.000000	65.034651 
3583.000000	65.044426 
3582.000000	65.057444 
3581.000000	65.070772 
3580.000000	65.081787 
3579.000000	65.088868 
3578.000000	65.091681 
3577.000000	65.091228 
3576.000000	65.089488 
3575.000000	65.088820 
3574.000000	65.091133 
3573.000000	65.097212 
3572.000000	65.106248 
3571.000000	65.116238 
3570.000000	65.124130 
3569.000000	65.127182 
3568.000000	65.123558 
3567.000000	65.113282 
3566.000000	65.098071 
3565.000000	65.081572 
3564.000000	65.068030 
3563.000000	65.061831 
3562.000000	65.065670 
3561.000000	65.080428 
3560.000000	65.104913 
3559.000000	65.136241 
3558.000000	65.170574 
3557.000000	65.203952 
3556.000000	65.233206 
3555.000000	65.256214 
3554.000000	65.272307 
3553.000000	65.281462 
3552.000000	65.284013 
3551.000000	65.280318 
3550.000000	65.270471 
3549.000000	65.254449 
3548.000000	65.232324 
3547.000000	65.204954 
3546.000000	65.174126 
3545.000000	65.142726 
3544.000000	65.114068 
3543.000000	65.091443 
3542.000000	65.077400 
3541.000000	65.072894 
3540.000000	65.077137 
3539.000000	65.087509 
3538.000000	65.100264 
3537.000000	65.111255 
3536.000000	65.117049 
3535.000000	65.115261 
3534.000000	65.105557 
3533.000000	65.089321 
3532.000000	65.069603 
3531.000000	65.050101 
3530.000000	65.034842 
3529.000000	65.026926 
3528.000000	65.028619 
3527.000000	65.040683 
3526.000000	65.062999 
3525.000000	65.094709 
3524.000000	65.134286 
3523.000000	65.179657 
3522.000000	65.228271 
3521.000000	65.277361 
3520.000000	65.323543 
3519.000000	65.363454 
3518.000000	65.394282 
3517.000000	65.414237 
3516.000000	65.423107 
3515.000000	65.421867 
3514.000000	65.412616 
3513.000000	65.397739 
3512.000000	65.379834 
3511.000000	65.360856 
3510.000000	65.342307 
3509.000000	65.325045 
3508.000000	65.310001 
3507.000000	65.297746 
3506.000000	65.288949 
3505.000000	65.284299 
3504.000000	65.284371 
3503.000000	65.289497 
3502.000000	65.299415 
3501.000000	65.312981 
3500.000000	65.328431 
3499.000000	65.343141 
3498.000000	65.354180 
3497.000000	65.358638 
3496.000000	65.354061 
3495.000000	65.338897 
3494.000000	65.313076 
3493.000000	65.277814 
3492.000000	65.235686 
3491.000000	65.190553 
3490.000000	65.146732 
3489.000000	65.108466 
3488.000000	65.078806 
3487.000000	65.058922 
3486.000000	65.048289 
3485.000000	65.044331 
3484.000000	65.043783 
3483.000000	65.043473 
3482.000000	65.041708 
3481.000000	65.038394 
3480.000000	65.035414 
3479.000000	65.035533 
3478.000000	65.041708 
3477.000000	65.055584 
3476.000000	65.077137 
3475.000000	65.104007 
3474.000000	65.132308 
3473.000000	65.157341 
3472.000000	65.174937 
3471.000000	65.182256 
3470.000000	65.178728 
3469.000000	65.166068 
3468.000000	65.147829 
3467.000000	65.128493 
3466.000000	65.112662 
3465.000000	65.103888 
3464.000000	65.104484 
3463.000000	65.115094 
3462.000000	65.135002 
3461.000000	65.162348 
3460.000000	65.194416 
3459.000000	65.227985 
3458.000000	65.259695 
3457.000000	65.286731 
3456.000000	65.306782 
3455.000000	65.318536 
3454.000000	65.321731 
3453.000000	65.317082 
3452.000000	65.306353 
3451.000000	65.291786 
3450.000000	65.275955 
3449.000000	65.261507 
3448.000000	65.250706 
3447.000000	65.245437 
3446.000000	65.246915 
3445.000000	65.255475 
3444.000000	65.270757 
3443.000000	65.291500 
3442.000000	65.315818 
3441.000000	65.341353 
3440.000000	65.365815 
3439.000000	65.386843 
3438.000000	65.402579 
3437.000000	65.412092 
3436.000000	65.415263 
3435.000000	65.412855 
3434.000000	65.405726 
3433.000000	65.394949 
3432.000000	65.380787 
3431.000000	65.363073 
3430.000000	65.341114 
3429.000000	65.314054 
3428.000000	65.281391 
3427.000000	65.243506 
3426.000000	65.202093 
3425.000000	65.159749 
3424.000000	65.120244 
3423.000000	65.087389 
3422.000000	65.064907 
3421.000000	65.055370 
3420.000000	65.060091 
3419.000000	65.078473 
3418.000000	65.108227 
3417.000000	65.145516 
3416.000000	65.185427 
3415.000000	65.222835 
3414.000000	65.252923 
3413.000000	65.271806 
3412.000000	65.277123 
3411.000000	65.268135 
3410.000000	65.245962 
3409.000000	65.213155 
3408.000000	65.173244 
3407.000000	65.130257 
3406.000000	65.088009 
3405.000000	65.049624 
3404.000000	65.017509 
3403.000000	64.993333 
3402.000000	64.978075 
3401.000000	64.972305 
3400.000000	64.976429 
3399.000000	64.990472 
3398.000000	65.013670 
3397.000000	65.044593 
3396.000000	65.080690 
3395.000000	65.118861 
3394.000000	65.155577 
3393.000000	65.187621 
3392.000000	65.212655 
3391.000000	65.229749 
3390.000000	65.239310 
3389.000000	65.243101 
3388.000000	65.243577 
3387.000000	65.243268 
3386.000000	65.243840 
3385.000000	65.245842 
3384.000000	65.248417 
3383.000000	65.250110 
3382.000000	65.248990 
3381.000000	65.243411 
3380.000000	65.232992 
3379.000000	65.218496 
3378.000000	65.202331 
3377.000000	65.187478 
3376.000000	65.177249 
3375.000000	65.174126 
3374.000000	65.179443 
3373.000000	65.193009 
3372.000000	65.213108 
3371.000000	65.236830 
3370.000000	65.260720 
3369.000000	65.281462 
3368.000000	65.296697 
3367.000000	65.305161 
3366.000000	65.307092 
3365.000000	65.303707 
3364.000000	65.297245 
3363.000000	65.290355 
3362.000000	65.285468 
3361.000000	65.284204 
3360.000000	65.287208 
3359.000000	65.294027 
3358.000000	65.303039 
3357.000000	65.311932 
3356.000000	65.318036 
3355.000000	65.319061 
3354.000000	65.313553 
3353.000000	65.301489 
3352.000000	65.284037 
3351.000000	65.263462 
3350.000000	65.242838 
3349.000000	65.225124 
3348.000000	65.212631 
3347.000000	65.206408 
3346.000000	65.206170 
3345.000000	65.210247 
3344.000000	65.216374 
3343.000000	65.221977 
3342.000000	65.225052 
3341.000000	65.224504 
3340.000000	65.220427 
3339.000000	65.213727 
3338.000000	65.205812 
3337.000000	65.197944 
3336.000000	65.190744 
3335.000000	65.184020 
3334.000000	65.177035 
3333.000000	65.168857 
3332.000000	65.159010 
3331.000000	65.147852 
3330.000000	65.136814 
3329.000000	65.127992 
3328.000000	65.123748 
3327.000000	65.125894 
3326.000000	65.135025 
3325.000000	65.150523 
3324.000000	65.170264 
3323.000000	65.191054 
3322.000000	65.209054 
3321.000000	65.220427 
3320.000000	65.222167 
3319.000000	65.212535 
3318.000000	65.191769 
3317.000000	65.161848 
3316.000000	65.126681 
3315.000000	65.091133 
3314.000000	65.060591 
3313.000000	65.039849 
3312.000000	65.032315 
3311.000000	65.039205 
3310.000000	65.059423 
3309.000000	65.089821 
3308.000000	65.125799 
3307.000000	65.162348 
3306.000000	65.194869 
3305.000000	65.220189 
3304.000000	65.236878 
3303.000000	65.244984 
3302.000000	65.245676 
3301.000000	65.240287 
3300.000000	65.230083 
3299.000000	65.215802 
3298.000000	65.197849 
3297.000000	65.176510 
3296.000000	65.152764 
3295.000000	65.128445 
3294.000000	65.106320 
3293.000000	65.089416 
3292.000000	65.080332 
3291.000000	65.080285 
3290.000000	65.088725 
3289.000000	65.102958 
3288.000000	65.118646 
3287.000000	65.130901 
3286.000000	65.135574 
3285.000000	65.130424 
3284.000000	65.116095 
3283.000000	65.095424 
3282.000000	65.072774 
3281.000000	65.052986 
3280.000000	65.040135 
3279.000000	65.036416 
3278.000000	65.041899 
3277.000000	65.054726 
3276.000000	65.071773 
3275.000000	65.089917 
3274.000000	65.106701 
3273.000000	65.120863 
3272.000000	65.132474 
3271.000000	65.142416 
3270.000000	65.151762 
3269.000000	65.160894 
3268.000000	65.169239 
3267.000000	65.175008 
3266.000000	65.176010 
3265.000000	65.170121 
3264.000000	65.156483 
3263.000000	65.135860 
3262.000000	65.111327 
3261.000000	65.087461 
3260.000000	65.070128 
3259.000000	65.064978 
3258.000000	65.076231 
3257.000000	65.105509 
3256.000000	65.151214 
3255.000000	65.208697 
3254.000000	65.270948 
3253.000000	65.330147 
3252.000000	65.379309 
3251.000000	65.413880 
3250.000000	65.432476 
3249.000000	65.436983 
3248.000000	65.432000 
3247.000000	65.423250 
3246.000000	65.416121 
3245.000000	65.414071 
3244.000000	65.418648 
3243.000000	65.428543 
3242.000000	65.440964 
3241.000000	65.451812 
3240.000000	65.457725 
3239.000000	65.456199 
3238.000000	65.446543 
3237.000000	65.429496 
3236.000000	65.406823 
3235.000000	65.380740 
3234.000000	65.353345 
3233.000000	65.326452 
3232.000000	65.301370 
3231.000000	65.279245 
3230.000000	65.261268 
3229.000000	65.248537 
3228.000000	65.241837 
3227.000000	65.241432 
3226.000000	65.246582 
3225.000000	65.255498 
3224.000000	65.265202 
3223.000000	65.271854 
3222.000000	65.271425 
3221.000000	65.260624 
3220.000000	65.237593 
3219.000000	65.202212 
3218.000000	65.156435 
3217.000000	65.103888 
3216.000000	65.049600 
3215.000000	64.998817 
3214.000000	64.956450 
3213.000000	64.925932 
3212.000000	64.909219 
3211.000000	64.906287 
3210.000000	64.915990 
3209.000000	64.935898 
3208.000000	64.963388 
3207.000000	64.995527 
3206.000000	65.030145 
3205.000000	65.065836 
3204.000000	65.101909 
3203.000000	65.138077 
3202.000000	65.174031 
3201.000000	65.209174 
3200.000000	65.242600 
3199.000000	65.272831 
3198.000000	65.297961 
3197.000000	65.315842 
3196.000000	65.324878 
3195.000000	65.324091 
3194.000000	65.313839 
3193.000000	65.295624 
3192.000000	65.272140 
3191.000000	65.247130 
3190.000000	65.224695 
3189.000000	65.208721 
3188.000000	65.202426 
3187.000000	65.207409 
3186.000000	65.223646 
3185.000000	65.248966 
3184.000000	65.279817 
3183.000000	65.311384 
3182.000000	65.338182 
3181.000000	65.355205 
3180.000000	65.358877 
3179.000000	65.347671 
3178.000000	65.322446 
3177.000000	65.286493 
3176.000000	65.244936 
3175.000000	65.203928 
3174.000000	65.169453 
3173.000000	65.146231 
3172.000000	65.136528 
3171.000000	65.139842 
3170.000000	65.152978 
3169.000000	65.170645 
3168.000000	65.186595 
3167.000000	65.194869 
3166.000000	65.191388 
3165.000000	65.174388 
3164.000000	65.145206 
3163.000000	65.107488 
3162.000000	65.066981 
3161.000000	65.029978 
3160.000000	65.002393 
3159.000000	64.988064 
3158.000000	64.988684 
3157.000000	65.003538 
3156.000000	65.030121 
3155.000000	65.064597 
3154.000000	65.102744 
3153.000000	65.140604 
3152.000000	65.175199 
3151.000000	65.204429 
3150.000000	65.227150 
3149.000000	65.242576 
3148.000000	65.250492 
3147.000000	65.251016 
3146.000000	65.244555 
3145.000000	65.231895 
3144.000000	65.214180 
3143.000000	65.192985 
3142.000000	65.170311 
3141.000000	65.148758 
3140.000000	65.131187 
3139.000000	65.120577 
3138.000000	65.119433 
3137.000000	65.129780 
3136.000000	65.152668 
3135.000000	65.187954 
3134.000000	65.233898 
3133.000000	65.287303 
3132.000000	65.343856 
3131.000000	65.398430 
3130.000000	65.446019 
3129.000000	65.482282 
3128.000000	65.504169 
3127.000000	65.510416 
3126.000000	65.501856 
3125.000000	65.480780 
3124.000000	65.450429 
3123.000000	65.414381 
3122.000000	65.376210 
3121.000000	65.338754 
3120.000000	65.304231 
3119.000000	65.273952 
3118.000000	65.248799 
3117.000000	65.229105 
3116.000000	65.214562 
3115.000000	65.204405 
3114.000000	65.197324 
3113.000000	65.191602 
3112.000000	65.185284 
3111.000000	65.176463 
3110.000000	65.163898 
3109.000000	65.146970 
3108.000000	65.126204 
3107.000000	65.103006 
3106.000000	65.079617 
3105.000000	65.058422 
3104.000000	65.041661 
3103.000000	65.030622 
3102.000000	65.026092 
3101.000000	65.028047 
3100.000000	65.036249 
3099.000000	65.050029 
3098.000000	65.069198 
3097.000000	65.093994 
3096.000000	65.124845 
3095.000000	65.161609 
3094.000000	65.203428 
3093.000000	65.248155 
3092.000000	65.292525 
3091.000000	65.332388 
3090.000000	65.363526 
3089.000000	65.382528 
3088.000000	65.387821 
3087.000000	65.380001 
3086.000000	65.361952 
3085.000000	65.338230 
3084.000000	65.314197 
3083.000000	65.294837 
3082.000000	65.283584 
3081.000000	65.281963 
3080.000000	65.289306 
3079.000000	65.303254 
3078.000000	65.320563 
3077.000000	65.337634 
3076.000000	65.351724 
3075.000000	65.360808 
3074.000000	65.363693 
3073.000000	65.359997 
3072.000000	65.349817 
3071.000000	65.333771 
3070.000000	65.312576 
3069.000000	65.287542 
3068.000000	65.260457 
3067.000000	65.233516 
3066.000000	65.209031 
3065.000000	65.188956 
3064.000000	65.174460 
3063.000000	65.165734 
3062.000000	65.161848 
3061.000000	65.160870 
3060.000000	65.160298 
3059.000000	65.157866 
3058.000000	65.152049 
3057.000000	65.142297 
3056.000000	65.129280 
3055.000000	65.114450 
3054.000000	65.099883 
3053.000000	65.087366 
3052.000000	65.078258 
3051.000000	65.072989 
3050.000000	65.071439 
3049.000000	65.072989 
3048.000000	65.077328 
3047.000000	65.084075 
3046.000000	65.093588 
3045.000000	65.106296 
3044.000000	65.122985 
3043.000000	65.143942 
3042.000000	65.169095 
3041.000000	65.197491 
3040.000000	65.227198 
3039.000000	65.255498 
3038.000000	65.279340 
3037.000000	65.296006 
3036.000000	65.303492 
3035.000000	65.300917 
3034.000000	65.288853 
3033.000000	65.268826 
3032.000000	65.242958 
3031.000000	65.213656 
3030.000000	65.183115 
3029.000000	65.153193 
3028.000000	65.125370 
3027.000000	65.100860 
3026.000000	65.080738 
3025.000000	65.066027 
3024.000000	65.057516 
3023.000000	65.055704 
3022.000000	65.060448 
3021.000000	65.071105 
3020.000000	65.086317 
3019.000000	65.104484 
3018.000000	65.123867 
3017.000000	65.143227 
3016.000000	65.161895 
3015.000000	65.179753 
3014.000000	65.196919 
3013.000000	65.213203 
3012.000000	65.227842 
3011.000000	65.239048 
3010.000000	65.244412 
3009.000000	65.241575 
3008.000000	65.229153 
3007.000000	65.207457 
3006.000000	65.178656 
3005.000000	65.146875 
3004.000000	65.117430 
3003.000000	65.095686 
3002.000000	65.085911 
3001.000000	65.090441 
3000.000000	65.109086 
2999.000000	65.139150 
2998.000000	65.176200 
2997.000000	65.215015 
2996.000000	65.250563 
2995.000000	65.278840 
2994.000000	65.297698 
2993.000000	65.306854 
2992.000000	65.307569 
2991.000000	65.302109 
2990.000000	65.292954 
2989.000000	65.282416 
2988.000000	65.272092 
2987.000000	65.262794 
2986.000000	65.254402 
2985.000000	65.246510 
2984.000000	65.238285 
2983.000000	65.229201 
2982.000000	65.219235 
2981.000000	65.208983 
2980.000000	65.199589 
2979.000000	65.192699 
2978.000000	65.189838 
2977.000000	65.192055 
2976.000000	65.199565 
2975.000000	65.211415 
2974.000000	65.225529 
2973.000000	65.238928 
2972.000000	65.248298 
2971.000000	65.250515 
2970.000000	65.243172 
2969.000000	65.225362 
2968.000000	65.197682 
2967.000000	65.162706 
2966.000000	65.124082 
2965.000000	65.086412 
2964.000000	65.054035 
2963.000000	65.030407 
2962.000000	65.017700 
2961.000000	65.016317 
2960.000000	65.024781 
2959.000000	65.040540 
2958.000000	65.060591 
2957.000000	65.082025 
2956.000000	65.102624 
2955.000000	65.121078 
2954.000000	65.137124 
2953.000000	65.150952 
2952.000000	65.162944 
2951.000000	65.173172 
2950.000000	65.181255 
2949.000000	65.186405 
2948.000000	65.187501 
2947.000000	65.183568 
2946.000000	65.174174 
2945.000000	65.159893 
2944.000000	65.142297 
2943.000000	65.124130 
2942.000000	65.108537 
2941.000000	65.098571 
2940.000000	65.096235 
2939.000000	65.101885 
2938.000000	65.113830 
2937.000000	65.128946 
2936.000000	65.142750 
2935.000000	65.150642 
2934.000000	65.148830 
2933.000000	65.135622 
2932.000000	65.111446 
2931.000000	65.078783 
2930.000000	65.041732 
2929.000000	65.005016 
2928.000000	64.972972 
2927.000000	64.948511 
2926.000000	64.932751 
2925.000000	64.925146 
2924.000000	64.923906 
2923.000000	64.926552 
2922.000000	64.930582 
2921.000000	64.934134 
2920.000000	64.935874 
2919.000000	64.935660 
2918.000000	64.933276 
2917.000000	64.929437 
2916.000000	64.925003 
2915.000000	64.921379 
2914.000000	64.920186 
2913.000000	64.923310 
2912.000000	64.932847 
2911.000000	64.950394 
2910.000000	64.976787 
2909.000000	65.011620 
2908.000000	65.053200 
2907.000000	65.098595 
2906.000000	65.144181 
2905.000000	65.186405 
2904.000000	65.222573 
2903.000000	65.251493 
2902.000000	65.273666 
2901.000000	65.291118 
2900.000000	65.306591 
2899.000000	65.323019 
2898.000000	65.342044 
2897.000000	65.363740 
2896.000000	65.386033 
2895.000000	65.405893 
2894.000000	65.419483 
2893.000000	65.423583 
2892.000000	65.416288 
2891.000000	65.397930 
2890.000000	65.370583 
2889.000000	65.337848 
2888.000000	65.303516 
2887.000000	65.270709 
2886.000000	65.241265 
2885.000000	65.215349 
2884.000000	65.191888 
2883.000000	65.169167 
2882.000000	65.145826 
2881.000000	65.121722 
2880.000000	65.097999 
2879.000000	65.076923 
2878.000000	65.061402 
2877.000000	65.053963 
2876.000000	65.055656 
2875.000000	65.065479 
2874.000000	65.080642 
2873.000000	65.097236 
2872.000000	65.111112 
2871.000000	65.119123 
2870.000000	65.120339 
2869.000000	65.116381 
2868.000000	65.111136 
2867.000000	65.109252 
2866.000000	65.115118 
2865.000000	65.131020 
2864.000000	65.156555 
2863.000000	65.188336 
2862.000000	65.220737 
2861.000000	65.247321 
2860.000000	65.262722 
2859.000000	65.263748 
2858.000000	65.250325 
2857.000000	65.225625 
2856.000000	65.195107 
2855.000000	65.165424 
2854.000000	65.142631 
2853.000000	65.130972 
2852.000000	65.132045 
2851.000000	65.144610 
2850.000000	65.165233 
2849.000000	65.189099 
2848.000000	65.211367 
2847.000000	65.228009 
2846.000000	65.236568 
2845.000000	65.236401 
2844.000000	65.228581 
2843.000000	65.215420 
2842.000000	65.199971 
2841.000000	65.185189 
2840.000000	65.173625 
2839.000000	65.167355 
2838.000000	65.167379 
2837.000000	65.174078 
2836.000000	65.186929 
2835.000000	65.205097 
2834.000000	65.227079 
2833.000000	65.251088 
2832.000000	65.274906 
2831.000000	65.296125 
2830.000000	65.312314 
2829.000000	65.321135 
2828.000000	65.321111 
2827.000000	65.311884 
2826.000000	65.294623 
2825.000000	65.271782 
2824.000000	65.246915 
2823.000000	65.224099 
2822.000000	65.207266 
2821.000000	65.199470 
2820.000000	65.202331 
2819.000000	65.215706 
2818.000000	65.237808 
2817.000000	65.265512 
2816.000000	65.294742 
2815.000000	65.321445 
2814.000000	65.342116 
2813.000000	65.354394 
2812.000000	65.357160 
2811.000000	65.350770 
2810.000000	65.336990 
2809.000000	65.318489 
2808.000000	65.298318 
2807.000000	65.279436 
2806.000000	65.264439 
2805.000000	65.254521 
2804.000000	65.249800 
2803.000000	65.249013 
2802.000000	65.249919 
2801.000000	65.250134 
2800.000000	65.247654 
2799.000000	65.241408 
2798.000000	65.231347 
2797.000000	65.218639 
2796.000000	65.205121 
2795.000000	65.192914 
2794.000000	65.183734 
2793.000000	65.179014 
2792.000000	65.179491 
2791.000000	65.185570 
2790.000000	65.197205 
2789.000000	65.213966 
2788.000000	65.235233 
2787.000000	65.259957 
2786.000000	65.287089 
2785.000000	65.315461 
2784.000000	65.343832 
2783.000000	65.371060 
2782.000000	65.395832 
2781.000000	65.417146 
2780.000000	65.433812 
2779.000000	65.444946 
2778.000000	65.449738 
2777.000000	65.447950 
2776.000000	65.439724 
2775.000000	65.426111 
2774.000000	65.408420 
2773.000000	65.388488 
2772.000000	65.368032 
2771.000000	65.348744 
2770.000000	65.331721 
2769.000000	65.317583 
2768.000000	65.306377 
2767.000000	65.297770 
2766.000000	65.291333 
2765.000000	65.286922 
2764.000000	65.284705 
2763.000000	65.285181 
2762.000000	65.289211 
2761.000000	65.297532 
2760.000000	65.310335 
2759.000000	65.326976 
2758.000000	65.345907 
2757.000000	65.364718 
2756.000000	65.380406 
2755.000000	65.390062 
2754.000000	65.391874 
2753.000000	65.385079 
2752.000000	65.370655 
2751.000000	65.350675 
2750.000000	65.328335 
2749.000000	65.306854 
2748.000000	65.289068 
2747.000000	65.276646 
2746.000000	65.269970 
2745.000000	65.268206 
2744.000000	65.269780 
2743.000000	65.272855 
2742.000000	65.275573 
2741.000000	65.276861 
2740.000000	65.276384 
2739.000000	65.274643 
2738.000000	65.272474 
2737.000000	65.270924 
2736.000000	65.270686 
2735.000000	65.271997 
2734.000000	65.274381 
2733.000000	65.277004 
2732.000000	65.278458 
2731.000000	65.277624 
2730.000000	65.273618 
2729.000000	65.266132 
2728.000000	65.255403 
2727.000000	65.242266 
2726.000000	65.228009 
2725.000000	65.214014 
2724.000000	65.201783 
2723.000000	65.192461 
2722.000000	65.187144 
2721.000000	65.186452 
2720.000000	65.190887 
2719.000000	65.200686 
2718.000000	65.215849 
2717.000000	65.235996 
2716.000000	65.260148 
2715.000000	65.286803 
2714.000000	65.313887 
2713.000000	65.338873 
2712.000000	65.359163 
2711.000000	65.372538 
2710.000000	65.377402 
2709.000000	65.373086 
2708.000000	65.360093 
2707.000000	65.340018 
2706.000000	65.315270 
2705.000000	65.288734 
2704.000000	65.263414 
2703.000000	65.242028 
2702.000000	65.226864 
2701.000000	65.219473 
2700.000000	65.220570 
2699.000000	65.229821 
2698.000000	65.245938 
2697.000000	65.266942 
2696.000000	65.289974 
2695.000000	65.311813 
2694.000000	65.329360 
2693.000000	65.340065 
2692.000000	65.342354 
2691.000000	65.335941 
2690.000000	65.321874 
2689.000000	65.302085 
2688.000000	65.279197 
2687.000000	65.255570 
2686.000000	65.233039 
2685.000000	65.212464 
2684.000000	65.193772 
2683.000000	65.176343 
2682.000000	65.159320 
2681.000000	65.142345 
2680.000000	65.126013 
2679.000000	65.111708 
2678.000000	65.101480 
2677.000000	65.097522 
2676.000000	65.101623 
2675.000000	65.114355 
2674.000000	65.135002 
2673.000000	65.161490 
2672.000000	65.190982 
2671.000000	65.220332 
2670.000000	65.246868 
2669.000000	65.268707 
2668.000000	65.285110 
2667.000000	65.296483 
2666.000000	65.303969 
2665.000000	65.309047 
2664.000000	65.313076 
2663.000000	65.316843 
2662.000000	65.320515 
2661.000000	65.323877 
2660.000000	65.326356 
2659.000000	65.327453 
2658.000000	65.327000 
2657.000000	65.325188 
2656.000000	65.322732 
2655.000000	65.320372 
2654.000000	65.318584 
2653.000000	65.317392 
2652.000000	65.316247 
2651.000000	65.314292 
2650.000000	65.310215 
2649.000000	65.303230 
2648.000000	65.293049 
2647.000000	65.280485 
2646.000000	65.267300 
2645.000000	65.256118 
2644.000000	65.249776 
2643.000000	65.250802 
2642.000000	65.260624 
2641.000000	65.278983 
2640.000000	65.303993 
2639.000000	65.332150 
2638.000000	65.359234 
2637.000000	65.380954 
2636.000000	65.393733 
2635.000000	65.395474 
2634.000000	65.385913 
2633.000000	65.366554 
2632.000000	65.340232 
2631.000000	65.310597 
2630.000000	65.281248 
2629.000000	65.255141 
2628.000000	65.234303 
2627.000000	65.219497 
2626.000000	65.210366 
2625.000000	65.205860 
2624.000000	65.204477 
2623.000000	65.204572 
2622.000000	65.205001 
2621.000000	65.204644 
2620.000000	65.203166 
2619.000000	65.200376 
2618.000000	65.196561 
2617.000000	65.192174 
2616.000000	65.187788 
2615.000000	65.183949 
2614.000000	65.181183 
2613.000000	65.179967 
2612.000000	65.180611 
2611.000000	65.183186 
2610.000000	65.187525 
2609.000000	65.193200 
2608.000000	65.199565 
2607.000000	65.205740 
2606.000000	65.210843 
2605.000000	65.214014 
2604.000000	65.214872 
2603.000000	65.213584 
2602.000000	65.210866 
2601.000000	65.207910 
2600.000000	65.206146 
2599.000000	65.206837 
2598.000000	65.210866 
2597.000000	65.218615 
2596.000000	65.229678 
2595.000000	65.243101 
2594.000000	65.257596 
2593.000000	65.271902 
2592.000000	65.284776 
2591.000000	65.295577 
2590.000000	65.303969 
2589.000000	65.310263 
2588.000000	65.315008 
2587.000000	65.318918 
2586.000000	65.322685 
2585.000000	65.326642 
2584.000000	65.330791 
2583.000000	65.334653 
2582.000000	65.337514 
2581.000000	65.338563 
2580.000000	65.337038 
2579.000000	65.332365 
2578.000000	65.324354 
2577.000000	65.312886 
2576.000000	65.297937 
2575.000000	65.279579 
2574.000000	65.257978 
2573.000000	65.233635 
2572.000000	65.207552 
2571.000000	65.181112 
2570.000000	65.156078 
2569.000000	65.134239 
2568.000000	65.117430 
2567.000000	65.106797 
2566.000000	65.103149 
2565.000000	65.106749 
2564.000000	65.117573 
2563.000000	65.134930 
2562.000000	65.157747 
2561.000000	65.184354 
2560.000000	65.212750 
2559.000000	65.240550 
2558.000000	65.265512 
2557.000000	65.285778 
2556.000000	65.300440 
2555.000000	65.309548 
2554.000000	65.314149 
2553.000000	65.316009 
2552.000000	65.317082 
2551.000000	65.319013 
2550.000000	65.322923 
2549.000000	65.328955 
2548.000000	65.336370 
2547.000000	65.343976 
2546.000000	65.350484 
2545.000000	65.355086 
2544.000000	65.357708 
2543.000000	65.358877 
2542.000000	65.359449 
2541.000000	65.360307 
2540.000000	65.361809 
2539.000000	65.364193 
2538.000000	65.367341 
2537.000000	65.371036 
2536.000000	65.375399 
2535.000000	65.380620 
2534.000000	65.386962 
2533.000000	65.394520 
2532.000000	65.403103 
2531.000000	65.412402 
2530.000000	65.421962 
2529.000000	65.431046 
2528.000000	65.438938 
2527.000000	65.444493 
2526.000000	65.446209 
2525.000000	65.442132 
2524.000000	65.430331 
2523.000000	65.409493 
2522.000000	65.379524 
2521.000000	65.341925 
2520.000000	65.299677 
2519.000000	65.257072 
2518.000000	65.218782 
2517.000000	65.188884 
2516.000000	65.170049 
2515.000000	65.162849 
2514.000000	65.165781 
2513.000000	65.175366 
2512.000000	65.187573 
2511.000000	65.198421 
2510.000000	65.205311 
2509.000000	65.207338 
2508.000000	65.205645 
2507.000000	65.202689 
2506.000000	65.201616 
2505.000000	65.205001 
2504.000000	65.214157 
2503.000000	65.228819 
2502.000000	65.247011 
2501.000000	65.265560 
2500.000000	65.280532 
2499.000000	65.288329 
2498.000000	65.286397 
2497.000000	65.274024 
2496.000000	65.252423 
2495.000000	65.224647 
2494.000000	65.195083 
2493.000000	65.168642 
2492.000000	65.149497 
2491.000000	65.140390 
2490.000000	65.142130 
2489.000000	65.153765 
2488.000000	65.172767 
2487.000000	65.195775 
2486.000000	65.219664 
2485.000000	65.241837 
2484.000000	65.260720 
2483.000000	65.275621 
2482.000000	65.286493 
2481.000000	65.293574 
2480.000000	65.296816 
2479.000000	65.295863 
2478.000000	65.289974 
2477.000000	65.278792 
2476.000000	65.262675 
2475.000000	65.243172 
2474.000000	65.222883 
2473.000000	65.205121 
2472.000000	65.193438 
2471.000000	65.190553 
2470.000000	65.197610 
2469.000000	65.214347 
2468.000000	65.239048 
2467.000000	65.268945 
2466.000000	65.300583 
2465.000000	65.330719 
2464.000000	65.356469 
2463.000000	65.376019 
2462.000000	65.388274 
2461.000000	65.392875 
2460.000000	65.390133 
2459.000000	65.380930 
2458.000000	65.366697 
2457.000000	65.349197 
2456.000000	65.330529 
2455.000000	65.313267 
2454.000000	65.299582 
2453.000000	65.291190 
2452.000000	65.288472 
2451.000000	65.291070 
2450.000000	65.296936 
2449.000000	65.303206 
2448.000000	65.306305 
2447.000000	65.302824 
2446.000000	65.289974 
2445.000000	65.265989 
2444.000000	65.230631 
2443.000000	65.185236 
2442.000000	65.132737 
2441.000000	65.077280 
2440.000000	65.023541 
2439.000000	64.976119 
2438.000000	64.938998 
2437.000000	64.914989 
2436.000000	64.904880 
2435.000000	64.907956 
2434.000000	64.921879 
2433.000000	64.944267 
2432.000000	64.971804 
2431.000000	65.002536 
2430.000000	65.035486 
2429.000000	65.071511 
2428.000000	65.112161 
2427.000000	65.159320 
2426.000000	65.213942 
2425.000000	65.275454 
2424.000000	65.341496 
2423.000000	65.407967 
2422.000000	65.469741 
2421.000000	65.521693 
2420.000000	65.560007 
2419.000000	65.582633 
2418.000000	65.589547 
2417.000000	65.582466 
2416.000000	65.564370 
2415.000000	65.538620 
2414.000000	65.508103 
2413.000000	65.475058 
2412.000000	65.440511 
2411.000000	65.404629 
2410.000000	65.367102 
2409.000000	65.327882 
2408.000000	65.287423 
2407.000000	65.246748 
2406.000000	65.207839 
2405.000000	65.172910 
2404.000000	65.144610 
2403.000000	65.125131 
2402.000000	65.116381 
2401.000000	65.119075 
2400.000000	65.133261 
2399.000000	65.157985 
2398.000000	65.191435 
2397.000000	65.230965 
2396.000000	65.273332 
2395.000000	65.315151 
2394.000000	65.352869 
2393.000000	65.383100 
2392.000000	65.403175 
2391.000000	65.411233 
2390.000000	65.406417 
2389.000000	65.388941 
2388.000000	65.360283 
2387.000000	65.323138 
2386.000000	65.281033 
2385.000000	65.237808 
2384.000000	65.197372 
2383.000000	65.163135 
2382.000000	65.137815 
2381.000000	65.123009 
2380.000000	65.119194 
2379.000000	65.125989 
2378.000000	65.141963 
2377.000000	65.165257 
2376.000000	65.193557 
2375.000000	65.224742 
2374.000000	65.256667 
2373.000000	65.287876 
2372.000000	65.317177 
2371.000000	65.344071 
2370.000000	65.368366 
2369.000000	65.390157 
2368.000000	65.409541 
2367.000000	65.426206 
2366.000000	65.439581 
2365.000000	65.448474 
2364.000000	65.451431 
2363.000000	65.446996 
2362.000000	65.434217 
2361.000000	65.412974 
2360.000000	65.384244 
2359.000000	65.350389 
2358.000000	65.314507 
2357.000000	65.279793 
2356.000000	65.248847 
2355.000000	65.223455 
2354.000000	65.204095 
2353.000000	65.190029 
2352.000000	65.179634 
2351.000000	65.171265 
2350.000000	65.163731 
2349.000000	65.156483 
2348.000000	65.149760 
2347.000000	65.144300 
2346.000000	65.140962 
2345.000000	65.140223 
2344.000000	65.141844 
2343.000000	65.144658 
2342.000000	65.147089 
2341.000000	65.147733 
2340.000000	65.145730 
2339.000000	65.141201 
2338.000000	65.135312 
2337.000000	65.130090 
2336.000000	65.127778 
2335.000000	65.130305 
2334.000000	65.138936 
2333.000000	65.153980 
2332.000000	65.174698 
2331.000000	65.199518 
2330.000000	65.226697 
2329.000000	65.254426 
2328.000000	65.281391 
2327.000000	65.306687 
2326.000000	65.329933 
2325.000000	65.350794 
2324.000000	65.369200 
2323.000000	65.384674 
2322.000000	65.396857 
2321.000000	65.405035 
2320.000000	65.408873 
2319.000000	65.408039 
2318.000000	65.402817 
2317.000000	65.393805 
2316.000000	65.382337 
2315.000000	65.370035 
2314.000000	65.358781 
2313.000000	65.350389 
2312.000000	65.346264 
2311.000000	65.346789 
2310.000000	65.351366 
2309.000000	65.358185 
2308.000000	65.364575 
2307.000000	65.367722 
2306.000000	65.365266 
2305.000000	65.355873 
2304.000000	65.339636 
2303.000000	65.318059 
2302.000000	65.293622 
2301.000000	65.269374 
2300.000000	65.247869 
2299.000000	65.230751 
2298.000000	65.218496 
2297.000000	65.210270 
2296.000000	65.204501 
2295.000000	65.199589 
2294.000000	65.194559 
2293.000000	65.189099 
2292.000000	65.183949 
2291.000000	65.180492 
2290.000000	65.180349 
2289.000000	65.184545 
2288.000000	65.193390 
2287.000000	65.206074 
2286.000000	65.220952 
2285.000000	65.236043 
2284.000000	65.249156 
2283.000000	65.258550 
2282.000000	65.263128 
2281.000000	65.262794 
2280.000000	65.258049 
2279.000000	65.250015 
2278.000000	65.240144 
2277.000000	65.230011 
2276.000000	65.221381 
2275.000000	65.215706 
2274.000000	65.214323 
2273.000000	65.217971 
2272.000000	65.226626 
2271.000000	65.239453 
2270.000000	65.254521 
2269.000000	65.269422 
2268.000000	65.281200 
2267.000000	65.287327 
2266.000000	65.286111 
2265.000000	65.277099 
2264.000000	65.261101 
2263.000000	65.240335 
2262.000000	65.217924 
2261.000000	65.197467 
2260.000000	65.182518 
2259.000000	65.175867 
2258.000000	65.179228 
2257.000000	65.192937 
2256.000000	65.215992 
2255.000000	65.246200 
2254.000000	65.280365 
2253.000000	65.314984 
2252.000000	65.346574 
2251.000000	65.372180 
2250.000000	65.389657 
2249.000000	65.398120 
2248.000000	65.397787 
2247.000000	65.390038 
2246.000000	65.376782 
2245.000000	65.360260 
2244.000000	65.342569 
2243.000000	65.325498 
2242.000000	65.310311 
2241.000000	65.297985 
2240.000000	65.289068 
2239.000000	65.284299 
2238.000000	65.284252 
2237.000000	65.289473 
2236.000000	65.299963 
2235.000000	65.315151 
2234.000000	65.333604 
2233.000000	65.353035 
2232.000000	65.370702 
2231.000000	65.383625 
2230.000000	65.389227 
2229.000000	65.385842 
2228.000000	65.373182 
2227.000000	65.352487 
2226.000000	65.326261 
2225.000000	65.297722 
2224.000000	65.270185 
2223.000000	65.246534 
2222.000000	65.228581 
2221.000000	65.217208 
2220.000000	65.211915 
2219.000000	65.211820 
2218.000000	65.215706 
2217.000000	65.222859 
2216.000000	65.232729 
2215.000000	65.245580 
2214.000000	65.261960 
2213.000000	65.282273 
2212.000000	65.306520 
2211.000000	65.333819 
2210.000000	65.362262 
2209.000000	65.389227 
2208.000000	65.411782 
2207.000000	65.427327 
2206.000000	65.434026 
2205.000000	65.431404 
2204.000000	65.420460 
2203.000000	65.403389 
2202.000000	65.383195 
2201.000000	65.363192 
2200.000000	65.346336 
2199.000000	65.334701 
2198.000000	65.329289 
2197.000000	65.330171 
2196.000000	65.336608 
2195.000000	65.347528 
2194.000000	65.361571 
2193.000000	65.377449 
2192.000000	65.394043 
2191.000000	65.410280 
2190.000000	65.425181 
2189.000000	65.437507 
2188.000000	65.446209 
2187.000000	65.450906 
2186.000000	65.451574 
2185.000000	65.448737 
2184.000000	65.443205 
2183.000000	65.436244 
2182.000000	65.428924 
2181.000000	65.421843 
2180.000000	65.415167 
2179.000000	65.408682 
2178.000000	65.402102 
2177.000000	65.395283 
2176.000000	65.388751 
2175.000000	65.383648 
2174.000000	65.381693 
2173.000000	65.384602 
2172.000000	65.393495 
2171.000000	65.408205 
2170.000000	65.427398 
2169.000000	65.448331 
2168.000000	65.467476 
2167.000000	65.480780 
2166.000000	65.485024 
2165.000000	65.477752 
2164.000000	65.457725 
2163.000000	65.424799 
2162.000000	65.379953 
2161.000000	65.324950 
2160.000000	65.262079 
2159.000000	65.194082 
2158.000000	65.124154 
2157.000000	65.055727 
2156.000000	64.992666 
2155.000000	64.938688 
2154.000000	64.896988 
2153.000000	64.869761 
2152.000000	64.857554 
2151.000000	64.859509 
2150.000000	64.873194 
2149.000000	64.895820 
2148.000000	64.924550 
2147.000000	64.957404 
2146.000000	64.993214 
2145.000000	65.031719 
2144.000000	65.072989 
2143.000000	65.116786 
2142.000000	65.162229 
2141.000000	65.207719 
2140.000000	65.250945 
2139.000000	65.289735 
2138.000000	65.322279 
2137.000000	65.347528 
2136.000000	65.365266 
2135.000000	65.376114 
2134.000000	65.381026 
2133.000000	65.380978 
2132.000000	65.376567 
2131.000000	65.368437 
2130.000000	65.357017 
2129.000000	65.343117 
2128.000000	65.328097 
2127.000000	65.314006 
2126.000000	65.303063 
2125.000000	65.296912 
2124.000000	65.296244 
2123.000000	65.300583 
2122.000000	65.308189 
2121.000000	65.316367 
2120.000000	65.322518 
2119.000000	65.324831 
2118.000000	65.322828 
2117.000000	65.317511 
2116.000000	65.310931 
2115.000000	65.305542 
2114.000000	65.303492 
2113.000000	65.305924 
2112.000000	65.312409 
2111.000000	65.321350 
2110.000000	65.330600 
2109.000000	65.337944 
2108.000000	65.342068 
2107.000000	65.342617 
2106.000000	65.340161 
2105.000000	65.336012 
2104.000000	65.331172 
2103.000000	65.326571 
2102.000000	65.322685 
2101.000000	65.319466 
2100.000000	65.316486 
2099.000000	65.313410 
2098.000000	65.310573 
2097.000000	65.308737 
2096.000000	65.308833 
2095.000000	65.312123 
2094.000000	65.319967 
2093.000000	65.333247 
2092.000000	65.351939 
2091.000000	65.375089 
2090.000000	65.400743 
2089.000000	65.426325 
2088.000000	65.449261 
2087.000000	65.467095 
2086.000000	65.478491 
2085.000000	65.483570 
2084.000000	65.484046 
2083.000000	65.482997 
2082.000000	65.483903 
2081.000000	65.490698 
2080.000000	65.505647 
2079.000000	65.529370 
2078.000000	65.559291 
2077.000000	65.590763 
2076.000000	65.616655 
2075.000000	65.629506 
2074.000000	65.622210 
2073.000000	65.590119 
2072.000000	65.531682 
2071.000000	65.449118 
2070.000000	65.348362 
2069.000000	65.237784 
2068.000000	65.127444 
2067.000000	65.027475 
2066.000000	64.946627 
2065.000000	64.891362 
2064.000000	64.865159 
2063.000000	64.868569 
2062.000000	64.899206 
2061.000000	64.952778 
2060.000000	65.023732 
2059.000000	65.106296 
2058.000000	65.194368 
2057.000000	65.282392 
2056.000000	65.365314 
2055.000000	65.439033 
2054.000000	65.499901 
2053.000000	65.545201 
2052.000000	65.573358 
2051.000000	65.583777 
2050.000000	65.577721 
2049.000000	65.557217 
2048.000000	65.525674 
2047.000000	65.486526 
2046.000000	65.443801 
2045.000000	65.400743 
2044.000000	65.359926 
2043.000000	65.323209 
2042.000000	65.291810 
2041.000000	65.266656 
2040.000000	65.248632 
2039.000000	65.238928 
2038.000000	65.238738 
2037.000000	65.248680 
2036.000000	65.268516 
2035.000000	65.296602 
2034.000000	65.330028 
2033.000000	65.364527 
2032.000000	65.395355 
2031.000000	65.417933 
2030.000000	65.429067 
2029.000000	65.427422 
2028.000000	65.413999 
2027.000000	65.391612 
2026.000000	65.364289 
2025.000000	65.336608 
2024.000000	65.312647 
2023.000000	65.295100 
2022.000000	65.284991 
2021.000000	65.282130 
2020.000000	65.285158 
2019.000000	65.292358 
2018.000000	65.302133 
2017.000000	65.313386 
2016.000000	65.325593 
2015.000000	65.338706 
2014.000000	65.352797 
2013.000000	65.367460 
2012.000000	65.382027 
2011.000000	65.395259 
2010.000000	65.405726 
2009.000000	65.411996 
2008.000000	65.413188 
2007.000000	65.409255 
2006.000000	65.401148 
2005.000000	65.390777 
2004.000000	65.380501 
2003.000000	65.372753 
2002.000000	65.369820 
2001.000000	65.372896 
2000.000000	65.382242 
1999.000000	65.396642 
1998.000000	65.414118 
1997.000000	65.431976 
1996.000000	65.447425 
1995.000000	65.458226 
1994.000000	65.462923 
1993.000000	65.461254 
1992.000000	65.454244 
1991.000000	65.443587 
1990.000000	65.431094 
1989.000000	65.418267 
1988.000000	65.406084 
1987.000000	65.394592 
1986.000000	65.383172 
1985.000000	65.370893 
1984.000000	65.357017 
1983.000000	65.341305 
1982.000000	65.324258 
1981.000000	65.306997 
1980.000000	65.290951 
1979.000000	65.277814 
1978.000000	65.268683 
1977.000000	65.263724 
1976.000000	65.262150 
1975.000000	65.262174 
1974.000000	65.261602 
1973.000000	65.257954 
1972.000000	65.249776 
1971.000000	65.236663 
1970.000000	65.219879 
1969.000000	65.201950 
1968.000000	65.186619 
1967.000000	65.177583 
1966.000000	65.178060 
1965.000000	65.189838 
1964.000000	65.212917 
1963.000000	65.245509 
1962.000000	65.284371 
1961.000000	65.325427 
1960.000000	65.364480 
1959.000000	65.397691 
1958.000000	65.422415 
1957.000000	65.437364 
1956.000000	65.442585 
1955.000000	65.439128 
1954.000000	65.428876 
1953.000000	65.413975 
1952.000000	65.396547 
1951.000000	65.378499 
1950.000000	65.361285 
1949.000000	65.345835 
1948.000000	65.332698 
1947.000000	65.321898 
1946.000000	65.313196 
1945.000000	65.306448 
1944.000000	65.301322 
1943.000000	65.297818 
1942.000000	65.295958 
1941.000000	65.295982 
1940.000000	65.298199 
1939.000000	65.302968 
1938.000000	65.310382 
1937.000000	65.320467 
1936.000000	65.332984 
1935.000000	65.347528 
1934.000000	65.363407 
1933.000000	65.379762 
1932.000000	65.395522 
1931.000000	65.409541 
1930.000000	65.420484 
1929.000000	65.427136 
1928.000000	65.428662 
1927.000000	65.424585 
1926.000000	65.414857 
1925.000000	65.400147 
1924.000000	65.381693 
1923.000000	65.361070 
1922.000000	65.340065 
1921.000000	65.320324 
1920.000000	65.303039 
1919.000000	65.289044 
1918.000000	65.278577 
1917.000000	65.271377 
1916.000000	65.267205 
1915.000000	65.265631 
1914.000000	65.266346 
1913.000000	65.269064 
1912.000000	65.273666 
1911.000000	65.279746 
1910.000000	65.286946 
1909.000000	65.294671 
1908.000000	65.302205 
1907.000000	65.308737 
1906.000000	65.313553 
1905.000000	65.316152 
1904.000000	65.316343 
1903.000000	65.314364 
1902.000000	65.310859 
1901.000000	65.306782 
1900.000000	65.303158 
1899.000000	65.300941 
1898.000000	65.300679 
1897.000000	65.302586 
1896.000000	65.306138 
1895.000000	65.310740 
1894.000000	65.315413 
1893.000000	65.319275 
1892.000000	65.321922 
1891.000000	65.323305 
1890.000000	65.323734 
1889.000000	65.323638 
1888.000000	65.323400 
1887.000000	65.323328 
1886.000000	65.323209 
1885.000000	65.322613 
1884.000000	65.320825 
1883.000000	65.317296 
1882.000000	65.311932 
1881.000000	65.305233 
1880.000000	65.298199 
1879.000000	65.292310 
1878.000000	65.289139 
1877.000000	65.289902 
1876.000000	65.295004 
1875.000000	65.304064 
1874.000000	65.315937 
1873.000000	65.328860 
1872.000000	65.341067 
1871.000000	65.351223 
1870.000000	65.358829 
1869.000000	65.364456 
1868.000000	65.369462 
1867.000000	65.375494 
1866.000000	65.383791 
1865.000000	65.395116 
1864.000000	65.408825 
1863.000000	65.423083 
1862.000000	65.435171 
1861.000000	65.442276 
1860.000000	65.441823 
1859.000000	65.432524 
1858.000000	65.414404 
1857.000000	65.389227 
1856.000000	65.359663 
1855.000000	65.329122 
1854.000000	65.300512 
1853.000000	65.276050 
1852.000000	65.256571 
1851.000000	65.241837 
1850.000000	65.230560 
1849.000000	65.221118 
1848.000000	65.212082 
1847.000000	65.202856 
1846.000000	65.193557 
1845.000000	65.185403 
1844.000000	65.180039 
1843.000000	65.179705 
1842.000000	65.185976 
1841.000000	65.200090 
1840.000000	65.222191 
1839.000000	65.251564 
1838.000000	65.286493 
1837.000000	65.324544 
1836.000000	65.362858 
1835.000000	65.398716 
1834.000000	65.429663 
1833.000000	65.453934 
1832.000000	65.470504 
1831.000000	65.479397 
1830.000000	65.481424 
1829.000000	65.478205 
1828.000000	65.471625 
1827.000000	65.463566 
1826.000000	65.455698 
1825.000000	65.448570 
1824.000000	65.442013 
1823.000000	65.435099 
1822.000000	65.426564 
1821.000000	65.415310 
1820.000000	65.400767 
1819.000000	65.383362 
1818.000000	65.364384 
1817.000000	65.345811 
1816.000000	65.329766 
1815.000000	65.317940 
1814.000000	65.311145 
1813.000000	65.309071 
1812.000000	65.310668 
1811.000000	65.314292 
1810.000000	65.318322 
1809.000000	65.321755 
1808.000000	65.324211 
1807.000000	65.326046 
1806.000000	65.328168 
1805.000000	65.331530 
1804.000000	65.336751 
1803.000000	65.343570 
1802.000000	65.351152 
1801.000000	65.358281 
1800.000000	65.363359 
1799.000000	65.365195 
1798.000000	65.362882 
1797.000000	65.356087 
1796.000000	65.344882 
1795.000000	65.329670 
1794.000000	65.311121 
1793.000000	65.289926 
1792.000000	65.266919 
1791.000000	65.243101 
1790.000000	65.219545 
1789.000000	65.197348 
1788.000000	65.177679 
1787.000000	65.161871 
1786.000000	65.150833 
1785.000000	65.145301 
1784.000000	65.145444 
1783.000000	65.151190 
1782.000000	65.161800 
1781.000000	65.176153 
1780.000000	65.192770 
1779.000000	65.210199 
1778.000000	65.226912 
1777.000000	65.241718 
1776.000000	65.253448 
1775.000000	65.261673 
1774.000000	65.266442 
1773.000000	65.268206 
1772.000000	65.267920 
1771.000000	65.266418 
1770.000000	65.264487 
1769.000000	65.262722 
1768.000000	65.261411 
1767.000000	65.260767 
1766.000000	65.260958 
1765.000000	65.262508 
1764.000000	65.266156 
1763.000000	65.272760 
1762.000000	65.282869 
1761.000000	65.296649 
1760.000000	65.313458 
1759.000000	65.331912 
1758.000000	65.349888 
1757.000000	65.365052 
1756.000000	65.375041 
1755.000000	65.378093 
1754.000000	65.373349 
1753.000000	65.361070 
1752.000000	65.342259 
1751.000000	65.318846 
1750.000000	65.292954 
1749.000000	65.266656 
1748.000000	65.241718 
1747.000000	65.219306 
1746.000000	65.200281 
1745.000000	65.185189 
1744.000000	65.174460 
1743.000000	65.168309 
1742.000000	65.167021 
1741.000000	65.170741 
1740.000000	65.179204 
1739.000000	65.191769 
1738.000000	65.207147 
1737.000000	65.223526 
1736.000000	65.238857 
1735.000000	65.250802 
1734.000000	65.257501 
1733.000000	65.257501 
1732.000000	65.250253 
1731.000000	65.235900 
1730.000000	65.215301 
1729.000000	65.189886 
1728.000000	65.161514 
1727.000000	65.132093 
1726.000000	65.103483 
1725.000000	65.077543 
1724.000000	65.056133 
1723.000000	65.041184 
1722.000000	65.034389 
1721.000000	65.037202 
1720.000000	65.050292 
1719.000000	65.073680 
1718.000000	65.106201 
1717.000000	65.145707 
1716.000000	65.189051 
1715.000000	65.232658 
1714.000000	65.272855 
1713.000000	65.306520 
1712.000000	65.331482 
1711.000000	65.346860 
1710.000000	65.353107 
1709.000000	65.351819 
1708.000000	65.345406 
1707.000000	65.336751 
1706.000000	65.328288 
1705.000000	65.322089 
1704.000000	65.318942 
1703.000000	65.318751 
1702.000000	65.320181 
1701.000000	65.321445 
1700.000000	65.320682 
1699.000000	65.316343 
1698.000000	65.308046 
1697.000000	65.296483 
1696.000000	65.283632 
1695.000000	65.272235 
1694.000000	65.264964 
1693.000000	65.263891 
1692.000000	65.269637 
1691.000000	65.281271 
1690.000000	65.296316 
1689.000000	65.311431 
1688.000000	65.323042 
1687.000000	65.328383 
1686.000000	65.326309 
1685.000000	65.317487 
1684.000000	65.304279 
1683.000000	65.289878 
1682.000000	65.277719 
1681.000000	65.270400 
1680.000000	65.269136 
1679.000000	65.273237 
1678.000000	65.280866 
1677.000000	65.289187 
1676.000000	65.295553 
1675.000000	65.297627 
1674.000000	65.294146 
1673.000000	65.284872 
1672.000000	65.270400 
1671.000000	65.252065 
1670.000000	65.231561 
1669.000000	65.210747 
1668.000000	65.191483 
1667.000000	65.175461 
1666.000000	65.164136 
1665.000000	65.158581 
1664.000000	65.159273 
1663.000000	65.166020 
1662.000000	65.177798 
1661.000000	65.192794 
1660.000000	65.208673 
1659.000000	65.223050 
1658.000000	65.233993 
1657.000000	65.240478 
1656.000000	65.242409 
1655.000000	65.240645 
1654.000000	65.236544 
1653.000000	65.231776 
1652.000000	65.227770 
1651.000000	65.225315 
1650.000000	65.224456 
1649.000000	65.224742 
1648.000000	65.225410 
1647.000000	65.225791 
1646.000000	65.225529 
1645.000000	65.224814 
1644.000000	65.224528 
1643.000000	65.225791 
1642.000000	65.229892 
1641.000000	65.237784 
1640.000000	65.249752 
1639.000000	65.265178 
1638.000000	65.282440 
1637.000000	65.299367 
1636.000000	65.313458 
1635.000000	65.322494 
1634.000000	65.324878 
1633.000000	65.320348 
1632.000000	65.309929 
1631.000000	65.296006 
1630.000000	65.281915 
1629.000000	65.271019 
1628.000000	65.266156 
1627.000000	65.268969 
1626.000000	65.279245 
1625.000000	65.295386 
1624.000000	65.314388 
1623.000000	65.332841 
1622.000000	65.347743 
1621.000000	65.357160 
1620.000000	65.360713 
1619.000000	65.359568 
1618.000000	65.356063 
1617.000000	65.352845 
1616.000000	65.352511 
1615.000000	65.356278 
1614.000000	65.364217 
1613.000000	65.374612 
1612.000000	65.384817 
1611.000000	65.391469 
1610.000000	65.391564 
1609.000000	65.383100 
1608.000000	65.365839 
1607.000000	65.341138 
1606.000000	65.311622 
1605.000000	65.280699 
1604.000000	65.251946 
1603.000000	65.228247 
1602.000000	65.211534 
1601.000000	65.202832 
1600.000000	65.202140 
1599.000000	65.208792 
1598.000000	65.221571 
1597.000000	65.238857 
1596.000000	65.258717 
1595.000000	65.278983 
1594.000000	65.297603 
1593.000000	65.312623 
1592.000000	65.322995 
1591.000000	65.328288 
1590.000000	65.328884 
1589.000000	65.326166 
1588.000000	65.321588 
1587.000000	65.316653 
1586.000000	65.311694 
1585.000000	65.306019 
1584.000000	65.297770 
1583.000000	65.284538 
1582.000000	65.264320 
1581.000000	65.236210 
1580.000000	65.201282 
1579.000000	65.162634 
1578.000000	65.124797 
1577.000000	65.092706 
1576.000000	65.070629 
1575.000000	65.060877 
1574.000000	65.063381 
1573.000000	65.075659 
1572.000000	65.093541 
1571.000000	65.112161 
1570.000000	65.127229 
1569.000000	65.136027 
1568.000000	65.137481 
1567.000000	65.132355 
1566.000000	65.122509 
1565.000000	65.110301 
1564.000000	65.097498 
1563.000000	65.085268 
1562.000000	65.074110 
1561.000000	65.063929 
1560.000000	65.054726 
1559.000000	65.046477 
1558.000000	65.039563 
1557.000000	65.034532 
1556.000000	65.032219 
1555.000000	65.033316 
1554.000000	65.038180 
1553.000000	65.046954 
1552.000000	65.059375 
1551.000000	65.074896 
1550.000000	65.092492 
1549.000000	65.110898 
1548.000000	65.128469 
1547.000000	65.143442 
1546.000000	65.153837 
1545.000000	65.158176 
1544.000000	65.155291 
1543.000000	65.145111 
1542.000000	65.128374 
1541.000000	65.107154 
1540.000000	65.084052 
1539.000000	65.061902 
1538.000000	65.043306 
1537.000000	65.029883 
1536.000000	65.022349 
1535.000000	65.020418 
1534.000000	65.023303 
1533.000000	65.029931 
1532.000000	65.039587 
1531.000000	65.051865 
1530.000000	65.066766 
1529.000000	65.084528 
1528.000000	65.105152 
1527.000000	65.127921 
1526.000000	65.151381 
1525.000000	65.173316 
1524.000000	65.190935 
1523.000000	65.201640 
1522.000000	65.203404 
1521.000000	65.195608 
1520.000000	65.179324 
1519.000000	65.157437 
1518.000000	65.134048 
1517.000000	65.113759 
1516.000000	65.100812 
1515.000000	65.097975 
1514.000000	65.106344 
1513.000000	65.124940 
1512.000000	65.151309 
1511.000000	65.181899 
1510.000000	65.213036 
1509.000000	65.241646 
1508.000000	65.265464 
1507.000000	65.283799 
1506.000000	65.296888 
1505.000000	65.306305 
1504.000000	65.314221 
1503.000000	65.322732 
1502.000000	65.333533 
1501.000000	65.347027 
1500.000000	65.362405 
1499.000000	65.377306 
1498.000000	65.388512 
1497.000000	65.392589 
1496.000000	65.386891 
1495.000000	65.370345 
1494.000000	65.343785 
1493.000000	65.310144 
1492.000000	65.273904 
1491.000000	65.240311 
1490.000000	65.214180 
1489.000000	65.198779 
1488.000000	65.195178 
1487.000000	65.202283 
1486.000000	65.216970 
1485.000000	65.234947 
1484.000000	65.251660 
1483.000000	65.263438 
1482.000000	65.267872 
1481.000000	65.264201 
1480.000000	65.253138 
1479.000000	65.236282 
1478.000000	65.215754 
1477.000000	65.193676 
1476.000000	65.171670 
1475.000000	65.150785 
1474.000000	65.131473 
1473.000000	65.113735 
1472.000000	65.097236 
1471.000000	65.081620 
1470.000000	65.066695 
1469.000000	65.052938 
1468.000000	65.041160 
1467.000000	65.032911 
1466.000000	65.030002 
1465.000000	65.034413 
1464.000000	65.047883 
1463.000000	65.071272 
1462.000000	65.104246 
1461.000000	65.145039 
1460.000000	65.190458 
1459.000000	65.236473 
1458.000000	65.278649 
1457.000000	65.313076 
1456.000000	65.337061 
1455.000000	65.349936 
1454.000000	65.352988 
1453.000000	65.349054 
1452.000000	65.342116 
1451.000000	65.335607 
1450.000000	65.331983 
1449.000000	65.331530 
1448.000000	65.332841 
1447.000000	65.332937 
1446.000000	65.328311 
1445.000000	65.316128 
1444.000000	65.295219 
1443.000000	65.266585 
1442.000000	65.233206 
1441.000000	65.199589 
1440.000000	65.170836 
1439.000000	65.151667 
1438.000000	65.145158 
1437.000000	65.152454 
1436.000000	65.172076 
1435.000000	65.200424 
1434.000000	65.232229 
1433.000000	65.261530 
1432.000000	65.282893 
1431.000000	65.292310 
1430.000000	65.288329 
1429.000000	65.271687 
1428.000000	65.245771 
1427.000000	65.215587 
1426.000000	65.186882 
1425.000000	65.164852 
1424.000000	65.153193 
1423.000000	65.153479 
1422.000000	65.164828 
1421.000000	65.184378 
1420.000000	65.207862 
1419.000000	65.230679 
1418.000000	65.248680 
1417.000000	65.259170 
1416.000000	65.260982 
1415.000000	65.254521 
1414.000000	65.241217 
1413.000000	65.223073 
1412.000000	65.202021 
1411.000000	65.179610 
1410.000000	65.157008 
1409.000000	65.134882 
1408.000000	65.113687 
1407.000000	65.093898 
1406.000000	65.076375 
1405.000000	65.062093 
1404.000000	65.051984 
1403.000000	65.046715 
1402.000000	65.046215 
1401.000000	65.049958 
1400.000000	65.056681 
1399.000000	65.064859 
1398.000000	65.072941 
1397.000000	65.079641 
1396.000000	65.084338 
1395.000000	65.086936 
1394.000000	65.088009 
1393.000000	65.088081 
1392.000000	65.087652 
1391.000000	65.086841 
1390.000000	65.085363 
1389.000000	65.082454 
1388.000000	65.076994 
1387.000000	65.068101 
1386.000000	65.055370 
1385.000000	65.039157 
1384.000000	65.020608 
1383.000000	65.001630 
1382.000000	64.984369 
1381.000000	64.970731 
1380.000000	64.961791 
1379.000000	64.957904 
1378.000000	64.958333 
1377.000000	64.961767 
1376.000000	64.966368 
1375.000000	64.970445 
1374.000000	64.972686 
1373.000000	64.972043 
1372.000000	64.968204 
1371.000000	64.961242 
1370.000000	64.951729 
1369.000000	64.940357 
1368.000000	64.928221 
1367.000000	64.916682 
1366.000000	64.907383 
1365.000000	64.902019 
1364.000000	64.902234 
1363.000000	64.909148 
1362.000000	64.923095 
1361.000000	64.943575 
1360.000000	64.968919 
1359.000000	64.996671 
1358.000000	65.024232 
1357.000000	65.049099 
1356.000000	65.069389 
1355.000000	65.084147 
1354.000000	65.093088 
1353.000000	65.096449 
1352.000000	65.094828 
1351.000000	65.089035 
1350.000000	65.079903 
1349.000000	65.068554 
1348.000000	65.056324 
1347.000000	65.045237 
1346.000000	65.037775 
1345.000000	65.036702 
1344.000000	65.044403 
1343.000000	65.062475 
1342.000000	65.091180 
1341.000000	65.129137 
1340.000000	65.173387 
1339.000000	65.219688 
1338.000000	65.263223 
1337.000000	65.299439 
1336.000000	65.324974 
1335.000000	65.337872 
1334.000000	65.338039 
1333.000000	65.326976 
1332.000000	65.307426 
1331.000000	65.282869 
1330.000000	65.256881 
1329.000000	65.232849 
1328.000000	65.212988 
1327.000000	65.199041 
1326.000000	65.191364 
1325.000000	65.189433 
1324.000000	65.191483 
1323.000000	65.195155 
1322.000000	65.197706 
1321.000000	65.196299 
1320.000000	65.188837 
1319.000000	65.174317 
1318.000000	65.153431 
1317.000000	65.128135 
1316.000000	65.101909 
1315.000000	65.078711 
1314.000000	65.062499 
1313.000000	65.055990 
1312.000000	65.060400 
1311.000000	65.075016 
1310.000000	65.097355 
1309.000000	65.123629 
1308.000000	65.149784 
1307.000000	65.172147 
1306.000000	65.188074 
1305.000000	65.196228 
1304.000000	65.196728 
1303.000000	65.190696 
1302.000000	65.179920 
1301.000000	65.166354 
1300.000000	65.151929 
1299.000000	65.138316 
1298.000000	65.127038 
1297.000000	65.119051 
1296.000000	65.114831 
1295.000000	65.114045 
1294.000000	65.115976 
1293.000000	65.119123 
1292.000000	65.121698 
1291.000000	65.121865 
1290.000000	65.118074 
1289.000000	65.109515 
1288.000000	65.095996 
1287.000000	65.078377 
1286.000000	65.058112 
1285.000000	65.037298 
1284.000000	65.018153 
1283.000000	65.002894 
1282.000000	64.993286 
1281.000000	64.990377 
1280.000000	64.994168 
1279.000000	65.004014 
1278.000000	65.018510 
1277.000000	65.035820 
1276.000000	65.054059 
1275.000000	65.071344 
1274.000000	65.086340 
1273.000000	65.098118 
1272.000000	65.106534 
1271.000000	65.111875 
1270.000000	65.114879 
1269.000000	65.116548 
1268.000000	65.117645 
1267.000000	65.118956 
1266.000000	65.120649 
1265.000000	65.122461 
1264.000000	65.123510 
1263.000000	65.122961 
1262.000000	65.119528 
1261.000000	65.112233 
1260.000000	65.100431 
1259.000000	65.084314 
1258.000000	65.064859 
1257.000000	65.043830 
1256.000000	65.023660 
1255.000000	65.006947 
1254.000000	64.996004 
1253.000000	64.992332 
1252.000000	64.996480 
1251.000000	65.007781 
1250.000000	65.024495 
1249.000000	65.044188 
1248.000000	65.064215 
1247.000000	65.082049 
1246.000000	65.095806 
1245.000000	65.104436 
1244.000000	65.107583 
1243.000000	65.105581 
1242.000000	65.099334 
1241.000000	65.090036 
1240.000000	65.079069 
1239.000000	65.067887 
1238.000000	65.058088 
1237.000000	65.051054 
1236.000000	65.048074 
1235.000000	65.049862 
1234.000000	65.056467 
1233.000000	65.067195 
1232.000000	65.080380 
1231.000000	65.093970 
1230.000000	65.105748 
1229.000000	65.113949 
1228.000000	65.117597 
1227.000000	65.116691 
1226.000000	65.112161 
1225.000000	65.105605 
1224.000000	65.098667 
1223.000000	65.092635 
1222.000000	65.088129 
1221.000000	65.084791 
1220.000000	65.081739 
1219.000000	65.077829 
1218.000000	65.072202 
1217.000000	65.064668 
1216.000000	65.055942 
1215.000000	65.047407 
1214.000000	65.040922 
1213.000000	65.037965 
1212.000000	65.039396 
1211.000000	65.044808 
1210.000000	65.052604 
1209.000000	65.060567 
1208.000000	65.066027 
1207.000000	65.066814 
1206.000000	65.061831 
1205.000000	65.051293 
1204.000000	65.036773 
1203.000000	65.020632 
1202.000000	65.005397 
1201.000000	64.993143 
1200.000000	64.984965 
1199.000000	64.980697 
1198.000000	64.979028 
1197.000000	64.977884 
1196.000000	64.975023 
1195.000000	64.968681 
1194.000000	64.957785 
1193.000000	64.942693 
1192.000000	64.924597 
1191.000000	64.905595 
1190.000000	64.887857 
1189.000000	64.873528 
1188.000000	64.863967 
1187.000000	64.859795 
1186.000000	64.860510 
1185.000000	64.865255 
1184.000000	64.872884 
1183.000000	64.882612 
1182.000000	64.893913 
1181.000000	64.906859 
1180.000000	64.921903 
1179.000000	64.939379 
1178.000000	64.959383 
1177.000000	64.981460 
1176.000000	65.004467 
1175.000000	65.026903 
1174.000000	65.047049 
1173.000000	65.063261 
1172.000000	65.074372 
1171.000000	65.079998 
1170.000000	65.080380 
1169.000000	65.076661 
1168.000000	65.070176 
1167.000000	65.062475 
1166.000000	65.054702 
1165.000000	65.047264 
1164.000000	65.039682 
1163.000000	65.030932 
1162.000000	65.019702 
1161.000000	65.004968 
1160.000000	64.986157 
1159.000000	64.963698 
1158.000000	64.938950 
1157.000000	64.913773 
1156.000000	64.890384 
1155.000000	64.870667 
1154.000000	64.856195 
1153.000000	64.847922 
1152.000000	64.846277 
1151.000000	64.850926 
1150.000000	64.861249 
1149.000000	64.876341 
1148.000000	64.894747 
1147.000000	64.914536 
1146.000000	64.933252 
1145.000000	64.948296 
1144.000000	64.957070 
1143.000000	64.957833 
1142.000000	64.949512 
1141.000000	64.932513 
1140.000000	64.909005 
1139.000000	64.882683 
1138.000000	64.857578 
1137.000000	64.837598 
1136.000000	64.825749 
1135.000000	64.823508 
1134.000000	64.830350 
1133.000000	64.844155 
1132.000000	64.861702 
1131.000000	64.879655 
1130.000000	64.895176 
1129.000000	64.906477 
1128.000000	64.913034 
1127.000000	64.914655 
1126.000000	64.911174 
1125.000000	64.901781 
1124.000000	64.885210 
1123.000000	64.860057 
1122.000000	64.825582 
1121.000000	64.782857 
1120.000000	64.735341 
1119.000000	64.689230 
1118.000000	64.653015 
1117.000000	64.635658 
1116.000000	64.645004 
1115.000000	64.686632 
1114.000000	64.761948 
1113.000000	64.867353 
1112.000000	64.994287 
1111.000000	65.130662 
1110.000000	65.262603 
1109.000000	65.376520 
1108.000000	65.461611 
1107.000000	65.511322 
1106.000000	65.524816 
1105.000000	65.506482 
1104.000000	65.465021 
1103.000000	65.411806 
1102.000000	65.358018 
1101.000000	65.313863 
1100.000000	65.285587 
1099.000000	65.275740 
1098.000000	65.282225 
1097.000000	65.300035 
1096.000000	65.322136 
1095.000000	65.341639 
1094.000000	65.352535 
1093.000000	65.350842 
1092.000000	65.334582 
1091.000000	65.303754 
1090.000000	65.259599 
1089.000000	65.204191 
1088.000000	65.139913 
1087.000000	65.069341 
1086.000000	64.995551 
1085.000000	64.921951 
1084.000000	64.852118 
1083.000000	64.789891 
1082.000000	64.738750 
1081.000000	64.701628 
1080.000000	64.680361 
1079.000000	64.675855 
1078.000000	64.686822 
1077.000000	64.711022 
1076.000000	64.744949 
1075.000000	64.784431 
1074.000000	64.824819 
1073.000000	64.861345 
1072.000000	64.889478 
1071.000000	64.905357 
1070.000000	64.906358 
1069.000000	64.891242 
1068.000000	64.860486 
1067.000000	64.816594 
1066.000000	64.764046 
1065.000000	64.708518 
1064.000000	64.656281 
1063.000000	64.613318 
1062.000000	64.584565 
1061.000000	64.573216 
1060.000000	64.580798 
1059.000000	64.606571 
1058.000000	64.648437 
1057.000000	64.702820 
1056.000000	64.766025 
1055.000000	64.833831 
1054.000000	64.903140 
1053.000000	64.970850 
1052.000000	65.034914 
1051.000000	65.094232 
1050.000000	65.147995 
1049.000000	65.195512 
1048.000000	65.235829 
1047.000000	65.268397 
1046.000000	65.292263 
1045.000000	65.306806 
1044.000000	65.311670 
1043.000000	65.307354 
1042.000000	65.295195 
1041.000000	65.277791 
1040.000000	65.258288 
1039.000000	65.239953 
1038.000000	65.225648 
1037.000000	65.217137 
1036.000000	65.214371 
1035.000000	65.215492 
1034.000000	65.216779 
1033.000000	65.213656 
1032.000000	65.201520 
1031.000000	65.177702 
1030.000000	65.142011 
1029.000000	65.097951 
1028.000000	65.051507 
1027.000000	65.010666 
1026.000000	64.983820 
1025.000000	64.977741 
1024.000000	64.995479 
1023.000000	65.036082 
1022.000000	65.094780 
1021.000000	65.163493 
1020.000000	65.232729 
1019.000000	65.293240 
1018.000000	65.337824 
1017.000000	65.362310 
1016.000000	65.366005 
1015.000000	65.351033 
1014.000000	65.321493 
1013.000000	65.282344 
1012.000000	65.238285 
1011.000000	65.193605 
1010.000000	65.151405 
1009.000000	65.114164 
1008.000000	65.082979 
1007.000000	65.057969 
1006.000000	65.037989 
1005.000000	65.021085 
1004.000000	65.004920 
1003.000000	64.986920 
1002.000000	64.965271 
1001.000000	64.939045 
1000.000000	64.908647 
999.000000	 64.875411 
998.000000	 64.841985 
997.000000	 64.810776 
996.000000	 64.785099 
995.000000	 64.767765 
994.000000	 64.761757 
993.000000	 64.769268 
992.000000	 64.791893 
991.000000	 64.830398 
990.000000	 64.883828 
989.000000	 64.949178 
988.000000	 65.020751 
987.000000	 65.090847 
986.000000	 65.150356 
985.000000	 65.190434 
984.000000	 65.204429 
983.000000	 65.189552 
982.000000	 65.148377 
981.000000	 65.088367 
980.000000	 65.020179 
979.000000	 64.955163 
978.000000	 64.903759 
977.000000	 64.872431 
976.000000	 64.863228 
975.000000	 64.872884 
974.000000	 64.895009 
973.000000	 64.921021 
972.000000	 64.942812 
971.000000	 64.953947 
970.000000	 64.950656 
969.000000	 64.932346 
968.000000	 64.900898 
967.000000	 64.860129 
966.000000	 64.814162 
965.000000	 64.767527 
964.000000	 64.724040 
963.000000	 64.687085 
962.000000	 64.659667 
961.000000	 64.644265 
960.000000	 64.642691 
959.000000	 64.655876 
958.000000	 64.683437 
957.000000	 64.723992 
956.000000	 64.775228 
955.000000	 64.833879 
954.000000	 64.896178 
953.000000	 64.958453 
952.000000	 65.017199 
951.000000	 65.069580 
950.000000	 65.113162 
949.000000	 65.145635 
948.000000	 65.164422 
947.000000	 65.167784 
946.000000	 65.154004 
945.000000	 65.121960 
944.000000	 65.071558 
943.000000	 65.004611 
942.000000	 64.924979 
941.000000	 64.838790 
940.000000	 64.753627 
939.000000	 64.677643 
938.000000	 64.618182 
937.000000	 64.580464 
936.000000	 64.566636 
935.000000	 64.575338 
934.000000	 64.601802 
933.000000	 64.638948 
932.000000	 64.678645 
931.000000	 64.713406 
930.000000	 64.737868 
929.000000	 64.749908 
928.000000	 64.750528 
927.000000	 64.743685 
926.000000	 64.735198 
925.000000	 64.731431 
924.000000	 64.737796 
923.000000	 64.757204 
922.000000	 64.790415 
921.000000	 64.834690 
920.000000	 64.885282 
919.000000	 64.935255 
918.000000	 64.977693 
917.000000	 65.006303 
916.000000	 65.016770 
915.000000	 65.007829 
914.000000	 64.981412 
913.000000	 64.942574 
912.000000	 64.898657 
911.000000	 64.857459 
910.000000	 64.825844 
909.000000	 64.808082 
908.000000	 64.805436 
907.000000	 64.815640 
906.000000	 64.833664 
905.000000	 64.853191 
904.000000	 64.868450 
903.000000	 64.875340 
902.000000	 64.872813 
901.000000	 64.862370 
900.000000	 64.847898 
899.000000	 64.833974 
898.000000	 64.824795 
897.000000	 64.822721 
896.000000	 64.827632 
895.000000	 64.837384 
894.000000	 64.848399 
893.000000	 64.857101 
892.000000	 64.860439 
891.000000	 64.856934 
890.000000	 64.846539 
889.000000	 64.830493 
888.000000	 64.810776 
887.000000	 64.789366 
886.000000	 64.767813 
885.000000	 64.746856 
884.000000	 64.726614 
883.000000	 64.706969 
882.000000	 64.688038 
881.000000	 64.670515 
880.000000	 64.655661 
879.000000	 64.645075 
878.000000	 64.640593 
877.000000	 64.643597 
876.000000	 64.654636 
875.000000	 64.673137 
874.000000	 64.697146 
873.000000	 64.723634 
872.000000	 64.749073 
871.000000	 64.770078 
870.000000	 64.783811 
869.000000	 64.788722 
868.000000	 64.785003 
867.000000	 64.774727 
866.000000	 64.761590 
865.000000	 64.750027 
864.000000	 64.744496 
863.000000	 64.748144 
862.000000	 64.762544 
861.000000	 64.786696 
860.000000	 64.817547 
859.000000	 64.850115 
858.000000	 64.878797 
857.000000	 64.898705 
856.000000	 64.906811 
855.000000	 64.902710 
854.000000	 64.888691 
853.000000	 64.868855 
852.000000	 64.848017 
851.000000	 64.830470 
850.000000	 64.818692 
849.000000	 64.812874 
848.000000	 64.810705 
847.000000	 64.808201 
846.000000	 64.800834 
845.000000	 64.784646 
844.000000	 64.757752 
843.000000	 64.720392 
842.000000	 64.675688 
841.000000	 64.628791 
840.000000	 64.586257 
839.000000	 64.554262 
838.000000	 64.537501 
837.000000	 64.538288 
836.000000	 64.555573 
835.000000	 64.585709 
834.000000	 64.622187 
833.000000	 64.657020 
832.000000	 64.682459 
831.000000	 64.692091 
830.000000	 64.682817 
829.000000	 64.655470 
828.000000	 64.614677 
827.000000	 64.567661 
826.000000	 64.522671 
825.000000	 64.486694 
824.000000	 64.463877 
823.000000	 64.454841 
822.000000	 64.456820 
821.000000	 64.464592 
820.000000	 64.472293 
819.000000	 64.474821 
818.000000	 64.468574 
817.000000	 64.452481 
816.000000	 64.427256 
815.000000	 64.396047 
814.000000	 64.363169 
813.000000	 64.334011 
812.000000	 64.313745 
811.000000	 64.306521 
810.000000	 64.314866 
809.000000	 64.338874 
808.000000	 64.376401 
807.000000	 64.423036 
806.000000	 64.472818 
805.000000	 64.519524 
804.000000	 64.557242 
803.000000	 64.581966 
802.000000	 64.592051 
801.000000	 64.588665 
800.000000	 64.575076 
799.000000	 64.556169 
798.000000	 64.537000 
797.000000	 64.521956 
796.000000	 64.513707 
795.000000	 64.512872 
794.000000	 64.517879 
793.000000	 64.525604 
792.000000	 64.532017 
791.000000	 64.533615 
790.000000	 64.527845 
789.000000	 64.513015 
788.000000	 64.489006 
787.000000	 64.457774 
786.000000	 64.422464 
785.000000	 64.386725 
784.000000	 64.353775 
783.000000	 64.326238 
782.000000	 64.305043 
781.000000	 64.289975 
780.000000	 64.279294 
779.000000	 64.269638 
778.000000	 64.257669 
777.000000	 64.240670 
776.000000	 64.217734 
775.000000	 64.190006 
774.000000	 64.160871 
773.000000	 64.134740 
772.000000	 64.116787 
771.000000	 64.111137 
770.000000	 64.119553 
769.000000	 64.140605 
768.000000	 64.168834 
767.000000	 64.195227 
766.000000	 64.209365 
765.000000	 64.200735 
764.000000	 64.160418 
763.000000	 64.083075 
762.000000	 63.968133 
761.000000	 63.820791 
760.000000	 63.650321 
759.000000	 63.470911 
758.000000	 63.298034 
757.000000	 63.148570 
756.000000	 63.037562 
755.000000	 62.977361 
754.000000	 62.975120 
753.000000	 63.031554 
752.000000	 63.140487 
751.000000	 63.288760 
750.000000	 63.457226 
749.000000	 63.624143 
748.000000	 63.767743 
747.000000	 63.870716 
746.000000	 63.922095 
745.000000	 63.920855 
744.000000	 63.875412 
743.000000	 63.802599 
742.000000	 63.723778 
741.000000	 63.660740 
740.000000	 63.630890 
739.000000	 63.644552 
738.000000	 63.702893 
737.000000	 63.798594 
736.000000	 63.917613 
735.000000	 64.043426 
734.000000	 64.159703 
733.000000	 64.253354 
732.000000	 64.316415 
731.000000	 64.346385 
730.000000	 64.345788 
729.000000	 64.320349 
728.000000	 64.277315 
727.000000	 64.224672 
726.000000	 64.168238 
725.000000	 64.112114 
724.000000	 64.057493 
723.000000	 64.004635 
722.000000	 63.952302 
721.000000	 63.899564 
720.000000	 63.845825 
719.000000	 63.791441 
718.000000	 63.738465 
717.000000	 63.690376 
716.000000	 63.650989 
715.000000	 63.623547 
714.000000	 63.610625 
713.000000	 63.613510 
712.000000	 63.631701 
711.000000	 63.662886 
710.000000	 63.703703 
709.000000	 63.749980 
708.000000	 63.797330 
707.000000	 63.841223 
706.000000	 63.877391 
705.000000	 63.901543 
704.000000	 63.909649 
703.000000	 63.898444 
702.000000	 63.866400 
701.000000	 63.814377 
700.000000	 63.745808 
699.000000	 63.666915 
698.000000	 63.586378 
697.000000	 63.513684 
696.000000	 63.457775 
695.000000	 63.424944 
694.000000	 63.417911 
693.000000	 63.434958 
692.000000	 63.470554 
691.000000	 63.516473 
690.000000	 63.563585 
689.000000	 63.604044 
688.000000	 63.632631 
687.000000	 63.647365 
686.000000	 63.649058 
685.000000	 63.640546 
684.000000	 63.625192 
683.000000	 63.605475 
682.000000	 63.582611 
681.000000	 63.556337 
680.000000	 63.525962 
679.000000	 63.491511 
678.000000	 63.454318 
677.000000	 63.417959 
676.000000	 63.386940 
675.000000	 63.366150 
674.000000	 63.358831 
673.000000	 63.365173 
672.000000	 63.381910 
671.000000	 63.402724 
670.000000	 63.419699 
669.000000	 63.425254 
668.000000	 63.414406 
667.000000	 63.385939 
666.000000	 63.343310 
665.000000	 63.293743 
664.000000	 63.246583 
663.000000	 63.210821 
662.000000	 63.192844 
661.000000	 63.194918 
660.000000	 63.214564 
659.000000	 63.245320 
658.000000	 63.278245 
657.000000	 63.304519 
656.000000	 63.317346 
655.000000	 63.313674 
654.000000	 63.294672 
653.000000	 63.265395 
652.000000	 63.232660 
651.000000	 63.203501 
650.000000	 63.183331 
649.000000	 63.174796 
648.000000	 63.177466 
647.000000	 63.187885 
646.000000	 63.201260 
645.000000	 63.212203 
644.000000	 63.216733 
643.000000	 63.212728 
642.000000	 63.200283 
641.000000	 63.181424 
640.000000	 63.158988 
639.000000	 63.136196 
638.000000	 63.115334 
637.000000	 63.097715 
636.000000	 63.083434 
635.000000	 63.071990 
634.000000	 63.062667 
633.000000	 63.054990 
632.000000	 63.049507 
631.000000	 63.047933 
630.000000	 63.053154 
629.000000	 63.068699 
628.000000	 63.097763 
627.000000	 63.142275 
626.000000	 63.201332 
625.000000	 63.270926 
624.000000	 63.343286 
623.000000	 63.408398 
622.000000	 63.454937 
621.000000	 63.472557 
620.000000	 63.454365 
619.000000	 63.398814 
618.000000	 63.310408 
617.000000	 63.199377 
616.000000	 63.079690 
615.000000	 62.966680 
614.000000	 62.873625 
613.000000	 62.809777 
612.000000	 62.778592 
611.000000	 62.777686 
610.000000	 62.800836 
609.000000	 62.840151 
608.000000	 62.888288 
607.000000	 62.939739 
606.000000	 62.991309 
605.000000	 63.041615 
604.000000	 63.089585 
603.000000	 63.133740 
602.000000	 63.171577 
601.000000	 63.200068 
600.000000	 63.216519 
599.000000	 63.219881 
598.000000	 63.212132 
597.000000	 63.197708 
596.000000	 63.183474 
595.000000	 63.175988 
594.000000	 63.180804 
593.000000	 63.199520 
592.000000	 63.229703 
591.000000	 63.264751 
590.000000	 63.296008 
589.000000	 63.314390 
588.000000	 63.313293 
587.000000	 63.289403 
586.000000	 63.243579 
585.000000	 63.180208 
584.000000	 63.106369 
583.000000	 63.029575 
582.000000	 62.956190 
581.000000	 62.891101 
580.000000	 62.837195 
579.000000	 62.795519 
578.000000	 62.765455 
577.000000	 62.745666 
576.000000	 62.734174 
575.000000	 62.728810 
574.000000	 62.727141 
573.000000	 62.725520 
572.000000	 62.719821 
571.000000	 62.706184 
570.000000	 62.682056 
569.000000	 62.646031 
568.000000	 62.599396 
567.000000	 62.545967 
566.000000	 62.491893 
565.000000	 62.443876 
564.000000	 62.408494 
563.000000	 62.390637 
562.000000	 62.392377 
561.000000	 62.412595 
560.000000	 62.447381 
559.000000	 62.490200 
558.000000	 62.534475 
557.000000	 62.574696 
556.000000	 62.608456 
555.000000	 62.636303 
554.000000	 62.661981 
553.000000	 62.690615 
552.000000	 62.726330 
551.000000	 62.769985 
550.000000	 62.818741 
549.000000	 62.865352 
548.000000	 62.899732 
547.000000	 62.911081 
546.000000	 62.891149 
545.000000	 62.836146 
544.000000	 62.748265 
543.000000	 62.635326 
542.000000	 62.509512 
541.000000	 62.384366 
540.000000	 62.271523 
539.000000	 62.179517 
538.000000	 62.112045 
537.000000	 62.069606 
536.000000	 62.050461 
535.000000	 62.052559 
534.000000	 62.074780 
533.000000	 62.116932 
532.000000	 62.178611 
531.000000	 62.258291 
530.000000	 62.351322 
529.000000	 62.450838 
528.000000	 62.547922 
527.000000	 62.632870 
526.000000	 62.696409 
525.000000	 62.732243 
524.000000	 62.737989 
523.000000	 62.714719 
522.000000	 62.666606 
521.000000	 62.599921 
520.000000	 62.522220 
519.000000	 62.440848 
518.000000	 62.363052 
517.000000	 62.296557 
516.000000	 62.248516 
515.000000	 62.226009 
514.000000	 62.233352 
513.000000	 62.271070 
512.000000	 62.335205 
511.000000	 62.416648 
510.000000	 62.504172 
509.000000	 62.586188 
508.000000	 62.653422 
507.000000	 62.701225 
506.000000	 62.728357 
505.000000	 62.736535 
504.000000	 62.727594 
503.000000	 62.702393 
502.000000	 62.659645 
501.000000	 62.596702 
500.000000	 62.510848 
499.000000	 62.401008 
498.000000	 62.268328 
497.000000	 62.117099 
496.000000	 61.954426 
495.000000	 61.789488 
494.000000	 61.631560 
493.000000	 61.489152 
492.000000	 61.368131 
491.000000	 61.272144 
490.000000	 61.203050 
489.000000	 61.160898 
488.000000	 61.144089 
487.000000	 61.149239 
486.000000	 61.171078 
485.000000	 61.202716 
484.000000	 61.234283 
483.000000	 61.256098 
482.000000	 61.259913 
481.000000	 61.240673 
480.000000	 61.197400 
479.000000	 61.133503 
478.000000	 61.055541 
477.000000	 60.972332 
476.000000	 60.892438 
475.000000	 60.824871 
474.000000	 60.777807 
473.000000	 60.758757 
472.000000	 60.773491 
471.000000	 60.825181 
470.000000	 60.912752 
469.000000	 61.031055 
468.000000	 61.169981 
467.000000	 61.315464 
466.000000	 61.449956 
465.000000	 61.555075 
464.000000	 61.613464 
463.000000	 61.612725 
462.000000	 61.546111 
461.000000	 61.415100 
460.000000	 61.228227 
459.000000	 61.000299 
458.000000	 60.750293 
457.000000	 60.500240 
456.000000	 60.270786 
455.000000	 60.079312 
454.000000	 59.937167 
453.000000	 59.850144 
452.000000	 59.815502 
451.000000	 59.822821 
450.000000	 59.856939 
449.000000	 59.899735 
448.000000	 59.937715 
447.000000	 59.964370 
446.000000	 59.980630 
445.000000	 59.991931 
444.000000	 60.008859 
443.000000	 60.041213 
442.000000	 60.088825 
441.000000	 60.138893 
440.000000	 60.173010 
439.000000	 60.168933 
438.000000	 60.101294 
437.000000	 59.951448 
436.000000	 59.718894 
435.000000	 59.421992 
434.000000	 59.087681 
433.000000	 58.754849 
432.000000	 58.468294 
431.000000	 58.270168 
430.000000	 58.190655 
429.000000	 58.243560 
428.000000	 58.418512 
427.000000	 58.689975 
426.000000	 59.031248 
425.000000	 59.404706 
424.000000	 59.762334 
423.000000	 60.059189 
422.000000	 60.262823 
421.000000	 60.342478 
420.000000	 60.274934 
419.000000	 60.027527 
418.000000	 59.560108 
417.000000	 58.859848 
416.000000	 57.942342 
415.000000	 56.844258 
414.000000	 55.613422 
413.000000	 54.295134 
412.000000	 52.921509 
411.000000	 51.520442 
410.000000	 50.109100 
409.000000	 48.690271 
408.000000	 47.269678 
407.000000	 45.860290 
406.000000	 44.508409 
405.000000	 43.241357 
404.000000	 42.145657 
403.000000	 41.322350 
402.000000	 40.936541 
401.000000	 41.149020 
400.000000	 42.130732 
399.000000	 43.996596 
398.000000	 46.774697 
397.000000	 50.391817 
396.000000	 54.583597 
395.000000	 58.959388 
394.000000	 62.864804 
393.000000	 65.484452 
392.000000	 66.041445 
391.000000	 64.008879 
390.000000	 59.307122 
389.000000	 52.382445 
388.000000	 44.296121 
387.000000	 36.469626 
386.000000	 30.266690 
385.000000	 26.719784 
384.000000	 26.124310 
383.000000	 28.170156 
382.000000	 32.207989 
381.000000	 37.447524 
380.000000	 43.295288 
379.000000	 49.353599 
378.000000	 55.432391 
377.000000	 61.434698 
376.000000	 66.992425 
375.000000	 71.718597 
374.000000	 75.210285 
373.000000	 77.193045 
372.000000	 77.659559 
371.000000	 76.850128 
370.000000	 75.187039 

