PE IR       SPECTRUM    SPECTRUM    ASCII       PEDS        1.60        
  -1
C-9AEF~1.ASC
17/03/27
16:43:17.00
17/03/27
16:43:17.00
tln
$C-4040-8_t0027$<tbV0>[2.6,-7.8,8.0,0.0,27,1,0]
370.000000
64









2002,4.07    
MIRTGS : RIGHTBACK : INTERNAL 2
MIR : ON : INTERNAL 2
OPTKBR

0.200000
8
8.000000
FILLER
RATIO
SPECTRUM
UNLOCKED 256

DOUBLE
64
COMBINED
1
0
0


1.000000
RATIO


1
0
TRUE
51149
0
LEFT NOT FITTED RIGHT NOT FITTED 0
NONE
NONE
15600
12.000000
4.427000
51148
TRUE
1 0 8 72 0 0 0 0 

15798.010000






#HDR
-1
-1
#GR
CM-1
%T
0.00002384185791015625
0.0
5000.000000
-1.000000
4631
8
64.837360
15.328335
#DATA
5000.000000	63.291287 
4999.000000	63.273835 
4998.000000	63.262844 
4997.000000	63.260960 
4996.000000	63.270664 
4995.000000	63.293504 
4994.000000	63.329386 
4993.000000	63.376879 
4992.000000	63.431835 
4991.000000	63.488054 
4990.000000	63.537478 
4989.000000	63.571977 
4988.000000	63.583922 
4987.000000	63.567852 
4986.000000	63.521885 
4985.000000	63.448548 
4984.000000	63.353538 
4983.000000	63.244390 
4982.000000	63.129091 
4981.000000	63.014459 
4980.000000	62.904357 
4979.000000	62.800264 
4978.000000	62.701678 
4977.000000	62.608933 
4976.000000	62.524724 
4975.000000	62.455296 
4974.000000	62.409830 
4973.000000	62.398123 
4972.000000	62.426614 
4971.000000	62.496542 
4970.000000	62.600708 
4969.000000	62.726163 
4968.000000	62.855124 
4967.000000	62.970519 
4966.000000	63.059043 
4965.000000	63.115167 
4964.000000	63.141465 
4963.000000	63.147878 
4962.000000	63.147759 
4961.000000	63.155007 
4960.000000	63.180017 
4959.000000	63.227558 
4958.000000	63.296008 
4957.000000	63.378787 
4956.000000	63.466429 
4955.000000	63.549351 
4954.000000	63.619947 
4953.000000	63.672900 
4952.000000	63.705897 
4951.000000	63.718819 
4950.000000	63.713884 
4949.000000	63.694262 
4948.000000	63.664364 
4947.000000	63.630604 
4946.000000	63.599705 
4945.000000	63.578701 
4944.000000	63.572430 
4943.000000	63.583827 
4942.000000	63.611578 
4941.000000	63.650965 
4940.000000	63.693976 
4939.000000	63.731074 
4938.000000	63.753223 
4937.000000	63.754105 
4936.000000	63.731622 
4935.000000	63.687705 
4934.000000	63.628649 
4933.000000	63.563513 
4932.000000	63.501930 
4931.000000	63.451981 
4930.000000	63.418507 
4929.000000	63.402771 
4928.000000	63.402795 
4927.000000	63.414812 
4926.000000	63.434648 
4925.000000	63.459014 
4924.000000	63.485860 
4923.000000	63.514494 
4922.000000	63.544821 
4921.000000	63.576960 
4920.000000	63.609409 
4919.000000	63.639402 
4918.000000	63.663411 
4917.000000	63.677811 
4916.000000	63.680386 
4915.000000	63.670468 
4914.000000	63.650059 
4913.000000	63.622879 
4912.000000	63.593482 
4911.000000	63.566422 
4910.000000	63.545179 
4909.000000	63.532066 
4908.000000	63.527536 
4907.000000	63.531947 
4906.000000	63.545799 
4905.000000	63.570570 
4904.000000	63.608288 
4903.000000	63.660812 
4902.000000	63.728594 
4901.000000	63.809537 
4900.000000	63.898348 
4899.000000	63.986778 
4898.000000	64.064788 
4897.000000	64.122986 
4896.000000	64.154410 
4895.000000	64.156484 
4894.000000	64.131188 
4893.000000	64.085268 
4892.000000	64.027619 
4891.000000	63.968110 
4890.000000	63.913822 
4889.000000	63.868808 
4888.000000	63.832235 
4887.000000	63.799619 
4886.000000	63.764309 
4885.000000	63.720059 
4884.000000	63.663458 
4883.000000	63.595199 
4882.000000	63.520741 
4881.000000	63.448429 
4880.000000	63.387989 
4879.000000	63.347697 
4878.000000	63.332295 
4877.000000	63.341593 
4876.000000	63.370943 
4875.000000	63.412261 
4874.000000	63.456416 
4873.000000	63.495206 
4872.000000	63.523316 
4871.000000	63.539242 
4870.000000	63.544511 
4869.000000	63.543152 
4868.000000	63.539814 
4867.000000	63.538980 
4866.000000	63.543176 
4865.000000	63.553357 
4864.000000	63.569593 
4863.000000	63.591098 
4862.000000	63.617587 
4861.000000	63.648462 
4860.000000	63.682985 
4859.000000	63.719773 
4858.000000	63.756799 
4857.000000	63.790893 
4856.000000	63.817954 
4855.000000	63.834095 
4854.000000	63.836884 
4853.000000	63.825869 
4852.000000	63.802886 
4851.000000	63.771820 
4850.000000	63.738131 
4849.000000	63.707470 
4848.000000	63.684415 
4847.000000	63.671922 
4846.000000	63.670587 
4845.000000	63.679289 
4844.000000	63.695430 
4843.000000	63.715529 
4842.000000	63.736081 
4841.000000	63.754057 
4840.000000	63.767123 
4839.000000	63.773083 
4838.000000	63.770794 
4837.000000	63.759827 
4836.000000	63.741207 
4835.000000	63.717103 
4834.000000	63.691043 
4833.000000	63.667821 
4832.000000	63.652324 
4831.000000	63.648891 
4830.000000	63.659930 
4829.000000	63.685512 
4828.000000	63.722634 
4827.000000	63.765907 
4826.000000	63.808345 
4825.000000	63.842940 
4824.000000	63.863992 
4823.000000	63.868308 
4822.000000	63.855838 
4821.000000	63.829445 
4820.000000	63.794040 
4819.000000	63.755226 
4818.000000	63.718557 
4817.000000	63.688015 
4816.000000	63.666009 
4815.000000	63.652658 
4814.000000	63.646292 
4813.000000	63.643789 
4812.000000	63.641500 
4811.000000	63.635897 
4810.000000	63.624262 
4809.000000	63.605117 
4808.000000	63.577961 
4807.000000	63.543653 
4806.000000	63.503789 
4805.000000	63.461041 
4804.000000	63.418531 
4803.000000	63.380050 
4802.000000	63.349342 
4801.000000	63.329982 
4800.000000	63.324785 
4799.000000	63.334822 
4798.000000	63.358879 
4797.000000	63.392972 
4796.000000	63.430762 
4795.000000	63.464474 
4794.000000	63.486385 
4793.000000	63.490128 
4792.000000	63.472390 
4791.000000	63.434243 
4790.000000	63.381028 
4789.000000	63.321518 
4788.000000	63.265991 
4787.000000	63.223528 
4786.000000	63.200211 
4785.000000	63.197660 
4784.000000	63.213181 
4783.000000	63.240456 
4782.000000	63.271641 
4781.000000	63.299489 
4780.000000	63.319492 
4779.000000	63.330125 
4778.000000	63.333845 
4777.000000	63.335227 
4776.000000	63.339805 
4775.000000	63.351893 
4774.000000	63.373422 
4773.000000	63.403677 
4772.000000	63.438820 
4771.000000	63.472986 
4770.000000	63.499569 
4769.000000	63.513278 
4768.000000	63.510918 
4767.000000	63.492274 
4766.000000	63.459897 
4765.000000	63.418626 
4764.000000	63.374948 
4763.000000	63.335633 
4762.000000	63.306379 
4761.000000	63.290762 
4760.000000	63.290214 
4759.000000	63.303565 
4758.000000	63.327336 
4757.000000	63.356804 
4756.000000	63.386797 
4755.000000	63.413429 
4754.000000	63.433909 
4753.000000	63.448071 
4752.000000	63.457274 
4751.000000	63.465046 
4750.000000	63.475227 
4749.000000	63.491821 
4748.000000	63.517570 
4747.000000	63.553500 
4746.000000	63.598847 
4745.000000	63.650512 
4744.000000	63.703942 
4743.000000	63.753581 
4742.000000	63.794016 
4741.000000	63.820624 
4740.000000	63.830304 
4739.000000	63.821721 
4738.000000	63.795208 
4737.000000	63.752484 
4736.000000	63.695764 
4735.000000	63.627958 
4734.000000	63.551855 
4733.000000	63.470077 
4732.000000	63.385105 
4731.000000	63.299560 
4730.000000	63.216733 
4729.000000	63.140153 
4728.000000	63.074278 
4727.000000	63.022899 
4726.000000	62.989997 
4725.000000	62.978386 
4724.000000	62.989997 
4723.000000	63.023924 
4722.000000	63.077902 
4721.000000	63.147807 
4720.000000	63.228225 
4719.000000	63.312292 
4718.000000	63.393068 
4717.000000	63.463950 
4716.000000	63.519525 
4715.000000	63.556027 
4714.000000	63.572287 
4713.000000	63.569831 
4712.000000	63.552832 
4711.000000	63.527250 
4710.000000	63.499832 
4709.000000	63.476467 
4708.000000	63.461542 
4707.000000	63.456606 
4706.000000	63.460183 
4705.000000	63.468027 
4704.000000	63.474750 
4703.000000	63.474988 
4702.000000	63.464474 
4701.000000	63.440966 
4700.000000	63.405394 
4699.000000	63.360500 
4698.000000	63.310050 
4697.000000	63.257932 
4696.000000	63.207387 
4695.000000	63.160300 
4694.000000	63.116836 
4693.000000	63.076257 
4692.000000	63.037800 
4691.000000	63.001179 
4690.000000	62.967038 
4689.000000	62.937021 
4688.000000	62.913346 
4687.000000	62.898564 
4686.000000	62.894868 
4685.000000	62.903428 
4684.000000	62.923860 
4683.000000	62.955021 
4682.000000	62.994837 
4681.000000	63.040518 
4680.000000	63.088750 
4679.000000	63.135790 
4678.000000	63.178324 
4677.000000	63.212919 
4676.000000	63.237476 
4675.000000	63.251233 
4674.000000	63.255500 
4673.000000	63.253474 
4672.000000	63.249993 
4671.000000	63.250279 
4670.000000	63.259315 
4669.000000	63.280797 
4668.000000	63.316178 
4667.000000	63.364291 
4666.000000	63.422131 
4665.000000	63.485693 
4664.000000	63.550662 
4663.000000	63.613462 
4662.000000	63.671398 
4661.000000	63.723015 
4660.000000	63.766932 
4659.000000	63.801574 
4658.000000	63.824748 
4657.000000	63.833856 
4656.000000	63.826537 
4655.000000	63.801050 
4654.000000	63.757848 
4653.000000	63.699388 
4652.000000	63.630270 
4651.000000	63.556122 
4650.000000	63.482666 
4649.000000	63.414931 
4648.000000	63.356590 
4647.000000	63.310313 
4646.000000	63.277053 
4645.000000	63.257598 
4644.000000	63.252711 
4643.000000	63.263344 
4642.000000	63.289856 
4641.000000	63.331627 
4640.000000	63.386130 
4639.000000	63.448548 
4638.000000	63.511538 
4637.000000	63.566875 
4636.000000	63.606762 
4635.000000	63.625836 
4634.000000	63.622164 
4633.000000	63.598227 
4632.000000	63.560342 
4631.000000	63.517260 
4630.000000	63.478088 
4629.000000	63.450336 
4628.000000	63.438296 
4627.000000	63.442516 
4626.000000	63.459897 
4625.000000	63.484811 
4624.000000	63.510823 
4623.000000	63.532280 
4622.000000	63.545513 
4621.000000	63.549160 
4620.000000	63.544440 
4619.000000	63.533782 
4618.000000	63.520574 
4617.000000	63.507652 
4616.000000	63.496875 
4615.000000	63.488936 
4614.000000	63.482952 
4613.000000	63.477540 
4612.000000	63.470745 
4611.000000	63.460969 
4610.000000	63.447523 
4609.000000	63.430881 
4608.000000	63.412904 
4607.000000	63.396167 
4606.000000	63.383936 
4605.000000	63.379144 
4604.000000	63.384056 
4603.000000	63.399338 
4602.000000	63.423943 
4601.000000	63.454937 
4600.000000	63.488268 
4599.000000	63.519310 
4598.000000	63.543772 
4597.000000	63.558053 
4596.000000	63.560724 
4595.000000	63.551950 
4594.000000	63.533020 
4593.000000	63.505935 
4592.000000	63.472914 
4591.000000	63.435530 
4590.000000	63.394904 
4589.000000	63.351511 
4588.000000	63.305902 
4587.000000	63.259077 
4586.000000	63.213133 
4585.000000	63.171267 
4584.000000	63.137388 
4583.000000	63.115739 
4582.000000	63.109493 
4581.000000	63.120388 
4580.000000	63.147997 
4579.000000	63.189578 
4578.000000	63.240551 
4577.000000	63.295173 
4576.000000	63.347697 
4575.000000	63.393235 
4574.000000	63.428759 
4573.000000	63.453006 
4572.000000	63.466930 
4571.000000	63.473510 
4570.000000	63.476729 
4569.000000	63.480925 
4568.000000	63.489484 
4567.000000	63.504791 
4566.000000	63.526916 
4565.000000	63.554120 
4564.000000	63.582825 
4563.000000	63.608694 
4562.000000	63.627481 
4561.000000	63.636040 
4560.000000	63.633465 
4559.000000	63.621282 
4558.000000	63.603448 
4557.000000	63.585710 
4556.000000	63.574051 
4555.000000	63.573026 
4554.000000	63.584971 
4553.000000	63.609313 
4552.000000	63.642215 
4551.000000	63.677358 
4550.000000	63.707470 
4549.000000	63.725781 
4548.000000	63.727140 
4547.000000	63.708925 
4546.000000	63.671493 
4545.000000	63.617634 
4544.000000	63.552331 
4543.000000	63.481473 
4542.000000	63.410735 
4541.000000	63.344407 
4540.000000	63.285708 
4539.000000	63.235807 
4538.000000	63.194561 
4537.000000	63.160896 
4536.000000	63.133287 
4535.000000	63.110899 
4534.000000	63.092899 
4533.000000	63.079929 
4532.000000	63.073062 
4531.000000	63.074517 
4530.000000	63.085770 
4529.000000	63.108539 
4528.000000	63.143229 
4527.000000	63.189625 
4526.000000	63.246226 
4525.000000	63.310694 
4524.000000	63.379979 
4523.000000	63.450694 
4522.000000	63.519215 
4521.000000	63.581848 
4520.000000	63.634777 
4519.000000	63.674688 
4518.000000	63.698554 
4517.000000	63.704681 
4516.000000	63.692474 
4515.000000	63.663601 
4514.000000	63.621354 
4513.000000	63.570880 
4512.000000	63.517880 
4511.000000	63.468551 
4510.000000	63.427758 
4509.000000	63.398170 
4508.000000	63.379931 
4507.000000	63.371181 
4506.000000	63.368725 
4505.000000	63.369035 
4504.000000	63.369464 
4503.000000	63.368678 
4502.000000	63.367104 
4501.000000	63.366389 
4500.000000	63.368511 
4499.000000	63.374614 
4498.000000	63.384723 
4497.000000	63.397598 
4496.000000	63.411092 
4495.000000	63.422775 
4494.000000	63.431167 
4493.000000	63.435935 
4492.000000	63.438177 
4491.000000	63.439536 
4490.000000	63.441300 
4489.000000	63.443827 
4488.000000	63.445591 
4487.000000	63.444089 
4486.000000	63.436627 
4485.000000	63.421607 
4484.000000	63.399410 
4483.000000	63.372421 
4482.000000	63.344812 
4481.000000	63.321161 
4480.000000	63.305139 
4479.000000	63.298177 
4478.000000	63.299036 
4477.000000	63.303971 
4476.000000	63.308024 
4475.000000	63.306117 
4474.000000	63.294529 
4473.000000	63.272190 
4472.000000	63.241004 
4471.000000	63.205599 
4470.000000	63.172030 
4469.000000	63.146662 
4468.000000	63.134527 
4467.000000	63.138580 
4466.000000	63.158726 
4465.000000	63.192510 
4464.000000	63.235330 
4463.000000	63.281869 
4462.000000	63.326549 
4461.000000	63.364410 
4460.000000	63.391566 
4459.000000	63.405442 
4458.000000	63.404631 
4457.000000	63.388872 
4456.000000	63.359022 
4455.000000	63.317203 
4454.000000	63.266682 
4453.000000	63.211774 
4452.000000	63.157486 
4451.000000	63.109111 
4450.000000	63.071584 
4449.000000	63.048863 
4448.000000	63.043546 
4447.000000	63.056540 
4446.000000	63.086938 
4445.000000	63.131809 
4444.000000	63.187098 
4443.000000	63.248109 
4442.000000	63.309741 
4441.000000	63.367199 
4440.000000	63.415884 
4439.000000	63.451957 
4438.000000	63.472890 
4437.000000	63.477635 
4436.000000	63.466787 
4435.000000	63.442039 
4434.000000	63.406848 
4433.000000	63.364648 
4432.000000	63.318181 
4431.000000	63.269329 
4430.000000	63.218665 
4429.000000	63.166761 
4428.000000	63.115167 
4427.000000	63.066649 
4426.000000	63.026213 
4425.000000	62.998342 
4424.000000	62.985801 
4423.000000	62.987875 
4422.000000	62.999725 
4421.000000	63.013482 
4420.000000	63.019537 
4419.000000	63.010621 
4418.000000	62.983894 
4417.000000	62.940549 
4416.000000	62.885475 
4415.000000	62.826442 
4414.000000	62.772154 
4413.000000	62.733173 
4412.000000	62.719011 
4411.000000	62.734341 
4410.000000	62.778043 
4409.000000	62.843036 
4408.000000	62.918162 
4407.000000	62.990736 
4406.000000	63.049960 
4405.000000	63.088679 
4404.000000	63.106155 
4403.000000	63.105750 
4402.000000	63.095808 
4401.000000	63.090896 
4400.000000	63.103008 
4399.000000	63.137674 
4398.000000	63.191866 
4397.000000	63.249778 
4396.000000	63.296222 
4395.000000	63.319969 
4394.000000	63.325691 
4393.000000	63.334965 
4392.000000	63.381838 
4391.000000	63.504409 
4390.000000	63.718390 
4389.000000	64.007759 
4388.000000	64.315199 
4387.000000	64.555525 
4386.000000	64.637231 
4385.000000	64.493274 
4384.000000	64.109802 
4383.000000	63.535070 
4382.000000	62.880897 
4381.000000	62.285161 
4380.000000	61.882948 
4379.000000	61.753439 
4378.000000	61.891651 
4377.000000	62.206816 
4376.000000	62.537145 
4375.000000	62.710809 
4374.000000	62.593817 
4373.000000	62.143445 
4372.000000	61.424851 
4371.000000	60.600352 
4370.000000	59.881067 
4369.000000	59.470844 
4368.000000	59.499454 
4367.000000	59.995150 
4366.000000	60.873699 
4365.000000	61.966109 
4364.000000	63.066339 
4363.000000	63.983178 
4362.000000	64.588546 
4361.000000	64.837360 
4360.000000	64.769816 
4359.000000	64.483451 
4358.000000	64.100432 
4357.000000	63.728642 
4356.000000	63.436889 
4355.000000	63.251018 
4354.000000	63.153457 
4353.000000	63.115596 
4352.000000	63.101696 
4351.000000	63.090801 
4350.000000	63.076496 
4349.000000	63.064908 
4348.000000	63.070726 
4347.000000	63.100528 
4346.000000	63.156080 
4345.000000	63.228511 
4344.000000	63.302779 
4343.000000	63.362717 
4342.000000	63.393712 
4341.000000	63.388586 
4340.000000	63.346195 
4339.000000	63.271784 
4338.000000	63.174033 
4337.000000	63.062500 
4336.000000	62.945485 
4335.000000	62.829089 
4334.000000	62.718653 
4333.000000	62.619328 
4332.000000	62.540364 
4331.000000	62.493944 
4330.000000	62.487959 
4329.000000	62.525773 
4328.000000	62.604880 
4327.000000	62.717795 
4326.000000	62.852287 
4325.000000	62.994980 
4324.000000	63.131570 
4323.000000	63.251781 
4322.000000	63.350820 
4321.000000	63.430118 
4320.000000	63.495182 
4319.000000	63.553452 
4318.000000	63.611626 
4317.000000	63.672661 
4316.000000	63.735628 
4315.000000	63.794875 
4314.000000	63.843345 
4313.000000	63.872671 
4312.000000	63.876962 
4311.000000	63.852787 
4310.000000	63.801074 
4309.000000	63.725781 
4308.000000	63.633561 
4307.000000	63.532471 
4306.000000	63.430809 
4305.000000	63.335633 
4304.000000	63.252115 
4303.000000	63.183879 
4302.000000	63.133096 
4301.000000	63.100504 
4300.000000	63.086152 
4299.000000	63.088726 
4298.000000	63.106608 
4297.000000	63.137340 
4296.000000	63.178467 
4295.000000	63.226246 
4294.000000	63.276791 
4293.000000	63.326430 
4292.000000	63.371348 
4291.000000	63.407230 
4290.000000	63.430047 
4289.000000	63.436579 
4288.000000	63.424849 
4287.000000	63.394546 
4286.000000	63.348078 
4285.000000	63.290834 
4284.000000	63.230895 
4283.000000	63.177990 
4282.000000	63.141536 
4281.000000	63.128805 
4280.000000	63.143086 
4279.000000	63.182640 
4278.000000	63.240694 
4277.000000	63.306665 
4276.000000	63.368344 
4275.000000	63.414621 
4274.000000	63.437342 
4273.000000	63.433289 
4272.000000	63.404440 
4271.000000	63.357329 
4270.000000	63.300752 
4269.000000	63.243746 
4268.000000	63.194131 
4267.000000	63.156175 
4266.000000	63.130879 
4265.000000	63.115644 
4264.000000	63.106417 
4263.000000	63.098311 
4262.000000	63.087368 
4261.000000	63.071489 
4260.000000	63.050436 
4259.000000	63.026571 
4258.000000	63.003611 
4257.000000	62.986350 
4256.000000	62.978911 
4255.000000	62.984228 
4254.000000	63.002991 
4253.000000	63.033485 
4252.000000	63.071560 
4251.000000	63.111186 
4250.000000	63.145470 
4249.000000	63.167929 
4248.000000	63.173818 
4247.000000	63.161134 
4246.000000	63.131451 
4245.000000	63.089251 
4244.000000	63.041567 
4243.000000	62.997007 
4242.000000	62.963747 
4241.000000	62.948155 
4240.000000	62.953782 
4239.000000	62.980675 
4238.000000	63.025832 
4237.000000	63.083648 
4236.000000	63.147425 
4235.000000	63.210415 
4234.000000	63.267040 
4233.000000	63.313388 
4232.000000	63.347554 
4231.000000	63.369512 
4230.000000	63.380479 
4229.000000	63.382244 
4228.000000	63.376498 
4227.000000	63.364720 
4226.000000	63.348078 
4225.000000	63.327503 
4224.000000	63.303542 
4223.000000	63.276505 
4222.000000	63.246822 
4221.000000	63.215303 
4220.000000	63.183069 
4219.000000	63.151550 
4218.000000	63.122224 
4217.000000	63.096261 
4216.000000	63.074851 
4215.000000	63.058352 
4214.000000	63.046288 
4213.000000	63.036966 
4212.000000	63.027691 
4211.000000	63.015103 
4210.000000	62.996506 
4209.000000	62.969589 
4208.000000	62.932753 
4207.000000	62.886190 
4206.000000	62.831950 
4205.000000	62.773609 
4204.000000	62.715601 
4203.000000	62.662792 
4202.000000	62.619137 
4201.000000	62.588453 
4200.000000	62.573814 
4199.000000	62.577009 
4198.000000	62.598180 
4197.000000	62.635850 
4196.000000	62.686347 
4195.000000	62.744259 
4194.000000	62.802410 
4193.000000	62.852144 
4192.000000	62.884926 
4191.000000	62.892985 
4190.000000	62.871932 
4189.000000	62.821006 
4188.000000	62.745380 
4187.000000	62.654638 
4186.000000	62.563657 
4185.000000	62.489724 
4184.000000	62.450599 
4183.000000	62.460923 
4182.000000	62.528800 
4181.000000	62.654209 
4180.000000	62.826919 
4179.000000	63.028836 
4178.000000	63.234734 
4177.000000	63.416957 
4176.000000	63.550376 
4175.000000	63.617086 
4174.000000	63.610601 
4173.000000	63.536787 
4172.000000	63.413691 
4171.000000	63.267207 
4170.000000	63.125777 
4169.000000	63.013958 
4168.000000	62.948274 
4167.000000	62.933492 
4166.000000	62.963533 
4165.000000	63.022756 
4164.000000	63.091373 
4163.000000	63.149547 
4162.000000	63.181495 
4161.000000	63.179087 
4160.000000	63.140869 
4159.000000	63.073468 
4158.000000	62.987613 
4157.000000	62.897372 
4156.000000	62.815642 
4155.000000	62.753415 
4154.000000	62.717938 
4153.000000	62.712097 
4152.000000	62.735152 
4151.000000	62.782526 
4150.000000	62.847614 
4149.000000	62.921643 
4148.000000	62.994980 
4147.000000	63.058805 
4146.000000	63.106417 
4145.000000	63.133621 
4144.000000	63.139128 
4143.000000	63.125610 
4142.000000	63.098454 
4141.000000	63.065171 
4140.000000	63.033223 
4139.000000	63.008451 
4138.000000	62.993645 
4137.000000	62.989020 
4136.000000	62.991857 
4135.000000	62.997746 
4134.000000	63.001585 
4133.000000	62.999558 
4132.000000	62.989807 
4131.000000	62.972760 
4130.000000	62.950658 
4129.000000	62.926697 
4128.000000	62.903690 
4127.000000	62.882971 
4126.000000	62.864279 
4125.000000	62.846088 
4124.000000	62.826037 
4123.000000	62.801718 
4122.000000	62.771606 
4121.000000	62.735891 
4120.000000	62.696480 
4119.000000	62.656760 
4118.000000	62.620425 
4117.000000	62.590670 
4116.000000	62.569808 
4115.000000	62.558913 
4114.000000	62.557268 
4113.000000	62.562990 
4112.000000	62.573194 
4111.000000	62.585163 
4110.000000	62.596035 
4109.000000	62.604260 
4108.000000	62.608742 
4107.000000	62.610077 
4106.000000	62.609863 
4105.000000	62.610936 
4104.000000	62.616419 
4103.000000	62.629461 
4102.000000	62.652754 
4101.000000	62.687253 
4100.000000	62.732124 
4099.000000	62.783908 
4098.000000	62.837481 
4097.000000	62.885856 
4096.000000	62.921595 
4095.000000	62.938070 
4094.000000	62.931108 
4093.000000	62.899780 
4092.000000	62.846827 
4091.000000	62.778544 
4090.000000	62.703347 
4089.000000	62.630152 
4088.000000	62.566876 
4087.000000	62.518858 
4086.000000	62.488508 
4085.000000	62.475442 
4084.000000	62.477302 
4083.000000	62.490653 
4082.000000	62.512636 
4081.000000	62.540912 
4080.000000	62.574815 
4079.000000	62.613725 
4078.000000	62.657666 
4077.000000	62.706041 
4076.000000	62.757802 
4075.000000	62.810683 
4074.000000	62.861800 
4073.000000	62.908196 
4072.000000	62.947106 
4071.000000	62.976670 
4070.000000	62.995648 
4069.000000	63.003826 
4068.000000	63.001370 
4067.000000	62.988877 
4066.000000	62.967324 
4065.000000	62.938308 
4064.000000	62.903952 
4063.000000	62.866830 
4062.000000	62.829780 
4061.000000	62.795472 
4060.000000	62.766313 
4059.000000	62.743830 
4058.000000	62.728452 
4057.000000	62.719583 
4056.000000	62.715768 
4055.000000	62.715148 
4054.000000	62.715554 
4053.000000	62.715315 
4052.000000	62.713003 
4051.000000	62.708258 
4050.000000	62.701439 
4049.000000	62.693786 
4048.000000	62.686657 
4047.000000	62.681174 
4046.000000	62.678146 
4045.000000	62.677288 
4044.000000	62.677168 
4043.000000	62.675380 
4042.000000	62.669396 
4041.000000	62.656760 
4040.000000	62.635850 
4039.000000	62.606930 
4038.000000	62.572312 
4037.000000	62.536144 
4036.000000	62.503671 
4035.000000	62.480020 
4034.000000	62.469005 
4033.000000	62.472271 
4032.000000	62.488603 
4031.000000	62.514138 
4030.000000	62.543296 
4029.000000	62.570166 
4028.000000	62.590122 
4027.000000	62.600469 
4026.000000	62.601375 
4025.000000	62.595534 
4024.000000	62.587356 
4023.000000	62.581253 
4022.000000	62.580442 
4021.000000	62.586259 
4020.000000	62.597155 
4019.000000	62.609434 
4018.000000	62.617969 
4017.000000	62.617874 
4016.000000	62.605547 
4015.000000	62.579679 
4014.000000	62.541651 
4013.000000	62.495207 
4012.000000	62.445950 
4011.000000	62.399864 
4010.000000	62.362384 
4009.000000	62.337374 
4008.000000	62.326812 
4007.000000	62.330532 
4006.000000	62.346744 
4005.000000	62.372374 
4004.000000	62.403774 
4003.000000	62.437558 
4002.000000	62.470555 
4001.000000	62.500739 
4000.000000	62.526893 
3999.000000	62.549090 
3998.000000	62.567806 
3997.000000	62.584328 
3996.000000	62.600088 
3995.000000	62.616467 
3994.000000	62.634396 
3993.000000	62.653970 
3992.000000	62.674975 
3991.000000	62.696385 
3990.000000	62.716937 
3989.000000	62.735033 
3988.000000	62.749171 
3987.000000	62.757849 
3986.000000	62.760043 
3985.000000	62.754917 
3984.000000	62.742209 
3983.000000	62.722110 
3982.000000	62.695431 
3981.000000	62.663602 
3980.000000	62.628531 
3979.000000	62.592792 
3978.000000	62.559175 
3977.000000	62.530612 
3976.000000	62.509417 
3975.000000	62.497091 
3974.000000	62.493991 
3973.000000	62.499117 
3972.000000	62.510347 
3971.000000	62.524366 
3970.000000	62.537741 
3969.000000	62.547016 
3968.000000	62.549638 
3967.000000	62.543964 
3966.000000	62.529706 
3965.000000	62.507629 
3964.000000	62.479519 
3963.000000	62.447690 
3962.000000	62.414741 
3961.000000	62.383246 
3960.000000	62.355422 
3959.000000	62.333178 
3958.000000	62.317681 
3957.000000	62.309336 
3956.000000	62.307715 
3955.000000	62.311577 
3954.000000	62.319016 
3953.000000	62.327933 
3952.000000	62.336158 
3951.000000	62.342095 
3950.000000	62.345051 
3949.000000	62.345719 
3948.000000	62.345647 
3947.000000	62.347173 
3946.000000	62.352800 
3945.000000	62.364602 
3944.000000	62.383580 
3943.000000	62.409377 
3942.000000	62.440419 
3941.000000	62.473988 
3940.000000	62.506914 
3939.000000	62.536191 
3938.000000	62.559652 
3937.000000	62.576317 
3936.000000	62.586379 
3935.000000	62.591457 
3934.000000	62.593984 
3933.000000	62.596797 
3932.000000	62.602710 
3931.000000	62.613439 
3930.000000	62.629270 
3929.000000	62.648916 
3928.000000	62.669801 
3927.000000	62.688016 
3926.000000	62.698864 
3925.000000	62.698030 
3924.000000	62.682271 
3923.000000	62.650012 
3922.000000	62.601566 
3921.000000	62.539458 
3920.000000	62.468099 
3919.000000	62.392711 
3918.000000	62.318682 
3917.000000	62.250924 
3916.000000	62.192893 
3915.000000	62.146592 
3914.000000	62.112259 
3913.000000	62.088894 
3912.000000	62.074542 
3911.000000	62.066721 
3910.000000	62.063193 
3909.000000	62.061786 
3908.000000	62.061357 
3907.000000	62.061476 
3906.000000	62.062549 
3905.000000	62.065243 
3904.000000	62.070727 
3903.000000	62.080240 
3902.000000	62.094831 
3901.000000	62.114977 
3900.000000	62.140727 
3899.000000	62.171411 
3898.000000	62.205910 
3897.000000	62.242627 
3896.000000	62.279677 
3895.000000	62.315297 
3894.000000	62.347960 
3893.000000	62.376523 
3892.000000	62.400150 
3891.000000	62.418460 
3890.000000	62.431859 
3889.000000	62.441325 
3888.000000	62.448382 
3887.000000	62.454628 
3886.000000	62.462282 
3885.000000	62.472701 
3884.000000	62.486910 
3883.000000	62.504315 
3882.000000	62.523555 
3881.000000	62.541747 
3880.000000	62.555456 
3879.000000	62.561011 
3878.000000	62.555575 
3877.000000	62.537527 
3876.000000	62.506961 
3875.000000	62.465667 
3874.000000	62.417078 
3873.000000	62.365460 
3872.000000	62.315487 
3871.000000	62.271308 
3870.000000	62.236309 
3869.000000	62.213039 
3868.000000	62.202954 
3867.000000	62.206411 
3866.000000	62.222671 
3865.000000	62.249994 
3864.000000	62.285470 
3863.000000	62.324929 
3862.000000	62.363266 
3861.000000	62.394905 
3860.000000	62.414717 
3859.000000	62.418532 
3858.000000	62.404346 
3857.000000	62.372684 
3856.000000	62.326955 
3855.000000	62.272882 
3854.000000	62.217450 
3853.000000	62.167906 
3852.000000	62.130260 
3851.000000	62.108230 
3850.000000	62.102794 
3849.000000	62.112379 
3848.000000	62.133264 
3847.000000	62.160587 
3846.000000	62.189388 
3845.000000	62.215781 
3844.000000	62.237191 
3843.000000	62.252807 
3842.000000	62.263059 
3841.000000	62.269330 
3840.000000	62.273359 
3839.000000	62.276530 
3838.000000	62.279653 
3837.000000	62.282419 
3836.000000	62.284255 
3835.000000	62.284255 
3834.000000	62.281656 
3833.000000	62.276220 
3832.000000	62.268424 
3831.000000	62.259364 
3830.000000	62.250590 
3829.000000	62.243676 
3828.000000	62.239789 
3827.000000	62.239265 
3826.000000	62.241673 
3825.000000	62.245631 
3824.000000	62.249398 
3823.000000	62.250995 
3822.000000	62.248587 
3821.000000	62.241125 
3820.000000	62.228584 
3819.000000	62.212109 
3818.000000	62.193679 
3817.000000	62.175750 
3816.000000	62.160706 
3815.000000	62.150454 
3814.000000	62.146091 
3813.000000	62.147378 
3812.000000	62.153244 
3811.000000	62.161803 
3810.000000	62.171053 
3809.000000	62.179064 
3808.000000	62.184596 
3807.000000	62.186932 
3806.000000	62.186217 
3805.000000	62.182760 
3804.000000	62.177252 
3803.000000	62.170171 
3802.000000	62.162017 
3801.000000	62.153172 
3800.000000	62.144136 
3799.000000	62.135648 
3798.000000	62.128472 
3797.000000	62.123656 
3796.000000	62.121653 
3795.000000	62.122058 
3794.000000	62.123417 
3793.000000	62.123417 
3792.000000	62.119293 
3791.000000	62.108540 
3790.000000	62.089562 
3789.000000	62.062478 
3788.000000	62.029099 
3787.000000	61.992788 
3786.000000	61.957812 
3785.000000	61.928391 
3784.000000	61.907672 
3783.000000	61.897349 
3782.000000	61.896896 
3781.000000	61.904358 
3780.000000	61.916399 
3779.000000	61.929702 
3778.000000	61.941289 
3777.000000	61.949658 
3776.000000	61.954617 
3775.000000	61.957621 
3774.000000	61.960625 
3773.000000	61.966061 
3772.000000	61.975979 
3771.000000	61.991524 
3770.000000	62.012624 
3769.000000	62.038064 
3768.000000	62.065601 
3767.000000	62.092518 
3766.000000	62.116026 
3765.000000	62.133836 
3764.000000	62.144422 
3763.000000	62.147402 
3762.000000	62.143301 
3761.000000	62.133312 
3760.000000	62.118911 
3759.000000	62.101960 
3758.000000	62.084150 
3757.000000	62.067031 
3756.000000	62.051630 
3755.000000	62.039041 
3754.000000	62.030005 
3753.000000	62.024998 
3752.000000	62.024092 
3751.000000	62.027001 
3750.000000	62.032771 
3749.000000	62.040185 
3748.000000	62.047457 
3747.000000	62.052583 
3746.000000	62.053370 
3745.000000	62.048006 
3744.000000	62.035250 
3743.000000	62.014603 
3742.000000	61.986660 
3741.000000	61.953043 
3740.000000	61.916375 
3739.000000	61.880040 
3738.000000	61.847925 
3737.000000	61.824035 
3736.000000	61.811733 
3735.000000	61.813497 
3734.000000	61.830377 
3733.000000	61.861705 
3732.000000	61.904859 
3731.000000	61.955714 
3730.000000	62.008929 
3729.000000	62.058854 
3728.000000	62.100100 
3727.000000	62.128686 
3726.000000	62.142133 
3725.000000	62.140250 
3724.000000	62.124752 
3723.000000	62.099075 
3722.000000	62.067699 
3721.000000	62.035274 
3720.000000	62.005925 
3719.000000	61.982583 
3718.000000	61.966824 
3717.000000	61.958765 
3716.000000	61.957287 
3715.000000	61.960506 
3714.000000	61.966228 
3713.000000	61.972570 
3712.000000	61.978006 
3711.000000	61.981487 
3710.000000	61.982488 
3709.000000	61.980795 
3708.000000	61.976432 
3707.000000	61.969709 
3706.000000	61.961126 
3705.000000	61.951375 
3704.000000	61.941313 
3703.000000	61.932063 
3702.000000	61.924672 
3701.000000	61.920118 
3700.000000	61.918687 
3699.000000	61.920475 
3698.000000	61.924672 
3697.000000	61.929869 
3696.000000	61.934137 
3695.000000	61.935377 
3694.000000	61.931657 
3693.000000	61.921596 
3692.000000	61.904716 
3691.000000	61.881399 
3690.000000	61.853265 
3689.000000	61.822676 
3688.000000	61.792564 
3687.000000	61.765646 
3686.000000	61.744165 
3685.000000	61.729550 
3684.000000	61.722016 
3683.000000	61.720538 
3682.000000	61.723208 
3681.000000	61.727571 
3680.000000	61.731171 
3679.000000	61.732029 
3678.000000	61.728858 
3677.000000	61.721110 
3676.000000	61.708998 
3675.000000	61.693215 
3674.000000	61.674737 
3673.000000	61.654782 
3672.000000	61.634707 
3671.000000	61.615920 
3670.000000	61.599898 
3669.000000	61.587905 
3668.000000	61.581206 
3667.000000	61.580514 
3666.000000	61.585664 
3665.000000	61.595654 
3664.000000	61.608576 
3663.000000	61.622190 
3662.000000	61.634182 
3661.000000	61.642789 
3660.000000	61.647272 
3659.000000	61.648321 
3658.000000	61.647748 
3657.000000	61.647891 
3656.000000	61.650896 
3655.000000	61.658310 
3654.000000	61.670446 
3653.000000	61.686277 
3652.000000	61.703872 
3651.000000	61.720967 
3650.000000	61.735367 
3649.000000	61.745452 
3648.000000	61.750316 
3647.000000	61.750054 
3646.000000	61.745142 
3645.000000	61.736226 
3644.000000	61.723732 
3643.000000	61.707925 
3642.000000	61.689066 
3641.000000	61.667680 
3640.000000	61.644744 
3639.000000	61.622071 
3638.000000	61.602020 
3637.000000	61.587285 
3636.000000	61.580371 
3635.000000	61.582899 
3634.000000	61.595153 
3633.000000	61.615991 
3632.000000	61.642765 
3631.000000	61.671876 
3630.000000	61.699318 
3629.000000	61.721611 
3628.000000	61.736249 
3627.000000	61.742162 
3626.000000	61.739945 
3625.000000	61.731648 
3624.000000	61.720323 
3623.000000	61.709403 
3622.000000	61.702179 
3621.000000	61.700797 
3620.000000	61.706328 
3619.000000	61.718082 
3618.000000	61.734056 
3617.000000	61.751103 
3616.000000	61.765646 
3615.000000	61.774444 
3614.000000	61.775326 
3613.000000	61.767768 
3612.000000	61.752820 
3611.000000	61.733150 
3610.000000	61.712241 
3609.000000	61.693668 
3608.000000	61.680173 
3607.000000	61.673092 
3606.000000	61.671948 
3605.000000	61.674761 
3604.000000	61.678671 
3603.000000	61.680674 
3602.000000	61.678743 
3601.000000	61.672091 
3600.000000	61.661481 
3599.000000	61.649084 
3598.000000	61.637854 
3597.000000	61.630511 
3596.000000	61.628866 
3595.000000	61.633419 
3594.000000	61.643195 
3593.000000	61.656069 
3592.000000	61.669278 
3591.000000	61.680388 
3590.000000	61.687421 
3589.000000	61.689496 
3588.000000	61.686611 
3587.000000	61.679267 
3586.000000	61.668157 
3585.000000	61.653876 
3584.000000	61.636972 
3583.000000	61.617851 
3582.000000	61.597132 
3581.000000	61.575841 
3580.000000	61.554956 
3579.000000	61.535358 
3578.000000	61.517691 
3577.000000	61.502218 
3576.000000	61.488723 
3575.000000	61.476659 
3574.000000	61.465430 
3573.000000	61.454939 
3572.000000	61.445498 
3571.000000	61.437988 
3570.000000	61.433529 
3569.000000	61.432862 
3568.000000	61.435842 
3567.000000	61.441087 
3566.000000	61.446094 
3565.000000	61.447715 
3564.000000	61.443018 
3563.000000	61.430048 
3562.000000	61.408591 
3561.000000	61.380147 
3560.000000	61.347818 
3559.000000	61.315822 
3558.000000	61.288142 
3557.000000	61.268448 
3556.000000	61.259245 
3555.000000	61.261606 
3554.000000	61.275172 
3553.000000	61.298155 
3552.000000	61.327743 
3551.000000	61.360406 
3550.000000	61.392498 
3549.000000	61.420345 
3548.000000	61.440992 
3547.000000	61.452603 
3546.000000	61.454963 
3545.000000	61.449337 
3544.000000	61.438274 
3543.000000	61.425566 
3542.000000	61.414504 
3541.000000	61.407613 
3540.000000	61.405324 
3539.000000	61.406302 
3538.000000	61.407685 
3537.000000	61.406207 
3536.000000	61.398935 
3535.000000	61.384582 
3534.000000	61.363482 
3533.000000	61.337542 
3532.000000	61.309576 
3531.000000	61.282491 
3530.000000	61.258339 
3529.000000	61.237955 
3528.000000	61.221075 
3527.000000	61.206626 
3526.000000	61.193513 
3525.000000	61.181044 
3524.000000	61.169362 
3523.000000	61.159491 
3522.000000	61.152791 
3521.000000	61.150598 
3520.000000	61.153388 
3519.000000	61.160683 
3518.000000	61.171221 
3517.000000	61.183071 
3516.000000	61.194205 
3515.000000	61.202740 
3514.000000	61.207032 
3513.000000	61.205720 
3512.000000	61.198019 
3511.000000	61.183595 
3510.000000	61.162853 
3509.000000	61.137080 
3508.000000	61.108398 
3507.000000	61.079621 
3506.000000	61.053872 
3505.000000	61.033964 
3504.000000	61.021709 
3503.000000	61.017727 
3502.000000	61.021304 
3501.000000	61.030578 
3500.000000	61.042833 
3499.000000	61.055231 
3498.000000	61.065292 
3497.000000	61.071586 
3496.000000	61.073994 
3495.000000	61.073446 
3494.000000	61.071538 
3493.000000	61.070203 
3492.000000	61.071252 
3491.000000	61.076140 
3490.000000	61.085653 
3489.000000	61.100077 
3488.000000	61.118626 
3487.000000	61.140012 
3486.000000	61.161994 
3485.000000	61.181950 
3484.000000	61.197042 
3483.000000	61.205029 
3482.000000	61.204218 
3481.000000	61.194014 
3480.000000	61.174535 
3479.000000	61.146521 
3478.000000	61.111140 
3477.000000	61.069893 
3476.000000	61.024832 
3475.000000	60.978555 
3474.000000	60.934448 
3473.000000	60.896515 
3472.000000	60.868763 
3471.000000	60.854625 
3470.000000	60.856151 
3469.000000	60.873270 
3468.000000	60.903596 
3467.000000	60.942816 
3466.000000	60.984992 
3465.000000	61.023807 
3464.000000	61.053943 
3463.000000	61.071991 
3462.000000	61.077022 
3461.000000	61.070322 
3460.000000	61.054730 
3459.000000	61.033940 
3458.000000	61.011314 
3457.000000	60.989332 
3456.000000	60.969614 
3455.000000	60.952639 
3454.000000	60.938501 
3453.000000	60.926651 
3452.000000	60.916566 
3451.000000	60.907721 
3450.000000	60.899639 
3449.000000	60.892367 
3448.000000	60.886192 
3447.000000	60.881686 
3446.000000	60.879516 
3445.000000	60.880088 
3444.000000	60.883045 
3443.000000	60.887336 
3442.000000	60.891270 
3441.000000	60.892581 
3440.000000	60.889005 
3439.000000	60.879182 
3438.000000	60.862898 
3437.000000	60.841536 
3436.000000	60.817766 
3435.000000	60.795116 
3434.000000	60.776877 
3433.000000	60.765314 
3432.000000	60.760974 
3431.000000	60.762286 
3430.000000	60.766506 
3429.000000	60.770368 
3428.000000	60.771250 
3427.000000	60.767889 
3426.000000	60.760498 
3425.000000	60.750365 
3424.000000	60.739278 
3423.000000	60.728669 
3422.000000	60.719275 
3421.000000	60.710883 
3420.000000	60.702848 
3419.000000	60.694456 
3418.000000	60.685634 
3417.000000	60.677170 
3416.000000	60.670948 
3415.000000	60.669231 
3414.000000	60.674023 
3413.000000	60.686421 
3412.000000	60.705995 
3411.000000	60.730695 
3410.000000	60.757470 
3409.000000	60.782504 
3408.000000	60.802483 
3407.000000	60.814952 
3406.000000	60.818409 
3405.000000	60.812687 
3404.000000	60.798716 
3403.000000	60.778355 
3402.000000	60.753893 
3401.000000	60.727834 
3400.000000	60.703015 
3399.000000	60.681700 
3398.000000	60.665559 
3397.000000	60.655164 
3396.000000	60.649943 
3395.000000	60.648441 
3394.000000	60.648775 
3393.000000	60.648894 
3392.000000	60.647010 
3391.000000	60.642409 
3390.000000	60.635304 
3389.000000	60.626792 
3388.000000	60.618376 
3387.000000	60.611414 
3386.000000	60.606622 
3385.000000	60.603690 
3384.000000	60.601425 
3383.000000	60.597991 
3382.000000	60.591888 
3381.000000	60.582399 
3380.000000	60.570406 
3379.000000	60.558128 
3378.000000	60.548877 
3377.000000	60.546445 
3376.000000	60.553622 
3375.000000	60.571885 
3374.000000	60.599994 
3373.000000	60.634708 
3372.000000	60.670423 
3371.000000	60.700392 
3370.000000	60.717773 
3369.000000	60.717511 
3368.000000	60.696911 
3367.000000	60.656428 
3366.000000	60.599637 
3365.000000	60.532593 
3364.000000	60.462617 
3363.000000	60.397100 
3362.000000	60.341978 
3361.000000	60.301017 
3360.000000	60.275435 
3359.000000	60.264205 
3358.000000	60.264587 
3357.000000	60.273146 
3356.000000	60.286855 
3355.000000	60.303902 
3354.000000	60.323357 
3353.000000	60.345625 
3352.000000	60.371088 
3351.000000	60.400390 
3350.000000	60.432934 
3349.000000	60.467743 
3348.000000	60.503172 
3347.000000	60.537314 
3346.000000	60.568737 
3345.000000	60.596084 
3344.000000	60.618591 
3343.000000	60.635614 
3342.000000	60.646653 
3341.000000	60.651183 
3340.000000	60.648703 
3339.000000	60.638880 
3338.000000	60.621905 
3337.000000	60.598468 
3336.000000	60.569882 
3335.000000	60.537934 
3334.000000	60.504913 
3333.000000	60.472846 
3332.000000	60.443329 
3331.000000	60.417628 
3330.000000	60.396575 
3329.000000	60.380578 
3328.000000	60.369777 
3327.000000	60.364341 
3326.000000	60.364174 
3325.000000	60.368895 
3324.000000	60.377860 
3323.000000	60.389518 
3322.000000	60.401964 
3321.000000	60.413074 
3320.000000	60.420823 
3319.000000	60.423684 
3318.000000	60.421109 
3317.000000	60.413551 
3316.000000	60.402321 
3315.000000	60.389184 
3314.000000	60.375833 
3313.000000	60.363841 
3312.000000	60.354042 
3311.000000	60.346293 
3310.000000	60.340118 
3309.000000	60.334753 
3308.000000	60.329484 
3307.000000	60.323905 
3306.000000	60.317969 
3305.000000	60.311937 
3304.000000	60.306024 
3303.000000	60.300469 
3302.000000	60.295343 
3301.000000	60.290884 
3300.000000	60.287237 
3299.000000	60.284781 
3298.000000	60.283946 
3297.000000	60.285162 
3296.000000	60.288834 
3295.000000	60.295033 
3294.000000	60.303306 
3293.000000	60.312700 
3292.000000	60.321688 
3291.000000	60.328173 
3290.000000	60.329937 
3289.000000	60.324835 
3288.000000	60.311174 
3287.000000	60.288119 
3286.000000	60.256195 
3285.000000	60.217070 
3284.000000	60.173630 
3283.000000	60.129261 
3282.000000	60.087561 
3281.000000	60.051631 
3280.000000	60.023617 
3279.000000	60.004281 
3278.000000	59.992814 
3277.000000	59.987187 
3276.000000	59.984779 
3275.000000	59.983015 
3274.000000	59.980320 
3273.000000	59.975910 
3272.000000	59.970474 
3271.000000	59.965348 
3270.000000	59.962391 
3269.000000	59.963083 
3268.000000	59.968185 
3267.000000	59.977459 
3266.000000	59.989356 
3265.000000	60.001945 
3264.000000	60.012435 
3263.000000	60.018277 
3262.000000	60.017347 
3261.000000	60.008478 
3260.000000	59.991955 
3259.000000	59.969329 
3258.000000	59.943485 
3257.000000	59.917950 
3256.000000	59.896540 
3255.000000	59.882450 
3254.000000	59.877753 
3253.000000	59.882879 
3252.000000	59.896469 
3251.000000	59.915685 
3250.000000	59.936857 
3249.000000	59.956145 
3248.000000	59.970355 
3247.000000	59.977412 
3246.000000	59.976768 
3245.000000	59.969162 
3244.000000	59.956336 
3243.000000	59.940361 
3242.000000	59.923267 
3241.000000	59.906435 
3240.000000	59.890890 
3239.000000	59.877133 
3238.000000	59.865474 
3237.000000	59.855890 
3236.000000	59.848308 
3235.000000	59.842371 
3234.000000	59.837460 
3233.000000	59.832620 
3232.000000	59.826707 
3231.000000	59.818506 
3230.000000	59.806895 
3229.000000	59.791088 
3228.000000	59.771013 
3227.000000	59.747195 
3226.000000	59.720921 
3225.000000	59.693789 
3224.000000	59.667468 
3223.000000	59.643435 
3222.000000	59.622788 
3221.000000	59.605932 
3220.000000	59.592747 
3219.000000	59.582805 
3218.000000	59.575366 
3217.000000	59.569787 
3216.000000	59.565615 
3215.000000	59.562540 
3214.000000	59.560632 
3213.000000	59.559988 
3212.000000	59.560656 
3211.000000	59.562778 
3210.000000	59.566164 
3209.000000	59.570121 
3208.000000	59.573721 
3207.000000	59.575939 
3206.000000	59.575724 
3205.000000	59.572267 
3204.000000	59.565353 
3203.000000	59.555292 
3202.000000	59.542894 
3201.000000	59.529399 
3200.000000	59.516334 
3199.000000	59.505248 
3198.000000	59.497380 
3197.000000	59.493708 
3196.000000	59.494709 
3195.000000	59.500336 
3194.000000	59.509921 
3193.000000	59.522509 
3192.000000	59.536671 
3191.000000	59.551239 
3190.000000	59.564995 
3189.000000	59.577441 
3188.000000	59.588265 
3187.000000	59.598016 
3186.000000	59.607672 
3185.000000	59.618449 
3184.000000	59.631395 
3183.000000	59.646773 
3182.000000	59.664344 
3181.000000	59.682655 
3180.000000	59.699606 
3179.000000	59.712815 
3178.000000	59.720230 
3177.000000	59.720420 
3176.000000	59.713149 
3175.000000	59.699201 
3174.000000	59.680414 
3173.000000	59.659171 
3172.000000	59.637999 
3171.000000	59.619235 
3170.000000	59.604716 
3169.000000	59.595775 
3168.000000	59.592723 
3167.000000	59.595394 
3166.000000	59.602665 
3165.000000	59.612703 
3164.000000	59.622955 
3163.000000	59.630513 
3162.000000	59.632682 
3161.000000	59.626817 
3160.000000	59.611487 
3159.000000	59.586787 
3158.000000	59.554171 
3157.000000	59.516525 
3156.000000	59.477162 
3155.000000	59.439468 
3154.000000	59.405803 
3153.000000	59.377217 
3152.000000	59.353423 
3151.000000	59.333014 
3150.000000	59.314346 
3149.000000	59.296107 
3148.000000	59.277606 
3147.000000	59.259223 
3146.000000	59.242177 
3145.000000	59.228110 
3144.000000	59.218358 
3143.000000	59.213399 
3142.000000	59.212732 
3141.000000	59.214830 
3140.000000	59.217381 
3139.000000	59.217667 
3138.000000	59.213256 
3137.000000	59.202456 
3136.000000	59.184670 
3135.000000	59.160447 
3134.000000	59.131193 
3133.000000	59.099078 
3132.000000	59.066605 
3131.000000	59.036469 
3130.000000	59.010958 
3129.000000	58.991694 
3128.000000	58.979392 
3127.000000	58.973956 
3126.000000	58.974552 
3125.000000	58.980059 
3124.000000	58.989143 
3123.000000	59.001088 
3122.000000	59.015846 
3121.000000	59.034323 
3120.000000	59.057807 
3119.000000	59.087872 
3118.000000	59.125328 
3117.000000	59.169769 
3116.000000	59.219074 
3115.000000	59.269404 
3114.000000	59.315538 
3113.000000	59.351754 
3112.000000	59.372806 
3111.000000	59.375238 
3110.000000	59.358096 
3109.000000	59.323120 
3108.000000	59.274601 
3107.000000	59.218645 
3106.000000	59.162163 
3105.000000	59.111809 
3104.000000	59.072852 
3103.000000	59.048819 
3102.000000	59.040760 
3101.000000	59.047579 
3100.000000	59.066581 
3099.000000	59.093976 
3098.000000	59.125876 
3097.000000	59.158682 
3096.000000	59.189510 
3095.000000	59.216141 
3094.000000	59.236979 
3093.000000	59.250855 
3092.000000	59.256815 
3091.000000	59.254050 
3090.000000	59.242153 
3089.000000	59.221577 
3088.000000	59.193778 
3087.000000	59.161043 
3086.000000	59.126710 
3085.000000	59.094285 
3084.000000	59.067344 
3083.000000	59.047985 
3082.000000	59.037089 
3081.000000	59.033608 
3080.000000	59.034824 
3079.000000	59.037375 
3078.000000	59.037685 
3077.000000	59.033417 
3076.000000	59.023523 
3075.000000	59.008812 
3074.000000	58.991241 
3073.000000	58.973431 
3072.000000	58.958029 
3071.000000	58.946704 
3070.000000	58.939862 
3069.000000	58.936595 
3068.000000	58.934998 
3067.000000	58.932638 
3066.000000	58.927321 
3065.000000	58.917593 
3064.000000	58.903026 
3063.000000	58.884406 
3062.000000	58.863639 
3061.000000	58.843302 
3060.000000	58.825850 
3059.000000	58.813643 
3058.000000	58.808231 
3057.000000	58.810305 
3056.000000	58.819508 
3055.000000	58.834624 
3054.000000	58.853602 
3053.000000	58.874201 
3052.000000	58.893966 
3051.000000	58.910632 
3050.000000	58.922314 
3049.000000	58.927679 
3048.000000	58.926343 
3047.000000	58.918404 
3046.000000	58.904671 
3045.000000	58.886480 
3044.000000	58.865714 
3043.000000	58.844470 
3042.000000	58.825063 
3041.000000	58.809638 
3040.000000	58.799600 
3039.000000	58.795642 
3038.000000	58.797430 
3037.000000	58.803582 
3036.000000	58.811950 
3035.000000	58.820009 
3034.000000	58.825230 
3033.000000	58.825564 
3032.000000	58.819699 
3031.000000	58.807229 
3030.000000	58.788728 
3029.000000	58.765554 
3028.000000	58.739542 
3027.000000	58.712816 
3026.000000	58.687281 
3025.000000	58.664679 
3024.000000	58.646368 
3023.000000	58.632946 
3022.000000	58.624577 
3021.000000	58.620738 
3020.000000	58.620691 
3019.000000	58.623528 
3018.000000	58.627939 
3017.000000	58.632731 
3016.000000	58.636784 
3015.000000	58.639097 
3014.000000	58.638930 
3013.000000	58.635902 
3012.000000	58.629846 
3011.000000	58.620977 
3010.000000	58.609843 
3009.000000	58.597278 
3008.000000	58.584189 
3007.000000	58.571624 
3006.000000	58.560466 
3005.000000	58.551502 
3004.000000	58.545184 
3003.000000	58.541369 
3002.000000	58.539700 
3001.000000	58.539247 
3000.000000	58.539009 
2999.000000	58.537983 
2998.000000	58.535242 
2997.000000	58.530044 
2996.000000	58.522224 
2995.000000	58.512020 
2994.000000	58.500027 
2993.000000	58.487200 
2992.000000	58.474683 
2991.000000	58.463573 
2990.000000	58.454966 
2989.000000	58.449649 
2988.000000	58.448052 
2987.000000	58.450174 
2986.000000	58.455657 
2985.000000	58.463811 
2984.000000	58.473634 
2983.000000	58.483576 
2982.000000	58.492040 
2981.000000	58.497285 
2980.000000	58.497595 
2979.000000	58.491778 
2978.000000	58.479142 
2977.000000	58.459949 
2976.000000	58.435344 
2975.000000	58.407545 
2974.000000	58.379602 
2973.000000	58.354783 
2972.000000	58.335924 
2971.000000	58.324956 
2970.000000	58.322477 
2969.000000	58.327603 
2968.000000	58.337831 
2967.000000	58.349871 
2966.000000	58.360290 
2965.000000	58.366227 
2964.000000	58.365917 
2963.000000	58.358716 
2962.000000	58.345127 
2961.000000	58.326315 
2960.000000	58.303689 
2959.000000	58.278703 
2958.000000	58.252501 
2957.000000	58.226013 
2956.000000	58.200097 
2955.000000	58.176064 
2954.000000	58.155465 
2953.000000	58.139967 
2952.000000	58.130788 
2951.000000	58.128380 
2950.000000	58.131647 
2949.000000	58.137941 
2948.000000	58.143258 
2947.000000	58.143043 
2946.000000	58.133196 
2945.000000	58.110928 
2944.000000	58.076047 
2943.000000	58.030652 
2942.000000	57.979488 
2941.000000	57.928609 
2940.000000	57.884740 
2939.000000	57.853436 
2938.000000	57.838368 
2937.000000	57.840633 
2936.000000	57.858467 
2935.000000	57.887816 
2934.000000	57.923054 
2933.000000	57.958102 
2932.000000	57.987070 
2931.000000	58.005356 
2930.000000	58.010101 
2929.000000	58.000397 
2928.000000	57.977199 
2927.000000	57.942914 
2926.000000	57.901382 
2925.000000	57.856845 
2924.000000	57.813787 
2923.000000	57.776045 
2922.000000	57.746529 
2921.000000	57.726788 
2920.000000	57.717013 
2919.000000	57.716202 
2918.000000	57.722330 
2917.000000	57.732939 
2916.000000	57.745647 
2915.000000	57.758665 
2914.000000	57.770705 
2913.000000	57.781195 
2912.000000	57.789993 
2911.000000	57.797408 
2910.000000	57.803821 
2909.000000	57.809638 
2908.000000	57.815289 
2907.000000	57.821345 
2906.000000	57.828593 
2905.000000	57.837891 
2904.000000	57.849931 
2903.000000	57.864904 
2902.000000	57.882285 
2901.000000	57.900714 
2900.000000	57.918024 
2899.000000	57.931613 
2898.000000	57.938790 
2897.000000	57.937622 
2896.000000	57.927203 
2895.000000	57.908272 
2894.000000	57.882857 
2893.000000	57.854056 
2892.000000	57.825160 
2891.000000	57.799243 
2890.000000	57.778143 
2889.000000	57.762432 
2888.000000	57.751154 
2887.000000	57.742238 
2886.000000	57.733416 
2885.000000	57.722592 
2884.000000	57.708954 
2883.000000	57.692694 
2882.000000	57.675457 
2881.000000	57.659626 
2880.000000	57.647728 
2879.000000	57.641816 
2878.000000	57.642650 
2877.000000	57.649612 
2876.000000	57.660794 
2875.000000	57.673287 
2874.000000	57.684016 
2873.000000	57.690119 
2872.000000	57.689762 
2871.000000	57.682323 
2870.000000	57.668471 
2869.000000	57.649683 
2868.000000	57.628035 
2867.000000	57.605290 
2866.000000	57.582855 
2865.000000	57.561254 
2864.000000	57.540416 
2863.000000	57.519888 
2862.000000	57.499361 
2861.000000	57.479000 
2860.000000	57.459640 
2859.000000	57.442879 
2858.000000	57.430481 
2857.000000	57.424235 
2856.000000	57.425165 
2855.000000	57.433581 
2854.000000	57.448744 
2853.000000	57.469224 
2852.000000	57.493019 
2851.000000	57.517790 
2850.000000	57.541418 
2849.000000	57.562232 
2848.000000	57.579016 
2847.000000	57.591199 
2846.000000	57.598686 
2845.000000	57.601785 
2844.000000	57.601022 
2843.000000	57.597017 
2842.000000	57.590365 
2841.000000	57.581663 
2840.000000	57.571387 
2839.000000	57.559919 
2838.000000	57.547664 
2837.000000	57.534980 
2836.000000	57.522201 
2835.000000	57.509589 
2834.000000	57.497048 
2833.000000	57.484483 
2832.000000	57.471632 
2831.000000	57.458066 
2830.000000	57.443523 
2829.000000	57.427859 
2828.000000	57.411599 
2827.000000	57.396006 
2826.000000	57.382845 
2825.000000	57.374095 
2824.000000	57.371544 
2823.000000	57.376146 
2822.000000	57.387590 
2821.000000	57.404088 
2820.000000	57.422685 
2819.000000	57.439923 
2818.000000	57.452321 
2817.000000	57.457375 
2816.000000	57.453846 
2815.000000	57.442307 
2814.000000	57.424664 
2813.000000	57.403802 
2812.000000	57.382893 
2811.000000	57.364416 
2810.000000	57.349944 
2809.000000	57.339692 
2808.000000	57.332897 
2807.000000	57.327818 
2806.000000	57.322597 
2805.000000	57.315468 
2804.000000	57.305145 
2803.000000	57.291078 
2802.000000	57.273364 
2801.000000	57.252645 
2800.000000	57.229733 
2799.000000	57.205820 
2798.000000	57.181930 
2797.000000	57.159233 
2796.000000	57.138776 
2795.000000	57.121539 
2794.000000	57.108449 
2793.000000	57.100296 
2792.000000	57.097673 
2791.000000	57.100772 
2790.000000	57.109236 
2789.000000	57.122230 
2788.000000	57.138514 
2787.000000	57.156348 
2786.000000	57.173681 
2785.000000	57.188606 
2784.000000	57.199048 
2783.000000	57.203507 
2782.000000	57.200908 
2781.000000	57.190823 
2780.000000	57.173490 
2779.000000	57.150244 
2778.000000	57.123041 
2777.000000	57.094454 
2776.000000	57.067298 
2775.000000	57.044291 
2774.000000	57.027745 
2773.000000	57.019042 
2772.000000	57.018327 
2771.000000	57.024526 
2770.000000	57.035255 
2769.000000	57.047319 
2768.000000	57.057046 
2767.000000	57.061052 
2766.000000	57.056760 
2765.000000	57.043027 
2764.000000	57.020235 
2763.000000	56.990313 
2762.000000	56.956291 
2761.000000	56.921792 
2760.000000	56.890368 
2759.000000	56.864881 
2758.000000	56.847143 
2757.000000	56.837677 
2756.000000	56.835937 
2755.000000	56.840610 
2754.000000	56.850051 
2753.000000	56.862497 
2752.000000	56.876277 
2751.000000	56.889963 
2750.000000	56.902241 
2749.000000	56.911945 
2748.000000	56.917953 
2747.000000	56.919145 
2746.000000	56.914806 
2745.000000	56.904578 
2744.000000	56.888747 
2743.000000	56.868124 
2742.000000	56.843996 
2741.000000	56.818008 
2740.000000	56.791877 
2739.000000	56.767249 
2738.000000	56.745600 
2737.000000	56.727957 
2736.000000	56.715130 
2735.000000	56.707644 
2734.000000	56.705689 
2733.000000	56.709098 
2732.000000	56.717181 
2731.000000	56.728506 
2730.000000	56.741070 
2729.000000	56.752490 
2728.000000	56.760358 
2727.000000	56.762528 
2726.000000	56.757616 
2725.000000	56.745529 
2724.000000	56.727027 
2723.000000	56.703972 
2722.000000	56.678533 
2721.000000	56.652832 
2720.000000	56.628441 
2719.000000	56.606316 
2718.000000	56.586647 
2717.000000	56.568980 
2716.000000	56.552743 
2715.000000	56.537532 
2714.000000	56.523346 
2713.000000	56.510639 
2712.000000	56.500053 
2711.000000	56.492185 
2710.000000	56.487226 
2709.000000	56.484985 
2708.000000	56.484651 
2707.000000	56.485366 
2706.000000	56.486177 
2705.000000	56.486630 
2704.000000	56.486678 
2703.000000	56.487035 
2702.000000	56.488609 
2701.000000	56.492400 
2700.000000	56.499147 
2699.000000	56.508851 
2698.000000	56.520843 
2697.000000	56.533527 
2696.000000	56.544804 
2695.000000	56.552243 
2694.000000	56.553792 
2693.000000	56.547904 
2692.000000	56.534099 
2691.000000	56.512808 
2690.000000	56.485509 
2689.000000	56.454563 
2688.000000	56.422853 
2687.000000	56.393146 
2686.000000	56.367683 
2685.000000	56.347751 
2684.000000	56.333470 
2683.000000	56.323742 
2682.000000	56.316733 
2681.000000	56.310415 
2680.000000	56.303381 
2679.000000	56.294822 
2678.000000	56.285071 
2677.000000	56.275320 
2676.000000	56.267452 
2675.000000	56.262969 
2674.000000	56.263136 
2673.000000	56.268262 
2672.000000	56.277799 
2671.000000	56.290364 
2670.000000	56.304073 
2669.000000	56.317043 
2668.000000	56.327414 
2667.000000	56.333899 
2666.000000	56.335234 
2665.000000	56.330251 
2664.000000	56.317806 
2663.000000	56.296944 
2662.000000	56.267094 
2661.000000	56.228280 
2660.000000	56.181645 
2659.000000	56.129527 
2658.000000	56.074976 
2657.000000	56.021618 
2656.000000	55.972957 
2655.000000	55.931878 
2654.000000	55.900049 
2653.000000	55.877923 
2652.000000	55.864787 
2651.000000	55.859065 
2650.000000	55.858659 
2649.000000	55.861759 
2648.000000	55.866408 
2647.000000	55.871438 
2646.000000	55.875897 
2645.000000	55.879712 
2644.000000	55.882859 
2643.000000	55.885767 
2642.000000	55.889201 
2641.000000	55.894017 
2640.000000	55.901002 
2639.000000	55.910754 
2638.000000	55.923366 
2637.000000	55.938100 
2636.000000	55.953717 
2635.000000	55.968379 
2634.000000	55.980372 
2633.000000	55.988287 
2632.000000	55.991458 
2631.000000	55.990195 
2630.000000	55.985498 
2629.000000	55.978941 
2628.000000	55.972170 
2627.000000	55.966353 
2626.000000	55.961823 
2625.000000	55.958127 
2624.000000	55.954074 
2623.000000	55.947923 
2622.000000	55.938076 
2621.000000	55.923485 
2620.000000	55.903935 
2619.000000	55.880236 
2618.000000	55.853915 
2617.000000	55.826973 
2616.000000	55.801391 
2615.000000	55.778789 
2614.000000	55.760097 
2613.000000	55.745315 
2612.000000	55.733704 
2611.000000	55.724143 
2610.000000	55.715274 
2609.000000	55.705928 
2608.000000	55.695486 
2607.000000	55.684208 
2606.000000	55.672979 
2605.000000	55.663061 
2604.000000	55.655956 
2603.000000	55.652928 
2602.000000	55.654597 
2601.000000	55.660772 
2600.000000	55.670380 
2599.000000	55.681753 
2598.000000	55.692720 
2597.000000	55.701088 
2596.000000	55.705142 
2595.000000	55.703830 
2594.000000	55.696940 
2593.000000	55.685019 
2592.000000	55.669379 
2591.000000	55.651521 
2590.000000	55.633044 
2589.000000	55.615091 
2588.000000	55.598497 
2587.000000	55.583381 
2586.000000	55.569696 
2585.000000	55.557036 
2584.000000	55.544900 
2583.000000	55.533099 
2582.000000	55.521845 
2581.000000	55.511713 
2580.000000	55.503511 
2579.000000	55.498075 
2578.000000	55.496072 
2577.000000	55.497694 
2576.000000	55.502462 
2575.000000	55.509281 
2574.000000	55.516529 
2573.000000	55.522322 
2572.000000	55.524921 
2571.000000	55.522966 
2570.000000	55.515789 
2569.000000	55.503582 
2568.000000	55.487322 
2567.000000	55.468463 
2566.000000	55.448532 
2565.000000	55.429077 
2564.000000	55.411314 
2563.000000	55.395913 
2562.000000	55.383300 
2561.000000	55.373668 
2560.000000	55.367207 
2559.000000	55.364108 
2558.000000	55.364656 
2557.000000	55.368971 
2556.000000	55.376720 
2555.000000	55.387139 
2554.000000	55.398821 
2553.000000	55.409860 
2552.000000	55.418109 
2551.000000	55.421471 
2550.000000	55.418443 
2549.000000	55.408287 
2548.000000	55.391287 
2547.000000	55.368566 
2546.000000	55.341768 
2545.000000	55.312752 
2544.000000	55.283212 
2543.000000	55.254316 
2542.000000	55.226850 
2541.000000	55.201053 
2540.000000	55.176901 
2539.000000	55.154371 
2538.000000	55.133533 
2537.000000	55.114889 
2536.000000	55.098915 
2535.000000	55.086159 
2534.000000	55.076694 
2533.000000	55.070424 
2532.000000	55.066633 
2531.000000	55.064415 
2530.000000	55.062627 
2529.000000	55.060052 
2528.000000	55.055785 
2527.000000	55.049204 
2526.000000	55.040073 
2525.000000	55.028271 
2524.000000	55.013847 
2523.000000	54.997158 
2522.000000	54.978728 
2521.000000	54.959535 
2520.000000	54.940652 
2519.000000	54.923224 
2518.000000	54.908204 
2517.000000	54.896068 
2516.000000	54.886579 
2515.000000	54.878640 
2514.000000	54.870581 
2513.000000	54.860305 
2512.000000	54.846429 
2511.000000	54.828333 
2510.000000	54.807066 
2509.000000	54.785156 
2508.000000	54.766225 
2507.000000	54.754066 
2506.000000	54.751563 
2505.000000	54.760026 
2504.000000	54.778051 
2503.000000	54.801964 
2502.000000	54.825973 
2501.000000	54.843831 
2500.000000	54.849696 
2499.000000	54.839634 
2498.000000	54.812598 
2497.000000	54.770779 
2496.000000	54.719328 
2495.000000	54.665255 
2494.000000	54.616045 
2493.000000	54.578208 
2492.000000	54.555821 
2491.000000	54.549956 
2490.000000	54.558587 
2489.000000	54.576992 
2488.000000	54.599285 
2487.000000	54.619431 
2486.000000	54.632568 
2485.000000	54.636168 
2484.000000	54.629850 
2483.000000	54.615783 
2482.000000	54.597401 
2481.000000	54.578781 
2480.000000	54.563331 
2479.000000	54.553341 
2478.000000	54.549503 
2477.000000	54.551100 
2476.000000	54.556584 
2475.000000	54.564094 
2474.000000	54.572319 
2473.000000	54.580545 
2472.000000	54.588890 
2471.000000	54.597806 
2470.000000	54.607510 
2469.000000	54.617738 
2468.000000	54.627251 
2467.000000	54.633855 
2466.000000	54.634928 
2465.000000	54.627728 
2464.000000	54.610466 
2463.000000	54.582953 
2462.000000	54.546856 
2461.000000	54.505610 
2460.000000	54.463720 
2459.000000	54.426145 
2458.000000	54.397010 
2457.000000	54.379177 
2456.000000	54.373335 
2455.000000	54.377937 
2454.000000	54.389762 
2453.000000	54.404616 
2452.000000	54.418516 
2451.000000	54.428315 
2450.000000	54.432487 
2449.000000	54.430937 
2448.000000	54.425024 
2447.000000	54.416775 
2446.000000	54.408192 
2445.000000	54.400563 
2444.000000	54.394125 
2443.000000	54.388117 
2442.000000	54.381418 
2441.000000	54.373288 
2440.000000	54.363727 
2439.000000	54.353475 
2438.000000	54.344344 
2437.000000	54.338288 
2436.000000	54.337000 
2435.000000	54.340505 
2434.000000	54.347419 
2433.000000	54.354572 
2432.000000	54.357790 
2431.000000	54.353070 
2430.000000	54.337549 
2429.000000	54.310894 
2428.000000	54.275393 
2427.000000	54.236340 
2426.000000	54.200553 
2425.000000	54.175400 
2424.000000	54.166722 
2423.000000	54.177570 
2422.000000	54.207324 
2421.000000	54.251313 
2420.000000	54.301881 
2419.000000	54.349565 
2418.000000	54.385042 
2417.000000	54.400920 
2416.000000	54.392981 
2415.000000	54.360699 
2414.000000	54.307341 
2413.000000	54.239082 
2412.000000	54.163694 
2411.000000	54.088973 
2410.000000	54.021382 
2409.000000	53.965473 
2408.000000	53.923130 
2407.000000	53.894090 
2406.000000	53.876113 
2405.000000	53.866076 
2404.000000	53.860569 
2403.000000	53.856348 
2402.000000	53.851294 
2401.000000	53.843712 
2400.000000	53.833341 
2399.000000	53.820514 
2398.000000	53.806400 
2397.000000	53.792285 
2396.000000	53.779506 
2395.000000	53.769063 
2394.000000	53.761434 
2393.000000	53.756666 
2392.000000	53.754353 
2391.000000	53.754019 
2390.000000	53.755187 
2389.000000	53.757524 
2388.000000	53.761172 
2387.000000	53.766560 
2386.000000	53.774189 
2385.000000	53.784155 
2384.000000	53.796029 
2383.000000	53.808808 
2382.000000	53.820943 
2381.000000	53.830766 
2380.000000	53.836417 
2379.000000	53.836703 
2378.000000	53.831458 
2377.000000	53.821587 
2376.000000	53.808712 
2375.000000	53.794884 
2374.000000	53.782105 
2373.000000	53.771758 
2372.000000	53.764438 
2371.000000	53.759551 
2370.000000	53.755927 
2369.000000	53.751754 
2368.000000	53.745293 
2367.000000	53.735280 
2366.000000	53.721213 
2365.000000	53.703236 
2364.000000	53.682160 
2363.000000	53.659200 
2362.000000	53.635549 
2361.000000	53.612279 
2360.000000	53.590083 
2359.000000	53.569436 
2358.000000	53.550529 
2357.000000	53.533577 
2356.000000	53.518748 
2355.000000	53.506207 
2354.000000	53.495931 
2353.000000	53.487777 
2352.000000	53.481173 
2351.000000	53.475117 
2350.000000	53.468441 
2349.000000	53.459930 
2348.000000	53.448772 
2347.000000	53.434538 
2346.000000	53.417658 
2345.000000	53.399276 
2344.000000	53.381109 
2343.000000	53.365039 
2342.000000	53.352665 
2341.000000	53.344893 
2340.000000	53.341674 
2339.000000	53.342056 
2338.000000	53.344202 
2337.000000	53.345870 
2336.000000	53.344869 
2335.000000	53.339600 
2334.000000	53.329348 
2333.000000	53.314518 
2332.000000	53.296542 
2331.000000	53.277540 
2330.000000	53.259944 
2329.000000	53.245782 
2328.000000	53.236508 
2327.000000	53.232526 
2326.000000	53.233027 
2325.000000	53.236317 
2324.000000	53.240036 
2323.000000	53.241729 
2322.000000	53.239226 
2321.000000	53.231239 
2320.000000	53.217434 
2319.000000	53.198528 
2318.000000	53.176069 
2317.000000	53.152084 
2316.000000	53.128790 
2315.000000	53.108358 
2314.000000	53.092360 
2313.000000	53.081536 
2312.000000	53.076052 
2311.000000	53.075075 
2310.000000	53.077125 
2309.000000	53.080129 
2308.000000	53.081941 
2307.000000	53.080582 
2306.000000	53.074836 
2305.000000	53.064131 
2304.000000	53.048968 
2303.000000	53.030419 
2302.000000	53.010058 
2301.000000	52.989530 
2300.000000	52.970337 
2299.000000	52.953338 
2298.000000	52.939081 
2297.000000	52.927517 
2296.000000	52.918434 
2295.000000	52.911472 
2294.000000	52.906465 
2293.000000	52.903223 
2292.000000	52.901601 
2291.000000	52.901315 
2290.000000	52.901959 
2289.000000	52.902674 
2288.000000	52.902555 
2287.000000	52.900624 
2286.000000	52.896189 
2285.000000	52.888989 
2284.000000	52.879214 
2283.000000	52.867388 
2282.000000	52.854180 
2281.000000	52.840256 
2280.000000	52.826118 
2279.000000	52.811884 
2278.000000	52.797389 
2277.000000	52.782440 
2276.000000	52.766847 
2275.000000	52.750730 
2274.000000	52.734398 
2273.000000	52.718329 
2272.000000	52.702975 
2271.000000	52.688717 
2270.000000	52.675414 
2269.000000	52.662825 
2268.000000	52.650570 
2267.000000	52.638339 
2266.000000	52.626085 
2265.000000	52.614164 
2264.000000	52.603244 
2263.000000	52.594184 
2262.000000	52.587747 
2261.000000	52.584648 
2260.000000	52.585196 
2259.000000	52.589416 
2258.000000	52.596616 
2257.000000	52.605891 
2256.000000	52.616000 
2255.000000	52.625608 
2254.000000	52.633285 
2253.000000	52.637648 
2252.000000	52.637743 
2251.000000	52.632975 
2250.000000	52.623295 
2249.000000	52.609086 
2248.000000	52.591109 
2247.000000	52.570581 
2246.000000	52.548837 
2245.000000	52.527093 
2244.000000	52.506351 
2243.000000	52.487421 
2242.000000	52.470970 
2241.000000	52.457499 
2240.000000	52.447533 
2239.000000	52.441525 
2238.000000	52.439570 
2237.000000	52.441430 
2236.000000	52.446150 
2235.000000	52.452015 
2234.000000	52.456641 
2233.000000	52.457213 
2232.000000	52.451038 
2231.000000	52.436137 
2230.000000	52.411723 
2229.000000	52.378606 
2228.000000	52.339196 
2227.000000	52.297115 
2226.000000	52.256631 
2225.000000	52.221941 
2224.000000	52.196240 
2223.000000	52.181339 
2222.000000	52.177429 
2221.000000	52.183318 
2220.000000	52.196598 
2219.000000	52.214217 
2218.000000	52.233052 
2217.000000	52.250385 
2216.000000	52.263998 
2215.000000	52.272677 
2214.000000	52.275729 
2213.000000	52.273249 
2212.000000	52.266097 
2211.000000	52.255105 
2210.000000	52.241492 
2209.000000	52.226066 
2208.000000	52.209615 
2207.000000	52.192473 
2206.000000	52.174830 
2205.000000	52.156472 
2204.000000	52.137351 
2203.000000	52.117419 
2202.000000	52.097034 
2201.000000	52.076840 
2200.000000	52.057862 
2199.000000	52.041149 
2198.000000	52.027726 
2197.000000	52.018022 
2196.000000	52.012014 
2195.000000	52.008986 
2194.000000	52.007818 
2193.000000	52.007102 
2192.000000	52.005767 
2191.000000	52.003121 
2190.000000	51.999139 
2189.000000	51.994538 
2188.000000	51.990413 
2187.000000	51.988220 
2186.000000	51.988959 
2185.000000	51.993060 
2184.000000	51.999878 
2183.000000	52.007842 
2182.000000	52.014660 
2181.000000	52.017974 
2180.000000	52.015709 
2179.000000	52.006816 
2178.000000	51.991486 
2177.000000	51.971364 
2176.000000	51.948976 
2175.000000	51.927304 
2174.000000	51.908946 
2173.000000	51.895546 
2172.000000	51.887440 
2171.000000	51.883602 
2170.000000	51.882028 
2169.000000	51.880192 
2168.000000	51.876115 
2167.000000	51.868748 
2166.000000	51.858115 
2165.000000	51.845431 
2164.000000	51.832485 
2163.000000	51.821303 
2162.000000	51.813101 
2161.000000	51.808285 
2160.000000	51.806306 
2159.000000	51.806068 
2158.000000	51.805925 
2157.000000	51.804614 
2156.000000	51.801633 
2155.000000	51.797318 
2154.000000	51.792526 
2153.000000	51.788401 
2152.000000	51.785874 
2151.000000	51.785326 
2150.000000	51.786160 
2149.000000	51.786947 
2148.000000	51.785874 
2147.000000	51.781082 
2146.000000	51.771020 
2145.000000	51.754784 
2144.000000	51.732230 
2143.000000	51.704049 
2142.000000	51.671528 
2141.000000	51.636457 
2140.000000	51.600909 
2139.000000	51.567053 
2138.000000	51.536560 
2137.000000	51.510906 
2136.000000	51.490545 
2135.000000	51.475167 
2134.000000	51.463532 
2133.000000	51.453542 
2132.000000	51.442718 
2131.000000	51.428556 
2130.000000	51.409482 
2129.000000	51.384806 
2128.000000	51.355409 
2127.000000	51.323342 
2126.000000	51.291656 
2125.000000	51.263642 
2124.000000	51.242232 
2123.000000	51.229238 
2122.000000	51.225042 
2121.000000	51.228594 
2120.000000	51.237821 
2119.000000	51.250076 
2118.000000	51.262640 
2117.000000	51.273226 
2116.000000	51.280283 
2115.000000	51.283025 
2114.000000	51.281023 
2113.000000	51.274323 
2112.000000	51.263189 
2111.000000	51.248145 
2110.000000	51.229977 
2109.000000	51.209855 
2108.000000	51.189517 
2107.000000	51.170730 
2106.000000	51.155090 
2105.000000	51.143503 
2104.000000	51.136159 
2103.000000	51.132225 
2102.000000	51.130247 
2101.000000	51.128363 
2100.000000	51.125168 
2099.000000	51.119756 
2098.000000	51.112055 
2097.000000	51.102876 
2096.000000	51.093530 
2095.000000	51.085543 
2094.000000	51.080179 
2093.000000	51.078033 
2092.000000	51.079010 
2091.000000	51.082348 
2090.000000	51.086926 
2089.000000	51.091456 
2088.000000	51.094722 
2087.000000	51.095986 
2086.000000	51.094841 
2085.000000	51.091217 
2084.000000	51.085090 
2083.000000	51.076579 
2082.000000	51.065778 
2081.000000	51.052832 
2080.000000	51.038026 
2079.000000	51.021766 
2078.000000	51.005005 
2077.000000	50.988841 
2076.000000	50.974655 
2075.000000	50.963830 
2074.000000	50.957417 
2073.000000	50.955915 
2072.000000	50.958800 
2071.000000	50.964641 
2070.000000	50.971031 
2069.000000	50.975179 
2068.000000	50.974369 
2067.000000	50.966596 
2066.000000	50.950980 
2065.000000	50.927853 
2064.000000	50.898838 
2063.000000	50.866341 
2062.000000	50.833201 
2061.000000	50.802111 
2060.000000	50.775265 
2059.000000	50.754165 
2058.000000	50.739312 
2057.000000	50.730276 
2056.000000	50.725889 
2055.000000	50.724220 
2054.000000	50.722956 
2053.000000	50.719499 
2052.000000	50.711631 
2051.000000	50.697636 
2050.000000	50.676679 
2049.000000	50.649070 
2048.000000	50.616240 
2047.000000	50.580739 
2046.000000	50.545573 
2045.000000	50.513768 
2044.000000	50.487613 
2043.000000	50.468611 
2042.000000	50.456857 
2041.000000	50.451445 
2040.000000	50.450825 
2039.000000	50.453114 
2038.000000	50.456595 
2037.000000	50.460004 
2036.000000	50.462412 
2035.000000	50.463199 
2034.000000	50.461935 
2033.000000	50.457978 
2032.000000	50.450444 
2031.000000	50.438618 
2030.000000	50.421929 
2029.000000	50.400090 
2028.000000	50.373530 
2027.000000	50.343441 
2026.000000	50.311470 
2025.000000	50.279736 
2024.000000	50.250077 
2023.000000	50.224018 
2022.000000	50.202536 
2021.000000	50.185847 
2020.000000	50.173711 
2019.000000	50.165438 
2018.000000	50.160288 
2017.000000	50.157260 
2016.000000	50.155544 
2015.000000	50.154495 
2014.000000	50.153684 
2013.000000	50.152659 
2012.000000	50.151348 
2011.000000	50.149726 
2010.000000	50.147938 
2009.000000	50.146222 
2008.000000	50.144863 
2007.000000	50.144100 
2006.000000	50.144004 
2005.000000	50.144481 
2004.000000	50.145268 
2003.000000	50.145769 
2002.000000	50.145363 
2001.000000	50.143289 
2000.000000	50.138926 
1999.000000	50.131726 
1998.000000	50.121402 
1997.000000	50.107908 
1996.000000	50.091552 
1995.000000	50.072813 
1994.000000	50.052452 
1993.000000	50.031375 
1992.000000	50.010776 
1991.000000	49.991583 
1990.000000	49.974560 
1989.000000	49.959945 
1988.000000	49.947595 
1987.000000	49.936962 
1986.000000	49.927234 
1985.000000	49.917435 
1984.000000	49.906682 
1983.000000	49.894523 
1982.000000	49.880933 
1981.000000	49.866294 
1980.000000	49.851322 
1979.000000	49.836730 
1978.000000	49.823045 
1977.000000	49.810290 
1976.000000	49.798083 
1975.000000	49.785494 
1974.000000	49.771404 
1973.000000	49.754762 
1972.000000	49.735164 
1971.000000	49.712681 
1970.000000	49.688577 
1969.000000	49.664616 
1968.000000	49.643087 
1967.000000	49.626135 
1966.000000	49.615550 
1965.000000	49.612116 
1964.000000	49.615502 
1963.000000	49.624180 
1962.000000	49.635839 
1961.000000	49.647688 
1960.000000	49.657058 
1959.000000	49.661827 
1958.000000	49.660778 
1957.000000	49.653720 
1956.000000	49.641418 
1955.000000	49.625325 
1954.000000	49.607324 
1953.000000	49.589323 
1952.000000	49.572992 
1951.000000	49.559569 
1950.000000	49.549841 
1949.000000	49.543952 
1948.000000	49.541497 
1947.000000	49.541664 
1946.000000	49.543190 
1945.000000	49.544858 
1944.000000	49.545288 
1943.000000	49.543642 
1942.000000	49.539279 
1941.000000	49.532222 
1940.000000	49.523043 
1939.000000	49.512648 
1938.000000	49.502086 
1937.000000	49.492192 
1936.000000	49.483275 
1935.000000	49.475193 
1934.000000	49.467372 
1933.000000	49.458861 
1932.000000	49.448752 
1931.000000	49.436450 
1930.000000	49.421763 
1929.000000	49.405097 
1928.000000	49.387431 
1927.000000	49.369812 
1926.000000	49.353122 
1925.000000	49.337792 
1924.000000	49.323821 
1923.000000	49.310612 
1922.000000	49.297308 
1921.000000	49.283027 
1920.000000	49.267292 
1919.000000	49.250030 
1918.000000	49.231576 
1917.000000	49.212622 
1916.000000	49.193787 
1915.000000	49.175524 
1914.000000	49.157953 
1913.000000	49.140954 
1912.000000	49.124217 
1911.000000	49.107599 
1910.000000	49.091100 
1909.000000	49.075031 
1908.000000	49.059867 
1907.000000	49.046206 
1906.000000	49.034357 
1905.000000	49.024224 
1904.000000	49.015092 
1903.000000	49.005937 
1902.000000	48.995494 
1901.000000	48.982524 
1900.000000	48.966169 
1899.000000	48.946213 
1898.000000	48.922920 
1897.000000	48.897051 
1896.000000	48.869776 
1895.000000	48.842334 
1894.000000	48.815941 
1893.000000	48.791790 
1892.000000	48.770833 
1891.000000	48.753857 
1890.000000	48.741102 
1889.000000	48.732495 
1888.000000	48.727369 
1887.000000	48.724985 
1886.000000	48.724532 
1885.000000	48.725461 
1884.000000	48.727297 
1883.000000	48.730087 
1882.000000	48.734068 
1881.000000	48.739576 
1880.000000	48.746800 
1879.000000	48.755550 
1878.000000	48.765301 
1877.000000	48.775100 
1876.000000	48.783826 
1875.000000	48.790192 
1874.000000	48.793077 
1873.000000	48.791909 
1872.000000	48.786520 
1871.000000	48.777294 
1870.000000	48.765063 
1869.000000	48.750996 
1868.000000	48.736262 
1867.000000	48.722052 
1866.000000	48.709082 
1865.000000	48.697829 
1864.000000	48.687839 
1863.000000	48.678183 
1862.000000	48.667263 
1861.000000	48.653292 
1860.000000	48.634696 
1859.000000	48.610544 
1858.000000	48.580861 
1857.000000	48.546719 
1856.000000	48.510241 
1855.000000	48.474144 
1854.000000	48.441267 
1853.000000	48.413968 
1852.000000	48.393845 
1851.000000	48.381567 
1850.000000	48.376822 
1849.000000	48.378372 
1848.000000	48.384618 
1847.000000	48.393845 
1846.000000	48.404312 
1845.000000	48.414468 
1844.000000	48.423194 
1843.000000	48.429465 
1842.000000	48.432183 
1841.000000	48.430466 
1840.000000	48.423624 
1839.000000	48.411250 
1838.000000	48.393607 
1837.000000	48.371362 
1836.000000	48.345994 
1835.000000	48.319292 
1834.000000	48.293447 
1833.000000	48.270535 
1832.000000	48.252248 
1831.000000	48.239612 
1830.000000	48.232865 
1829.000000	48.231410 
1828.000000	48.234057 
1827.000000	48.239183 
1826.000000	48.245072 
1825.000000	48.250222 
1824.000000	48.253464 
1823.000000	48.254084 
1822.000000	48.251914 
1821.000000	48.246908 
1820.000000	48.238921 
1819.000000	48.227810 
1818.000000	48.213100 
1817.000000	48.194360 
1816.000000	48.171091 
1815.000000	48.143053 
1814.000000	48.110437 
1813.000000	48.074364 
1812.000000	48.036527 
1811.000000	47.999238 
1810.000000	47.965002 
1809.000000	47.936129 
1808.000000	47.914457 
1807.000000	47.900652 
1806.000000	47.894406 
1805.000000	47.894287 
1804.000000	47.898054 
1803.000000	47.903084 
1802.000000	47.906970 
1801.000000	47.907781 
1800.000000	47.904562 
1799.000000	47.897291 
1798.000000	47.886848 
1797.000000	47.874665 
1796.000000	47.862362 
1795.000000	47.851252 
1794.000000	47.842264 
1793.000000	47.835373 
1792.000000	47.830009 
1791.000000	47.824931 
1790.000000	47.818803 
1789.000000	47.810125 
1788.000000	47.797846 
1787.000000	47.781610 
1786.000000	47.761654 
1785.000000	47.738909 
1784.000000	47.714734 
1783.000000	47.690653 
1782.000000	47.668004 
1781.000000	47.647619 
1780.000000	47.629928 
1779.000000	47.614860 
1778.000000	47.602033 
1777.000000	47.590947 
1776.000000	47.581100 
1775.000000	47.572422 
1774.000000	47.564888 
1773.000000	47.558712 
1772.000000	47.553777 
1771.000000	47.549843 
1770.000000	47.546482 
1769.000000	47.542858 
1768.000000	47.538065 
1767.000000	47.531223 
1766.000000	47.521829 
1765.000000	47.509980 
1764.000000	47.496128 
1763.000000	47.481226 
1762.000000	47.466325 
1761.000000	47.452378 
1760.000000	47.440052 
1759.000000	47.429752 
1758.000000	47.421264 
1757.000000	47.414231 
1756.000000	47.408056 
1755.000000	47.401905 
1754.000000	47.394943 
1753.000000	47.386479 
1752.000000	47.375559 
1751.000000	47.361516 
1750.000000	47.343564 
1749.000000	47.321271 
1748.000000	47.294473 
1747.000000	47.263336 
1746.000000	47.228670 
1745.000000	47.191977 
1744.000000	47.155141 
1743.000000	47.120261 
1742.000000	47.089481 
1741.000000	47.064614 
1740.000000	47.046732 
1739.000000	47.036075 
1738.000000	47.031950 
1737.000000	47.032999 
1736.000000	47.037363 
1735.000000	47.043204 
1734.000000	47.048974 
1733.000000	47.053384 
1732.000000	47.055625 
1731.000000	47.055029 
1730.000000	47.051215 
1729.000000	47.043800 
1728.000000	47.032141 
1727.000000	47.015690 
1726.000000	46.994185 
1725.000000	46.967768 
1724.000000	46.937441 
1723.000000	46.904993 
1722.000000	46.873140 
1721.000000	46.844887 
1720.000000	46.823215 
1719.000000	46.810412 
1718.000000	46.807789 
1717.000000	46.815252 
1716.000000	46.831393 
1715.000000	46.853685 
1714.000000	46.878933 
1713.000000	46.903824 
1712.000000	46.925306 
1711.000000	46.941208 
1710.000000	46.950364 
1709.000000	46.952724 
1708.000000	46.949100 
1707.000000	46.941041 
1706.000000	46.930551 
1705.000000	46.919345 
1704.000000	46.908760 
1703.000000	46.899676 
1702.000000	46.892356 
1701.000000	46.886467 
1700.000000	46.881413 
1699.000000	46.876597 
1698.000000	46.871685 
1697.000000	46.866750 
1696.000000	46.862149 
1695.000000	46.858525 
1694.000000	46.856117 
1693.000000	46.854853 
1692.000000	46.853852 
1691.000000	46.851611 
1690.000000	46.846127 
1689.000000	46.835160 
1688.000000	46.817088 
1687.000000	46.791172 
1686.000000	46.757936 
1685.000000	46.719360 
1684.000000	46.678256 
1683.000000	46.638035 
1682.000000	46.601963 
1681.000000	46.572637 
1680.000000	46.551394 
1679.000000	46.538233 
1678.000000	46.532225 
1677.000000	46.531748 
1676.000000	46.534991 
1675.000000	46.540212 
1674.000000	46.545910 
1673.000000	46.551036 
1672.000000	46.554660 
1671.000000	46.556138 
1670.000000	46.554565 
1669.000000	46.549439 
1668.000000	46.540284 
1667.000000	46.527099 
1666.000000	46.510529 
1665.000000	46.491456 
1664.000000	46.471357 
1663.000000	46.451663 
1662.000000	46.433615 
1661.000000	46.417760 
1660.000000	46.403932 
1659.000000	46.391367 
1658.000000	46.378970 
1657.000000	46.365594 
1656.000000	46.350407 
1655.000000	46.333193 
1654.000000	46.314477 
1653.000000	46.295094 
1652.000000	46.276235 
1651.000000	46.258902 
1650.000000	46.243739 
1649.000000	46.231007 
1648.000000	46.220350 
1647.000000	46.211218 
1646.000000	46.203017 
1645.000000	46.195268 
1644.000000	46.187829 
1643.000000	46.180891 
1642.000000	46.174860 
1641.000000	46.170139 
1640.000000	46.167039 
1639.000000	46.165490 
1638.000000	46.165156 
1637.000000	46.165442 
1636.000000	46.165537 
1635.000000	46.164488 
1634.000000	46.161293 
1633.000000	46.155118 
1632.000000	46.145176 
1631.000000	46.130800 
1630.000000	46.111536 
1629.000000	46.087074 
1628.000000	46.057653 
1627.000000	46.023774 
1626.000000	45.986461 
1625.000000	45.947170 
1624.000000	45.907640 
1623.000000	45.869922 
1622.000000	45.835828 
1621.000000	45.807075 
1620.000000	45.784783 
1619.000000	45.769715 
1618.000000	45.761919 
1617.000000	45.761036 
1616.000000	45.766234 
1615.000000	45.776367 
1614.000000	45.790028 
1613.000000	45.805811 
1612.000000	45.822167 
1611.000000	45.837736 
1610.000000	45.851135 
1609.000000	45.861363 
1608.000000	45.867776 
1607.000000	45.869970 
1606.000000	45.867705 
1605.000000	45.860815 
1604.000000	45.849013 
1603.000000	45.832180 
1602.000000	45.810198 
1601.000000	45.783162 
1600.000000	45.751643 
1599.000000	45.716857 
1598.000000	45.680499 
1597.000000	45.644497 
1596.000000	45.610690 
1595.000000	45.580506 
1594.000000	45.554804 
1593.000000	45.533657 
1592.000000	45.516729 
1591.000000	45.503258 
1590.000000	45.492649 
1589.000000	45.484519 
1588.000000	45.478868 
1587.000000	45.475745 
1586.000000	45.474934 
1585.000000	45.475816 
1584.000000	45.476818 
1583.000000	45.475745 
1582.000000	45.470309 
1581.000000	45.458650 
1580.000000	45.440030 
1579.000000	45.415163 
1578.000000	45.386457 
1577.000000	45.357537 
1576.000000	45.332407 
1575.000000	45.314431 
1574.000000	45.305442 
1573.000000	45.305204 
1572.000000	45.311617 
1571.000000	45.320987 
1570.000000	45.329117 
1569.000000	45.332217 
1568.000000	45.328044 
1567.000000	45.316195 
1566.000000	45.297908 
1565.000000	45.275735 
1564.000000	45.252609 
1563.000000	45.231294 
1562.000000	45.213723 
1561.000000	45.200657 
1560.000000	45.192050 
1559.000000	45.187020 
1558.000000	45.184421 
1557.000000	45.183014 
1556.000000	45.181775 
1555.000000	45.179843 
1554.000000	45.176410 
1553.000000	45.170640 
1552.000000	45.161652 
1551.000000	45.148611 
1550.000000	45.131039 
1549.000000	45.108914 
1548.000000	45.083045 
1547.000000	45.054888 
1546.000000	45.026493 
1545.000000	45.000267 
1544.000000	44.978284 
1543.000000	44.962000 
1542.000000	44.951891 
1541.000000	44.947242 
1540.000000	44.946575 
1539.000000	44.947814 
1538.000000	44.948840 
1537.000000	44.947671 
1536.000000	44.943070 
1535.000000	44.934678 
1534.000000	44.922757 
1533.000000	44.908046 
1532.000000	44.891691 
1531.000000	44.874811 
1530.000000	44.858479 
1529.000000	44.843482 
1528.000000	44.830417 
1527.000000	44.819760 
1526.000000	44.811749 
1525.000000	44.806241 
1524.000000	44.802904 
1523.000000	44.801139 
1522.000000	44.799900 
1521.000000	44.798016 
1520.000000	44.794225 
1519.000000	44.787502 
1518.000000	44.777345 
1517.000000	44.763898 
1516.000000	44.747900 
1515.000000	44.730615 
1514.000000	44.713759 
1513.000000	44.698786 
1512.000000	44.686913 
1511.000000	44.678473 
1510.000000	44.673180 
1509.000000	44.669866 
1508.000000	44.667005 
1507.000000	44.662857 
1506.000000	44.655942 
1505.000000	44.645333 
1504.000000	44.630932 
1503.000000	44.613432 
1502.000000	44.594120 
1501.000000	44.574403 
1500.000000	44.555544 
1499.000000	44.538164 
1498.000000	44.522309 
1497.000000	44.507265 
1496.000000	44.492006 
1495.000000	44.475436 
1494.000000	44.457006 
1493.000000	44.436860 
1492.000000	44.416141 
1491.000000	44.396591 
1490.000000	44.380235 
1489.000000	44.368910 
1488.000000	44.363617 
1487.000000	44.364261 
1486.000000	44.369530 
1485.000000	44.377398 
1484.000000	44.385194 
1483.000000	44.390416 
1482.000000	44.391179 
1481.000000	44.386577 
1480.000000	44.376635 
1479.000000	44.362306 
1478.000000	44.345068 
1477.000000	44.326543 
1476.000000	44.308137 
1475.000000	44.290614 
1474.000000	44.273972 
1473.000000	44.257664 
1472.000000	44.240617 
1471.000000	44.221925 
1470.000000	44.201135 
1469.000000	44.178605 
1468.000000	44.155526 
1467.000000	44.133877 
1466.000000	44.116091 
1465.000000	44.104170 
1464.000000	44.099283 
1463.000000	44.101285 
1462.000000	44.108653 
1461.000000	44.118666 
1460.000000	44.127607 
1459.000000	44.131922 
1458.000000	44.128727 
1457.000000	44.116711 
1456.000000	44.096207 
1455.000000	44.069266 
1454.000000	44.039297 
1453.000000	44.010138 
1452.000000	43.985366 
1451.000000	43.967413 
1450.000000	43.957233 
1449.000000	43.954181 
1448.000000	43.956470 
1447.000000	43.961811 
1446.000000	43.968009 
1445.000000	43.973708 
1444.000000	43.978452 
1443.000000	43.982696 
1442.000000	43.987298 
1441.000000	43.992900 
1440.000000	43.999314 
1439.000000	44.005465 
1438.000000	44.009017 
1437.000000	44.007229 
1436.000000	43.997073 
1435.000000	43.976020 
1434.000000	43.942689 
1433.000000	43.897199 
1432.000000	43.841290 
1431.000000	43.777990 
1430.000000	43.711447 
1429.000000	43.646073 
1428.000000	43.586301 
1427.000000	43.535900 
1426.000000	43.497657 
1425.000000	43.473005 
1424.000000	43.462133 
1423.000000	43.464112 
1422.000000	43.476963 
1421.000000	43.497848 
1420.000000	43.523454 
1419.000000	43.550324 
1418.000000	43.575024 
1417.000000	43.594551 
1416.000000	43.606591 
1415.000000	43.609738 
1414.000000	43.603420 
1413.000000	43.588066 
1412.000000	43.565201 
1411.000000	43.537044 
1410.000000	43.506503 
1409.000000	43.476557 
1408.000000	43.450403 
1407.000000	43.430566 
1406.000000	43.419051 
1405.000000	43.416595 
1404.000000	43.422842 
1403.000000	43.436050 
1402.000000	43.453478 
1401.000000	43.471741 
1400.000000	43.486952 
1399.000000	43.495774 
1398.000000	43.495917 
1397.000000	43.486452 
1396.000000	43.467807 
1395.000000	43.441891 
1394.000000	43.411707 
1393.000000	43.380784 
1392.000000	43.352317 
1391.000000	43.328809 
1390.000000	43.311476 
1389.000000	43.299984 
1388.000000	43.292689 
1387.000000	43.287038 
1386.000000	43.280267 
1385.000000	43.270063 
1384.000000	43.255424 
1383.000000	43.236374 
1382.000000	43.214225 
1381.000000	43.190979 
1380.000000	43.168878 
1379.000000	43.149495 
1378.000000	43.133616 
1377.000000	43.121314 
1376.000000	43.111896 
1375.000000	43.104338 
1374.000000	43.097496 
1373.000000	43.090534 
1372.000000	43.082928 
1371.000000	43.074274 
1370.000000	43.064498 
1369.000000	43.053507 
1368.000000	43.041396 
1367.000000	43.028020 
1366.000000	43.013548 
1365.000000	42.998409 
1364.000000	42.983436 
1363.000000	42.969632 
1362.000000	42.958283 
1361.000000	42.950487 
1360.000000	42.946887 
1359.000000	42.947506 
1358.000000	42.951440 
1357.000000	42.957043 
1356.000000	42.962241 
1355.000000	42.964720 
1354.000000	42.962241 
1353.000000	42.953014 
1352.000000	42.936182 
1351.000000	42.911696 
1350.000000	42.880415 
1349.000000	42.843985 
1348.000000	42.804884 
1347.000000	42.765879 
1346.000000	42.729878 
1345.000000	42.699575 
1344.000000	42.677044 
1343.000000	42.663407 
1342.000000	42.658853 
1341.000000	42.662286 
1340.000000	42.671465 
1339.000000	42.683243 
1338.000000	42.693996 
1337.000000	42.700409 
1336.000000	42.699861 
1335.000000	42.690944 
1334.000000	42.673897 
1333.000000	42.650413 
1332.000000	42.623448 
1331.000000	42.596459 
1330.000000	42.572855 
1329.000000	42.555332 
1328.000000	42.545413 
1327.000000	42.543482 
1326.000000	42.548584 
1325.000000	42.559146 
1324.000000	42.572808 
1323.000000	42.587280 
1322.000000	42.600107 
1321.000000	42.608976 
1320.000000	42.611718 
1319.000000	42.606306 
1318.000000	42.591214 
1317.000000	42.565512 
1316.000000	42.529511 
1315.000000	42.484998 
1314.000000	42.435169 
1313.000000	42.384529 
1312.000000	42.338156 
1311.000000	42.300629 
1310.000000	42.275214 
1309.000000	42.263245 
1308.000000	42.263627 
1307.000000	42.273449 
1306.000000	42.288351 
1305.000000	42.303657 
1304.000000	42.315483 
1303.000000	42.321395 
1302.000000	42.320609 
1301.000000	42.314004 
1300.000000	42.303228 
1299.000000	42.290163 
1298.000000	42.276334 
1297.000000	42.262434 
1296.000000	42.248368 
1295.000000	42.233324 
1294.000000	42.216706 
1293.000000	42.197942 
1292.000000	42.177271 
1291.000000	42.155385 
1290.000000	42.133259 
1289.000000	42.111992 
1288.000000	42.092466 
1287.000000	42.075252 
1286.000000	42.060422 
1285.000000	42.047786 
1284.000000	42.037057 
1283.000000	42.027997 
1282.000000	42.020535 
1281.000000	42.014455 
1280.000000	42.009210 
1279.000000	42.004060 
1278.000000	41.998004 
1277.000000	41.989994 
1276.000000	41.979432 
1275.000000	41.966056 
1274.000000	41.950654 
1273.000000	41.934871 
1272.000000	41.920948 
1271.000000	41.911101 
1270.000000	41.907072 
1269.000000	41.909766 
1268.000000	41.918516 
1267.000000	41.931581 
1266.000000	41.945981 
1265.000000	41.958308 
1264.000000	41.965270 
1263.000000	41.964435 
1262.000000	41.954779 
1261.000000	41.936898 
1260.000000	41.912937 
1259.000000	41.885972 
1258.000000	41.859745 
1257.000000	41.837620 
1256.000000	41.822147 
1255.000000	41.814637 
1254.000000	41.814732 
1253.000000	41.820740 
1252.000000	41.829872 
1251.000000	41.838884 
1250.000000	41.844606 
1249.000000	41.844606 
1248.000000	41.837430 
1247.000000	41.822957 
1246.000000	41.802191 
1245.000000	41.777062 
1244.000000	41.750121 
1243.000000	41.723585 
1242.000000	41.699457 
1241.000000	41.678667 
1240.000000	41.661405 
1239.000000	41.646862 
1238.000000	41.633915 
1237.000000	41.621184 
1236.000000	41.607308 
1235.000000	41.591215 
1234.000000	41.572427 
1233.000000	41.551089 
1232.000000	41.527533 
1231.000000	41.502904 
1230.000000	41.478633 
1229.000000	41.456484 
1228.000000	41.438055 
1227.000000	41.424536 
1226.000000	41.416382 
1225.000000	41.413211 
1224.000000	41.413640 
1223.000000	41.415643 
1222.000000	41.416835 
1221.000000	41.414928 
1220.000000	41.408395 
1219.000000	41.396737 
1218.000000	41.380476 
1217.000000	41.360831 
1216.000000	41.339373 
1215.000000	41.317582 
1214.000000	41.296052 
1213.000000	41.274762 
1212.000000	41.252946 
1211.000000	41.229724 
1210.000000	41.204619 
1209.000000	41.177964 
1208.000000	41.150927 
1207.000000	41.125297 
1206.000000	41.103076 
1205.000000	41.085910 
1204.000000	41.074609 
1203.000000	41.068816 
1202.000000	41.067290 
1201.000000	41.068148 
1200.000000	41.069722 
1199.000000	41.070771 
1198.000000	41.070985 
1197.000000	41.070818 
1196.000000	41.071343 
1195.000000	41.073441 
1194.000000	41.077423 
1193.000000	41.082644 
1192.000000	41.087651 
1191.000000	41.090178 
1190.000000	41.088151 
1189.000000	41.079640 
1188.000000	41.063904 
1187.000000	41.041326 
1186.000000	41.013264 
1185.000000	40.982270 
1184.000000	40.951204 
1183.000000	40.923070 
1182.000000	40.900373 
1181.000000	40.884947 
1180.000000	40.877699 
1179.000000	40.878462 
1178.000000	40.886187 
1177.000000	40.898895 
1176.000000	40.914011 
1175.000000	40.928673 
1174.000000	40.940213 
1173.000000	40.946221 
1172.000000	40.945076 
1171.000000	40.936231 
1170.000000	40.920209 
1169.000000	40.898537 
1168.000000	40.873384 
1167.000000	40.847229 
1166.000000	40.822291 
1165.000000	40.800499 
1164.000000	40.782761 
1163.000000	40.769457 
1162.000000	40.759849 
1161.000000	40.752959 
1160.000000	40.747380 
1159.000000	40.741515 
1158.000000	40.733933 
1157.000000	40.723371 
1156.000000	40.709018 
1155.000000	40.690302 
1154.000000	40.667390 
1153.000000	40.640902 
1152.000000	40.612411 
1151.000000	40.583920 
1150.000000	40.558099 
1149.000000	40.537714 
1148.000000	40.525102 
1147.000000	40.521812 
1146.000000	40.528106 
1145.000000	40.542769 
1144.000000	40.563273 
1143.000000	40.585923 
1142.000000	40.606808 
1141.000000	40.622377 
1140.000000	40.630054 
1139.000000	40.628623 
1138.000000	40.618228 
1137.000000	40.599846 
1136.000000	40.575385 
1135.000000	40.546822 
1134.000000	40.515804 
1133.000000	40.483379 
1132.000000	40.450286 
1131.000000	40.416860 
1130.000000	40.383386 
1129.000000	40.350365 
1128.000000	40.318560 
1127.000000	40.289115 
1126.000000	40.263247 
1125.000000	40.242075 
1124.000000	40.226030 
1123.000000	40.215015 
1122.000000	40.208292 
1121.000000	40.204477 
1120.000000	40.201640 
1119.000000	40.197873 
1118.000000	40.191864 
1117.000000	40.182828 
1116.000000	40.171074 
1115.000000	40.158152 
1114.000000	40.146636 
1113.000000	40.139460 
1112.000000	40.139293 
1111.000000	40.148019 
1110.000000	40.165829 
1109.000000	40.190815 
1108.000000	40.219402 
1107.000000	40.246844 
1106.000000	40.268301 
1105.000000	40.279793 
1104.000000	40.278959 
1103.000000	40.265703 
1102.000000	40.241670 
1101.000000	40.210437 
1100.000000	40.175509 
1099.000000	40.139698 
1098.000000	40.104198 
1097.000000	40.068674 
1096.000000	40.031290 
1095.000000	39.989542 
1094.000000	39.941477 
1093.000000	39.886593 
1092.000000	39.825963 
1091.000000	39.762330 
1090.000000	39.699435 
1089.000000	39.641261 
1088.000000	39.591073 
1087.000000	39.550781 
1086.000000	39.520406 
1085.000000	39.498448 
1084.000000	39.482355 
1083.000000	39.469194 
1082.000000	39.456105 
1081.000000	39.441323 
1080.000000	39.424204 
1079.000000	39.405679 
1078.000000	39.387130 
1077.000000	39.370989 
1076.000000	39.359307 
1075.000000	39.354062 
1074.000000	39.356184 
1073.000000	39.365792 
1072.000000	39.382052 
1071.000000	39.403557 
1070.000000	39.428186 
1069.000000	39.454054 
1068.000000	39.479398 
1067.000000	39.502954 
1066.000000	39.523839 
1065.000000	39.541625 
1064.000000	39.556026 
1063.000000	39.566779 
1062.000000	39.573526 
1061.000000	39.575934 
1060.000000	39.573431 
1059.000000	39.566087 
1058.000000	39.553999 
1057.000000	39.537048 
1056.000000	39.515256 
1055.000000	39.489340 
1054.000000	39.460587 
1053.000000	39.430689 
1052.000000	39.401841 
1051.000000	39.376926 
1050.000000	39.358496 
1049.000000	39.348578 
1048.000000	39.347672 
1047.000000	39.354467 
1046.000000	39.365744 
1045.000000	39.377140 
1044.000000	39.383316 
1043.000000	39.379262 
1042.000000	39.360880 
1041.000000	39.326071 
1040.000000	39.274477 
1039.000000	39.207530 
1038.000000	39.128351 
1037.000000	39.041733 
1036.000000	38.952803 
1035.000000	38.867163 
1034.000000	38.790917 
1033.000000	38.730549 
1032.000000	38.692140 
1031.000000	38.681149 
1030.000000	38.701415 
1029.000000	38.754129 
1028.000000	38.836884 
1027.000000	38.943076 
1026.000000	39.062213 
1025.000000	39.181041 
1024.000000	39.285421 
1023.000000	39.362525 
1022.000000	39.403009 
1021.000000	39.402914 
1020.000000	39.364576 
1019.000000	39.295244 
1018.000000	39.205789 
1017.000000	39.107704 
1016.000000	39.011526 
1015.000000	38.923597 
1014.000000	38.846087 
1013.000000	38.776826 
1012.000000	38.711404 
1011.000000	38.644838 
1010.000000	38.574099 
1009.000000	38.499045 
1008.000000	38.423371 
1007.000000	38.353204 
1006.000000	38.296031 
1005.000000	38.257813 
1004.000000	38.242197 
1003.000000	38.248562 
1002.000000	38.273072 
1001.000000	38.308882 
1000.000000	38.348650 
999.000000	 38.385987 
998.000000	 38.417100 
997.000000	 38.440799 
996.000000	 38.458514 
995.000000	 38.473486 
994.000000	 38.488984 
993.000000	 38.506698 
992.000000	 38.526368 
991.000000	 38.546037 
990.000000	 38.562393 
989.000000	 38.572168 
988.000000	 38.572812 
987.000000	 38.563394 
986.000000	 38.545012 
985.000000	 38.520479 
984.000000	 38.492798 
983.000000	 38.464355 
982.000000	 38.436508 
981.000000	 38.409543 
980.000000	 38.382649 
979.000000	 38.354444 
978.000000	 38.324213 
977.000000	 38.291811 
976.000000	 38.257789 
975.000000	 38.223195 
974.000000	 38.189196 
973.000000	 38.156628 
972.000000	 38.125777 
971.000000	 38.096380 
970.000000	 38.067650 
969.000000	 38.039016 
968.000000	 38.010406 
967.000000	 37.982583 
966.000000	 37.956404 
965.000000	 37.933540 
964.000000	 37.915635 
963.000000	 37.904405 
962.000000	 37.900710 
961.000000	 37.905240 
960.000000	 37.918186 
959.000000	 37.939167 
958.000000	 37.966895 
957.000000	 37.999320 
956.000000	 38.033604 
955.000000	 38.066196 
954.000000	 38.093256 
953.000000	 38.111591 
952.000000	 38.118982 
951.000000	 38.115215 
950.000000	 38.101601 
949.000000	 38.080501 
948.000000	 38.054490 
947.000000	 38.026237 
946.000000	 37.997317 
945.000000	 37.968063 
944.000000	 37.937736 
943.000000	 37.905669 
942.000000	 37.871408 
941.000000	 37.835359 
940.000000	 37.798738 
939.000000	 37.763667 
938.000000	 37.732005 
937.000000	 37.704944 
936.000000	 37.682223 
935.000000	 37.661886 
934.000000	 37.641072 
933.000000	 37.616729 
932.000000	 37.586712 
931.000000	 37.550497 
930.000000	 37.509632 
929.000000	 37.467741 
928.000000	 37.429022 
927.000000	 37.397527 
926.000000	 37.376165 
925.000000	 37.366366 
924.000000	 37.367343 
923.000000	 37.377238 
922.000000	 37.393593 
921.000000	 37.414383 
920.000000	 37.438297 
919.000000	 37.464928 
918.000000	 37.494182 
917.000000	 37.525773 
916.000000	 37.558341 
915.000000	 37.589097 
914.000000	 37.614083 
913.000000	 37.628960 
912.000000	 37.630343 
911.000000	 37.616539 
910.000000	 37.588310 
909.000000	 37.548780 
908.000000	 37.503027 
907.000000	 37.456130 
906.000000	 37.412214 
905.000000	 37.373185 
904.000000	 37.338685 
903.000000	 37.306547 
902.000000	 37.273883 
901.000000	 37.238621 
900.000000	 37.200593 
899.000000	 37.161922 
898.000000	 37.126803 
897.000000	 37.100052 
896.000000	 37.085652 
895.000000	 37.085580 
894.000000	 37.098836 
893.000000	 37.121367 
892.000000	 37.147092 
891.000000	 37.169480 
890.000000	 37.182950 
889.000000	 37.184214 
888.000000	 37.172818 
887.000000	 37.151122 
886.000000	 37.123346 
885.000000	 37.094092 
884.000000	 37.067222 
883.000000	 37.045121 
882.000000	 37.028241 
881.000000	 37.015581 
880.000000	 37.004971 
879.000000	 36.994123 
878.000000	 36.981201 
877.000000	 36.965155 
876.000000	 36.945629 
875.000000	 36.922717 
874.000000	 36.896705 
873.000000	 36.867809 
872.000000	 36.835980 
871.000000	 36.800980 
870.000000	 36.763000 
869.000000	 36.722660 
868.000000	 36.681127 
867.000000	 36.640238 
866.000000	 36.602067 
865.000000	 36.568617 
864.000000	 36.541557 
863.000000	 36.521816 
862.000000	 36.509132 
861.000000	 36.502552 
860.000000	 36.500740 
859.000000	 36.502122 
858.000000	 36.504864 
857.000000	 36.507701 
856.000000	 36.509776 
855.000000	 36.510777 
854.000000	 36.510705 
853.000000	 36.509442 
852.000000	 36.506438 
851.000000	 36.500930 
850.000000	 36.491990 
849.000000	 36.478734 
848.000000	 36.460661 
847.000000	 36.437988 
846.000000	 36.411619 
845.000000	 36.383295 
844.000000	 36.355304 
843.000000	 36.330246 
842.000000	 36.310362 
841.000000	 36.297082 
840.000000	 36.290454 
839.000000	 36.289429 
838.000000	 36.291241 
837.000000	 36.292195 
836.000000	 36.287856 
835.000000	 36.274051 
834.000000	 36.247944 
833.000000	 36.208343 
832.000000	 36.156916 
831.000000	 36.097407 
830.000000	 36.036372 
829.000000	 35.981822 
828.000000	 35.941791 
827.000000	 35.922479 
826.000000	 35.926580 
825.000000	 35.952496 
824.000000	 35.994029 
823.000000	 36.041665 
822.000000	 36.084890 
821.000000	 36.114525 
820.000000	 36.124897 
819.000000	 36.114764 
818.000000	 36.086797 
817.000000	 36.046910 
816.000000	 36.001896 
815.000000	 35.958170 
814.000000	 35.920619 
813.000000	 35.891509 
812.000000	 35.871601 
811.000000	 35.859179 
810.000000	 35.851860 
809.000000	 35.846161 
808.000000	 35.838627 
807.000000	 35.826110 
806.000000	 35.806465 
805.000000	 35.778474 
804.000000	 35.741734 
803.000000	 35.697150 
802.000000	 35.646390 
801.000000	 35.592150 
800.000000	 35.537600 
799.000000	 35.486292 
798.000000	 35.441780 
797.000000	 35.407018 
796.000000	 35.384297 
795.000000	 35.374355 
794.000000	 35.376143 
793.000000	 35.387110 
792.000000	 35.403323 
791.000000	 35.420346 
790.000000	 35.433721 
789.000000	 35.439896 
788.000000	 35.436320 
787.000000	 35.422158 
786.000000	 35.397982 
785.000000	 35.365724 
784.000000	 35.327601 
783.000000	 35.285782 
782.000000	 35.241746 
781.000000	 35.196447 
780.000000	 35.149955 
779.000000	 35.101795 
778.000000	 35.051488 
777.000000	 34.998989 
776.000000	 34.944963 
775.000000	 34.890866 
774.000000	 34.838986 
773.000000	 34.791874 
772.000000	 34.752249 
771.000000	 34.722423 
770.000000	 34.703826 
769.000000	 34.696912 
768.000000	 34.701037 
767.000000	 34.714579 
766.000000	 34.735083 
765.000000	 34.759378 
764.000000	 34.784030 
763.000000	 34.805703 
762.000000	 34.821295 
761.000000	 34.828639 
760.000000	 34.826493 
759.000000	 34.815073 
758.000000	 34.795618 
757.000000	 34.770369 
756.000000	 34.742236 
755.000000	 34.714150 
754.000000	 34.688758 
753.000000	 34.667801 
752.000000	 34.652209 
751.000000	 34.641909 
750.000000	 34.636139 
749.000000	 34.633755 
748.000000	 34.633517 
747.000000	 34.633851 
746.000000	 34.633398 
745.000000	 34.630441 
744.000000	 34.623265 
743.000000	 34.610033 
742.000000	 34.589219 
741.000000	 34.560084 
740.000000	 34.523272 
739.000000	 34.480857 
738.000000	 34.436154 
737.000000	 34.393262 
736.000000	 34.355926 
735.000000	 34.326767 
734.000000	 34.306597 
733.000000	 34.294033 
732.000000	 34.285902 
731.000000	 34.277892 
730.000000	 34.265613 
729.000000	 34.245729 
728.000000	 34.216833 
727.000000	 34.179306 
726.000000	 34.135437 
725.000000	 34.088635 
724.000000	 34.042382 
723.000000	 33.999323 
722.000000	 33.960723 
721.000000	 33.926630 
720.000000	 33.895635 
719.000000	 33.865594 
718.000000	 33.834052 
717.000000	 33.799242 
716.000000	 33.760070 
715.000000	 33.716535 
714.000000	 33.670020 
713.000000	 33.623194 
712.000000	 33.579349 
711.000000	 33.542203 
710.000000	 33.514857 
709.000000	 33.499479 
708.000000	 33.496689 
707.000000	 33.505439 
706.000000	 33.523225 
705.000000	 33.546543 
704.000000	 33.571243 
703.000000	 33.593130 
702.000000	 33.608484 
701.000000	 33.614110 
700.000000	 33.608174 
699.000000	 33.589148 
698.000000	 33.556103 
697.000000	 33.508586 
696.000000	 33.447265 
695.000000	 33.373618 
694.000000	 33.290100 
693.000000	 33.200407 
692.000000	 33.109593 
691.000000	 33.022904 
690.000000	 32.945156 
689.000000	 32.880091 
688.000000	 32.829785 
687.000000	 32.794642 
686.000000	 32.773518 
685.000000	 32.764029 
684.000000	 32.762885 
683.000000	 32.766222 
682.000000	 32.770252 
681.000000	 32.770848 
680.000000	 32.764720 
679.000000	 32.749032 
678.000000	 32.723021 
677.000000	 32.687163 
676.000000	 32.644891 
675.000000	 32.601571 
674.000000	 32.564640 
673.000000	 32.541584 
672.000000	 32.539010 
671.000000	 32.561278 
670.000000	 32.608795 
669.000000	 32.677435 
668.000000	 32.759094 
667.000000	 32.843136 
666.000000	 32.918095 
665.000000	 32.973694 
664.000000	 33.002614 
663.000000	 33.001494 
662.000000	 32.971477 
661.000000	 32.917571 
660.000000	 32.846903 
659.000000	 32.767128 
658.000000	 32.685732 
657.000000	 32.608509 
656.000000	 32.539248 
655.000000	 32.479476 
654.000000	 32.429361 
653.000000	 32.388114 
652.000000	 32.354831 
651.000000	 32.328391 
650.000000	 32.307672 
649.000000	 32.291221 
648.000000	 32.276988 
647.000000	 32.262182 
646.000000	 32.243347 
645.000000	 32.216858 
644.000000	 32.179713 
643.000000	 32.129883 
642.000000	 32.066988 
641.000000	 31.992673 
640.000000	 31.910586 
639.000000	 31.825757 
638.000000	 31.743597 
637.000000	 31.670117 
636.000000	 31.610822 
635.000000	 31.569886 
634.000000	 31.549215 
633.000000	 31.548547 
632.000000	 31.565308 
631.000000	 31.594538 
630.000000	 31.629467 
629.000000	 31.662297 
628.000000	 31.685733 
627.000000	 31.694102 
626.000000	 31.684613 
625.000000	 31.657600 
624.000000	 31.616353 
623.000000	 31.567215 
622.000000	 31.517028 
621.000000	 31.472086 
620.000000	 31.436061 
619.000000	 31.410121 
618.000000	 31.391644 
617.000000	 31.375789 
616.000000	 31.356120 
615.000000	 31.327104 
614.000000	 31.284689 
613.000000	 31.227564 
612.000000	 31.157088 
611.000000	 31.076860 
610.000000	 30.991959 
609.000000	 30.907392 
608.000000	 30.827641 
607.000000	 30.755925 
606.000000	 30.693793 
605.000000	 30.641555 
604.000000	 30.598592 
603.000000	 30.563926 
602.000000	 30.536365 
601.000000	 30.514693 
600.000000	 30.497384 
599.000000	 30.482959 
598.000000	 30.469727 
597.000000	 30.456519 
596.000000	 30.441904 
595.000000	 30.425405 
594.000000	 30.407381 
593.000000	 30.388998 
592.000000	 30.371975 
591.000000	 30.357718 
590.000000	 30.347084 
589.000000	 30.339598 
588.000000	 30.333328 
587.000000	 30.325508 
586.000000	 30.313110 
585.000000	 30.293560 
584.000000	 30.265569 
583.000000	 30.229353 
582.000000	 30.186653 
581.000000	 30.140399 
580.000000	 30.094313 
579.000000	 30.051827 
578.000000	 30.015635 
577.000000	 29.987525 
576.000000	 29.967975 
575.000000	 29.956078 
574.000000	 29.949879 
573.000000	 29.946804 
572.000000	 29.943990 
571.000000	 29.938817 
570.000000	 29.929018 
569.000000	 29.912900 
568.000000	 29.889392 
567.000000	 29.858708 
566.000000	 29.821062 
565.000000	 29.777121 
564.000000	 29.726815 
563.000000	 29.669833 
562.000000	 29.605412 
561.000000	 29.532909 
560.000000	 29.452848 
559.000000	 29.367756 
558.000000	 29.282236 
557.000000	 29.202437 
556.000000	 29.135012 
555.000000	 29.085874 
554.000000	 29.058051 
553.000000	 29.050827 
552.000000	 29.060363 
551.000000	 29.080343 
550.000000	 29.103493 
549.000000	 29.122996 
548.000000	 29.134321 
547.000000	 29.135274 
546.000000	 29.126119 
545.000000	 29.108095 
544.000000	 29.081940 
543.000000	 29.047036 
542.000000	 29.001379 
541.000000	 28.942203 
540.000000	 28.867220 
539.000000	 28.776144 
538.000000	 28.672647 
537.000000	 28.563356 
536.000000	 28.457260 
535.000000	 28.363513 
534.000000	 28.289437 
533.000000	 28.238415 
532.000000	 28.208875 
531.000000	 28.194713 
530.000000	 28.186440 
529.000000	 28.173685 
528.000000	 28.147578 
527.000000	 28.102350 
526.000000	 28.036570 
525.000000	 27.953314 
524.000000	 27.859234 
523.000000	 27.762532 
522.000000	 27.671384 
521.000000	 27.592158 
520.000000	 27.528834 
519.000000	 27.482461 
518.000000	 27.452278 
517.000000	 27.436852 
516.000000	 27.435207 
515.000000	 27.446246 
514.000000	 27.469682 
513.000000	 27.504873 
512.000000	 27.550625 
511.000000	 27.603960 
510.000000	 27.660346 
509.000000	 27.714157 
508.000000	 27.758884 
507.000000	 27.788686 
506.000000	 27.797794 
505.000000	 27.782249 
504.000000	 27.739334 
503.000000	 27.668905 
502.000000	 27.572607 
501.000000	 27.453899 
500.000000	 27.318906 
499.000000	 27.176141 
498.000000	 27.035665 
497.000000	 26.907777 
496.000000	 26.801919 
495.000000	 26.724386 
494.000000	 26.676607 
493.000000	 26.654434 
492.000000	 26.648521 
491.000000	 26.646614 
490.000000	 26.636290 
489.000000	 26.607918 
488.000000	 26.556420 
487.000000	 26.482248 
486.000000	 26.390957 
485.000000	 26.290965 
484.000000	 26.190471 
483.000000	 26.095747 
482.000000	 26.009154 
481.000000	 25.929927 
480.000000	 25.854635 
479.000000	 25.780177 
478.000000	 25.705790 
477.000000	 25.634193 
476.000000	 25.571274 
475.000000	 25.524497 
474.000000	 25.500416 
473.000000	 25.502467 
472.000000	 25.529098 
471.000000	 25.575685 
470.000000	 25.634574 
469.000000	 25.697350 
468.000000	 25.755500 
467.000000	 25.801062 
466.000000	 25.826621 
465.000000	 25.825786 
464.000000	 25.793480 
463.000000	 25.726318 
462.000000	 25.624036 
461.000000	 25.490546 
460.000000	 25.334048 
459.000000	 25.167703 
458.000000	 25.006675 
457.000000	 24.865269 
456.000000	 24.755001 
455.000000	 24.683213 
454.000000	 24.651408 
453.000000	 24.654078 
452.000000	 24.682402 
451.000000	 24.726772 
450.000000	 24.777555 
449.000000	 24.826240 
448.000000	 24.865126 
447.000000	 24.887371 
446.000000	 24.884557 
445.000000	 24.847126 
444.000000	 24.768543 
443.000000	 24.647498 
442.000000	 24.487638 
441.000000	 24.298620 
440.000000	 24.098706 
439.000000	 23.909831 
438.000000	 23.753976 
437.000000	 23.645806 
436.000000	 23.589873 
435.000000	 23.576831 
434.000000	 23.586106 
433.000000	 23.588538 
432.000000	 23.556017 
431.000000	 23.463940 
430.000000	 23.299002 
429.000000	 23.058223 
428.000000	 22.747564 
427.000000	 22.382020 
426.000000	 21.981954 
425.000000	 21.571254 
424.000000	 21.173834 
423.000000	 20.811152 
422.000000	 20.503211 
421.000000	 20.254540 
420.000000	 20.054030 
419.000000	 19.872498 
418.000000	 19.670128 
417.000000	 19.400906 
416.000000	 19.027185 
415.000000	 18.530821 
414.000000	 17.923998 
413.000000	 17.249417 
412.000000	 16.574358 
411.000000	 15.984654 
410.000000	 15.559673 
409.000000	 15.340971 
408.000000	 15.328335 
407.000000	 15.480709 
406.000000	 15.729022 
405.000000	 15.985560 
404.000000	 16.177272 
403.000000	 16.265296 
402.000000	 16.252160 
401.000000	 16.167116 
400.000000	 16.067624 
399.000000	 16.005539 
398.000000	 16.035842 
397.000000	 16.198229 
396.000000	 16.519045 
395.000000	 17.014193 
394.000000	 17.660808 
393.000000	 18.398427 
392.000000	 19.141292 
391.000000	 19.801139 
390.000000	 20.293164 
389.000000	 20.560622 
388.000000	 20.640110 
387.000000	 20.649790 
386.000000	 20.715165 
385.000000	 20.967078 
384.000000	 21.470022 
383.000000	 22.256350 
382.000000	 23.386693 
381.000000	 24.903273 
380.000000	 26.862597 
379.000000	 29.239511 
378.000000	 31.893563 
377.000000	 34.577775 
376.000000	 36.905360 
375.000000	 38.536119 
374.000000	 39.257764 
373.000000	 39.079141 
372.000000	 38.397026 
371.000000	 37.624001 
370.000000	 37.011027 

