PE IR       SPECTRUM    SPECTRUM    ASCII       PEDS        1.60        
  -1
C-1B61~1.ASC
17/03/27
16:57:08.00
17/03/27
16:57:08.00
tln
$C-4040-8_t0030$<tbV0>[-5.2,-7.8,8.0,0.0,27,1,0]
370.000000
64









2002,4.07    
MIRTGS : RIGHTBACK : INTERNAL 2
MIR : ON : INTERNAL 2
OPTKBR

0.200000
8
8.000000
FILLER
RATIO
SPECTRUM
UNLOCKED 256

DOUBLE
64
COMBINED
1
0
0


1.000000
RATIO


1
0
TRUE
51149
0
LEFT NOT FITTED RIGHT NOT FITTED 0
NONE
NONE
15600
12.000000
4.427000
51148
TRUE
1 0 8 72 0 0 0 0 

15798.010000






#HDR
-1
-1
#GR
CM-1
%T
0.00002384185791015625
0.0
5000.000000
-1.000000
4631
8
66.671490
11.181259
#DATA
5000.000000	63.822174 
4999.000000	63.784360 
4998.000000	63.751459 
4997.000000	63.726997 
4996.000000	63.716006 
4995.000000	63.723278 
4994.000000	63.752150 
4993.000000	63.803052 
4992.000000	63.872814 
4991.000000	63.954210 
4990.000000	64.037680 
4989.000000	64.112567 
4988.000000	64.170050 
4987.000000	64.204597 
4986.000000	64.215755 
4985.000000	64.207720 
4984.000000	64.187979 
4983.000000	64.165210 
4982.000000	64.146757 
4981.000000	64.137005 
4980.000000	64.136433 
4979.000000	64.142060 
4978.000000	64.148855 
4977.000000	64.151668 
4976.000000	64.146947 
4975.000000	64.134025 
4974.000000	64.115333 
4973.000000	64.095807 
4972.000000	64.080452 
4971.000000	64.073944 
4970.000000	64.078760 
4969.000000	64.095306 
4968.000000	64.121723 
4967.000000	64.154815 
4966.000000	64.191150 
4965.000000	64.227366 
4964.000000	64.260649 
4963.000000	64.289093 
4962.000000	64.311218 
4961.000000	64.327073 
4960.000000	64.337682 
4959.000000	64.345169 
4958.000000	64.352154 
4957.000000	64.361047 
4956.000000	64.373135 
4955.000000	64.387488 
4954.000000	64.400672 
4953.000000	64.406681 
4952.000000	64.398622 
4951.000000	64.370369 
4950.000000	64.319276 
4949.000000	64.247512 
4948.000000	64.163041 
4947.000000	64.078712 
4946.000000	64.009618 
4945.000000	63.969230 
4944.000000	63.966083 
4943.000000	64.001369 
4942.000000	64.068818 
4941.000000	64.156174 
4940.000000	64.247989 
4939.000000	64.329457 
4938.000000	64.389395 
4937.000000	64.422249 
4936.000000	64.428377 
4935.000000	64.412593 
4934.000000	64.382672 
4933.000000	64.346671 
4932.000000	64.311385 
4931.000000	64.281320 
4930.000000	64.258098 
4929.000000	64.241218 
4928.000000	64.229393 
4927.000000	64.221739 
4926.000000	64.217829 
4925.000000	64.218521 
4924.000000	64.225125 
4923.000000	64.239692 
4922.000000	64.264178 
4921.000000	64.300203 
4920.000000	64.348363 
4919.000000	64.407372 
4918.000000	64.474487 
4917.000000	64.544486 
4916.000000	64.610242 
4915.000000	64.663720 
4914.000000	64.697289 
4913.000000	64.705443 
4912.000000	64.685773 
4911.000000	64.640474 
4910.000000	64.575958 
4909.000000	64.502692 
4908.000000	64.432764 
4907.000000	64.379096 
4906.000000	64.353251 
4905.000000	64.362907 
4904.000000	64.410257 
4903.000000	64.491868 
4902.000000	64.599251 
4901.000000	64.719915 
4900.000000	64.840030 
4899.000000	64.946269 
4898.000000	65.028047 
4897.000000	65.079450 
4896.000000	65.098953 
4895.000000	65.088772 
4894.000000	65.052914 
4893.000000	64.996886 
4892.000000	64.925050 
4891.000000	64.841103 
4890.000000	64.747166 
4889.000000	64.645528 
4888.000000	64.538860 
4887.000000	64.432215 
4886.000000	64.332127 
4885.000000	64.246463 
4884.000000	64.181947 
4883.000000	64.143013 
4882.000000	64.129137 
4881.000000	64.134407 
4880.000000	64.148306 
4879.000000	64.157724 
4878.000000	64.150285 
4877.000000	64.117002 
4876.000000	64.055395 
4875.000000	63.970661 
4874.000000	63.874936 
4873.000000	63.785219 
4872.000000	63.720583 
4871.000000	63.697838 
4870.000000	63.727903 
4869.000000	63.812637 
4868.000000	63.944935 
4867.000000	64.109134 
4866.000000	64.283895 
4865.000000	64.446401 
4864.000000	64.576530 
4863.000000	64.660811 
4862.000000	64.694333 
4861.000000	64.681005 
4860.000000	64.631581 
4859.000000	64.560961 
4858.000000	64.485383 
4857.000000	64.417743 
4856.000000	64.366006 
4855.000000	64.331936 
4854.000000	64.313364 
4853.000000	64.304542 
4852.000000	64.299082 
4851.000000	64.291763 
4850.000000	64.280223 
4849.000000	64.263868 
4848.000000	64.243483 
4847.000000	64.219975 
4846.000000	64.193677 
4845.000000	64.164662 
4844.000000	64.132738 
4843.000000	64.098525 
4842.000000	64.063572 
4841.000000	64.030909 
4840.000000	64.004302 
4839.000000	63.987040 
4838.000000	63.981342 
4837.000000	63.987326 
4836.000000	64.002919 
4835.000000	64.023637 
4834.000000	64.044284 
4833.000000	64.061021 
4832.000000	64.071559 
4831.000000	64.075636 
4830.000000	64.074969 
4829.000000	64.072299 
4828.000000	64.070892 
4827.000000	64.073109 
4826.000000	64.080834 
4825.000000	64.094710 
4824.000000	64.115381 
4823.000000	64.143610 
4822.000000	64.179396 
4821.000000	64.221525 
4820.000000	64.267086 
4819.000000	64.311361 
4818.000000	64.347815 
4817.000000	64.369320 
4816.000000	64.369821 
4815.000000	64.345812 
4814.000000	64.297533 
4813.000000	64.229226 
4812.000000	64.148926 
4811.000000	64.066171 
4810.000000	63.990497 
4809.000000	63.928866 
4808.000000	63.884472 
4807.000000	63.856625 
4806.000000	63.841438 
4805.000000	63.833665 
4804.000000	63.828110 
4803.000000	63.821935 
4802.000000	63.814902 
4801.000000	63.809728 
4800.000000	63.810086 
4799.000000	63.820195 
4798.000000	63.842487 
4797.000000	63.877534 
4796.000000	63.923192 
4795.000000	63.975191 
4794.000000	64.027857 
4793.000000	64.075446 
4792.000000	64.113044 
4791.000000	64.137411 
4790.000000	64.147186 
4789.000000	64.142584 
4788.000000	64.124894 
4787.000000	64.096140 
4786.000000	64.058709 
4785.000000	64.015412 
4784.000000	63.969278 
4783.000000	63.923954 
4782.000000	63.882613 
4781.000000	63.848471 
4780.000000	63.823127 
4779.000000	63.806033 
4778.000000	63.794994 
4777.000000	63.786053 
4776.000000	63.775920 
4775.000000	63.762354 
4774.000000	63.746452 
4773.000000	63.732099 
4772.000000	63.726019 
4771.000000	63.735628 
4770.000000	63.766717 
4769.000000	63.821125 
4768.000000	63.895177 
4767.000000	63.979935 
4766.000000	64.062738 
4765.000000	64.130067 
4764.000000	64.171075 
4763.000000	64.180183 
4762.000000	64.158511 
4761.000000	64.113330 
4760.000000	64.055967 
4759.000000	63.998508 
4758.000000	63.950896 
4757.000000	63.918375 
4756.000000	63.901543 
4755.000000	63.896274 
4754.000000	63.896775 
4753.000000	63.896751 
4752.000000	63.891935 
4751.000000	63.880491 
4750.000000	63.863325 
4749.000000	63.843131 
4748.000000	63.822555 
4747.000000	63.803911 
4746.000000	63.787889 
4745.000000	63.774704 
4744.000000	63.763761 
4743.000000	63.755393 
4742.000000	63.751149 
4741.000000	63.753485 
4740.000000	63.765382 
4739.000000	63.789129 
4738.000000	63.825345 
4737.000000	63.872289 
4736.000000	63.925838 
4735.000000	63.980340 
4734.000000	64.029192 
4733.000000	64.066767 
4732.000000	64.088726 
4731.000000	64.093089 
4730.000000	64.079785 
4729.000000	64.050436 
4728.000000	64.008021 
4727.000000	63.956236 
4726.000000	63.899397 
4725.000000	63.842034 
4724.000000	63.789010 
4723.000000	63.745474 
4722.000000	63.716316 
4721.000000	63.705801 
4720.000000	63.716483 
4719.000000	63.748288 
4718.000000	63.798856 
4717.000000	63.863468 
4716.000000	63.936090 
4715.000000	64.010119 
4714.000000	64.080119 
4713.000000	64.142370 
4712.000000	64.195513 
4711.000000	64.240026 
4710.000000	64.277386 
4709.000000	64.309072 
4708.000000	64.335680 
4707.000000	64.356303 
4706.000000	64.369225 
4705.000000	64.372086 
4704.000000	64.363312 
4703.000000	64.342570 
4702.000000	64.311814 
4701.000000	64.274334 
4700.000000	64.234805 
4699.000000	64.197421 
4698.000000	64.165353 
4697.000000	64.139413 
4696.000000	64.118766 
4695.000000	64.100241 
4694.000000	64.079475 
4693.000000	64.052319 
4692.000000	64.015984 
4691.000000	63.970184 
4690.000000	63.917064 
4689.000000	63.861298 
4688.000000	63.809037 
4687.000000	63.766789 
4686.000000	63.739895 
4685.000000	63.731312 
4684.000000	63.740658 
4683.000000	63.764905 
4682.000000	63.798594 
4681.000000	63.834285 
4680.000000	63.864350 
4679.000000	63.882088 
4678.000000	63.883662 
4677.000000	63.867783 
4676.000000	63.836765 
4675.000000	63.796019 
4674.000000	63.753151 
4673.000000	63.716578 
4672.000000	63.693737 
4671.000000	63.689970 
4670.000000	63.706994 
4669.000000	63.743400 
4668.000000	63.794589 
4667.000000	63.853693 
4666.000000	63.913655 
4665.000000	63.968634 
4664.000000	64.015126 
4663.000000	64.052319 
4662.000000	64.081740 
4661.000000	64.106154 
4660.000000	64.127492 
4659.000000	64.145588 
4658.000000	64.158082 
4657.000000	64.160847 
4656.000000	64.149212 
4655.000000	64.119505 
4654.000000	64.071226 
4653.000000	64.007306 
4652.000000	63.933801 
4651.000000	63.858675 
4650.000000	63.789796 
4649.000000	63.733577 
4648.000000	63.693785 
4647.000000	63.671636 
4646.000000	63.665604 
4645.000000	63.672971 
4644.000000	63.690614 
4643.000000	63.715958 
4642.000000	63.746953 
4641.000000	63.782358 
4640.000000	63.820743 
4639.000000	63.860845 
4638.000000	63.900160 
4637.000000	63.936638 
4636.000000	63.968634 
4635.000000	63.995981 
4634.000000	64.019632 
4633.000000	64.041852 
4632.000000	64.065361 
4631.000000	64.092183 
4630.000000	64.122724 
4629.000000	64.155364 
4628.000000	64.186549 
4627.000000	64.211893 
4626.000000	64.227032 
4625.000000	64.228796 
4624.000000	64.216208 
4623.000000	64.191198 
4622.000000	64.157962 
4621.000000	64.122271 
4620.000000	64.089941 
4619.000000	64.066267 
4618.000000	64.053845 
4617.000000	64.052462 
4616.000000	64.058732 
4615.000000	64.067602 
4614.000000	64.073181 
4613.000000	64.070510 
4612.000000	64.056563 
4611.000000	64.030838 
4610.000000	63.995647 
4609.000000	63.955545 
4608.000000	63.915991 
4607.000000	63.881969 
4606.000000	63.857364 
4605.000000	63.844227 
4604.000000	63.842391 
4603.000000	63.849830 
4602.000000	63.863968 
4601.000000	63.882660 
4600.000000	63.904118 
4599.000000	63.927793 
4598.000000	63.953995 
4597.000000	63.983917 
4596.000000	64.018630 
4595.000000	64.058852 
4594.000000	64.104461 
4593.000000	64.154267 
4592.000000	64.206552 
4591.000000	64.258313 
4590.000000	64.305901 
4589.000000	64.345240 
4588.000000	64.372849 
4587.000000	64.386081 
4586.000000	64.383959 
4585.000000	64.367389 
4584.000000	64.339494 
4583.000000	64.304375 
4582.000000	64.266633 
4581.000000	64.229774 
4580.000000	64.195823 
4579.000000	64.163970 
4578.000000	64.131355 
4577.000000	64.093613 
4576.000000	64.046669 
4575.000000	63.987994 
4574.000000	63.918399 
4573.000000	63.841891 
4572.000000	63.766002 
4571.000000	63.700580 
4570.000000	63.656044 
4569.000000	63.640260 
4568.000000	63.657093 
4567.000000	63.705635 
4566.000000	63.779830 
4565.000000	63.869547 
4564.000000	63.962531 
4563.000000	64.046502 
4562.000000	64.111590 
4561.000000	64.151883 
4560.000000	64.166140 
4559.000000	64.157009 
4558.000000	64.130616 
4557.000000	64.094710 
4556.000000	64.057087 
4555.000000	64.023971 
4554.000000	63.999485 
4553.000000	63.985776 
4552.000000	63.982343 
4551.000000	63.986778 
4550.000000	63.995432 
4549.000000	64.004158 
4548.000000	64.008188 
4547.000000	64.002656 
4546.000000	63.983106 
4545.000000	63.946270 
4544.000000	63.890862 
4543.000000	63.818430 
4542.000000	63.733100 
4541.000000	63.642287 
4540.000000	63.555073 
4539.000000	63.482022 
4538.000000	63.432455 
4537.000000	63.414192 
4536.000000	63.431644 
4535.000000	63.485860 
4534.000000	63.573241 
4533.000000	63.687300 
4532.000000	63.819289 
4531.000000	63.959884 
4530.000000	64.099502 
4529.000000	64.230656 
4528.000000	64.347982 
4527.000000	64.448833 
4526.000000	64.532589 
4525.000000	64.599704 
4524.000000	64.650559 
4523.000000	64.685368 
4522.000000	64.703726 
4521.000000	64.704418 
4520.000000	64.685702 
4519.000000	64.647126 
4518.000000	64.589643 
4517.000000	64.516258 
4516.000000	64.431667 
4515.000000	64.342427 
4514.000000	64.255547 
4513.000000	64.176964 
4512.000000	64.111018 
4511.000000	64.059901 
4510.000000	64.023613 
4509.000000	64.000225 
4508.000000	63.987183 
4507.000000	63.981676 
4506.000000	63.981795 
4505.000000	63.986468 
4504.000000	63.995623 
4503.000000	64.008688 
4502.000000	64.025759 
4501.000000	64.046955 
4500.000000	64.071893 
4499.000000	64.099049 
4498.000000	64.127302 
4497.000000	64.156103 
4496.000000	64.185070 
4495.000000	64.214015 
4494.000000	64.243292 
4493.000000	64.273428 
4492.000000	64.304780 
4491.000000	64.337587 
4490.000000	64.371824 
4489.000000	64.407348 
4488.000000	64.444208 
4487.000000	64.482069 
4486.000000	64.520716 
4485.000000	64.559268 
4484.000000	64.596867 
4483.000000	64.631819 
4482.000000	64.661931 
4481.000000	64.684128 
4480.000000	64.695906 
4479.000000	64.694166 
4478.000000	64.676547 
4477.000000	64.640927 
4476.000000	64.586710 
4475.000000	64.514493 
4474.000000	64.426898 
4473.000000	64.328074 
4472.000000	64.223861 
4471.000000	64.121556 
4470.000000	64.029097 
4469.000000	63.953971 
4468.000000	63.901925 
4467.000000	63.875555 
4466.000000	63.873910 
4465.000000	63.891959 
4464.000000	63.922119 
4463.000000	63.955259 
4462.000000	63.982939 
4461.000000	63.998508 
4460.000000	63.998746 
4459.000000	63.983774 
4458.000000	63.956952 
4457.000000	63.923048 
4456.000000	63.887548 
4455.000000	63.855361 
4454.000000	63.829731 
4453.000000	63.812303 
4452.000000	63.802289 
4451.000000	63.797783 
4450.000000	63.795447 
4449.000000	63.791918 
4448.000000	63.784122 
4447.000000	63.770031 
4446.000000	63.749241 
4445.000000	63.722920 
4444.000000	63.694548 
4443.000000	63.669204 
4442.000000	63.653087 
4441.000000	63.652062 
4440.000000	63.670921 
4439.000000	63.711690 
4438.000000	63.773202 
4437.000000	63.850450 
4436.000000	63.934707 
4435.000000	64.015364 
4434.000000	64.081740 
4433.000000	64.125657 
4432.000000	64.142847 
4431.000000	64.134097 
4430.000000	64.105367 
4429.000000	64.066004 
4428.000000	64.025998 
4427.000000	63.994145 
4426.000000	63.977074 
4425.000000	63.976883 
4424.000000	63.991713 
4423.000000	64.015913 
4422.000000	64.042782 
4421.000000	64.064955 
4420.000000	64.076375 
4419.000000	64.072799 
4418.000000	64.052629 
4417.000000	64.014244 
4416.000000	63.956260 
4415.000000	63.877248 
4414.000000	63.777041 
4413.000000	63.660788 
4412.000000	63.538694 
4411.000000	63.424253 
4410.000000	63.331747 
4409.000000	63.271522 
4408.000000	63.249158 
4407.000000	63.263010 
4406.000000	63.307738 
4405.000000	63.374233 
4404.000000	63.455390 
4403.000000	63.548421 
4402.000000	63.654780 
4401.000000	63.778567 
4400.000000	63.922119 
4399.000000	64.082622 
4398.000000	64.249944 
4397.000000	64.403605 
4396.000000	64.523410 
4395.000000	64.592003 
4394.000000	64.608788 
4393.000000	64.595150 
4392.000000	64.582681 
4391.000000	64.604544 
4390.000000	64.679288 
4389.000000	64.804053 
4388.000000	64.940023 
4387.000000	65.023922 
4386.000000	64.990448 
4385.000000	64.796400 
4384.000000	64.441275 
4383.000000	63.974881 
4382.000000	63.488793 
4381.000000	63.094830 
4380.000000	62.898015 
4379.000000	62.966442 
4378.000000	63.301873 
4377.000000	63.848090 
4376.000000	64.502382 
4375.000000	65.150094 
4374.000000	65.698432 
4373.000000	66.094589 
4372.000000	66.347432 
4371.000000	66.495180 
4370.000000	66.589808 
4369.000000	66.654610 
4368.000000	66.671490 
4367.000000	66.569638 
4366.000000	66.248488 
4365.000000	65.603494 
4364.000000	64.569973 
4363.000000	63.140058 
4362.000000	61.382961 
4361.000000	59.432673 
4360.000000	57.472729 
4359.000000	55.701541 
4358.000000	54.304623 
4357.000000	53.418874 
4356.000000	53.120589 
4355.000000	53.417491 
4354.000000	54.257988 
4353.000000	55.536985 
4352.000000	57.121229 
4351.000000	58.856892 
4350.000000	60.599422 
4349.000000	62.208557 
4348.000000	63.579988 
4347.000000	64.638924 
4346.000000	65.356016 
4345.000000	65.743136 
4344.000000	65.844583 
4343.000000	65.731406 
4342.000000	65.478372 
4341.000000	65.160989 
4340.000000	64.835023 
4339.000000	64.541172 
4338.000000	64.298415 
4337.000000	64.116287 
4336.000000	63.990664 
4335.000000	63.913130 
4334.000000	63.874363 
4333.000000	63.868927 
4332.000000	63.890361 
4331.000000	63.932609 
4330.000000	63.990402 
4329.000000	64.059138 
4328.000000	64.128899 
4327.000000	64.189100 
4326.000000	64.233875 
4325.000000	64.261531 
4324.000000	64.273357 
4323.000000	64.273595 
4322.000000	64.266014 
4321.000000	64.254188 
4320.000000	64.244771 
4319.000000	64.241313 
4318.000000	64.240813 
4317.000000	64.237618 
4316.000000	64.229512 
4315.000000	64.212703 
4314.000000	64.182066 
4313.000000	64.135146 
4312.000000	64.073538 
4311.000000	64.002203 
4310.000000	63.928675 
4309.000000	63.861322 
4308.000000	63.807177 
4307.000000	63.772082 
4306.000000	63.759160 
4305.000000	63.767719 
4304.000000	63.793635 
4303.000000	63.830280 
4302.000000	63.870716 
4301.000000	63.908672 
4300.000000	63.940763 
4299.000000	63.965845 
4298.000000	63.986301 
4297.000000	64.006710 
4296.000000	64.032983 
4295.000000	64.070153 
4294.000000	64.120697 
4293.000000	64.184165 
4292.000000	64.255571 
4291.000000	64.327478 
4290.000000	64.389753 
4289.000000	64.432621 
4288.000000	64.448094 
4287.000000	64.432096 
4286.000000	64.385628 
4285.000000	64.314675 
4284.000000	64.229846 
4283.000000	64.144039 
4282.000000	64.070463 
4281.000000	64.019751 
4280.000000	63.998198 
4279.000000	64.006400 
4278.000000	64.038801 
4277.000000	64.085006 
4276.000000	64.131665 
4275.000000	64.165973 
4274.000000	64.177942 
4273.000000	64.163136 
4272.000000	64.122891 
4271.000000	64.064311 
4270.000000	63.998413 
4269.000000	63.937568 
4268.000000	63.892459 
4267.000000	63.869452 
4266.000000	63.869929 
4265.000000	63.889479 
4264.000000	63.919973 
4263.000000	63.951253 
4262.000000	63.973879 
4261.000000	63.981294 
4260.000000	63.970756 
4259.000000	63.944172 
4258.000000	63.907003 
4257.000000	63.866877 
4256.000000	63.831090 
4255.000000	63.805270 
4254.000000	63.791871 
4253.000000	63.790106 
4252.000000	63.796377 
4251.000000	63.804721 
4250.000000	63.808298 
4249.000000	63.801193 
4248.000000	63.779902 
4247.000000	63.743591 
4246.000000	63.694858 
4245.000000	63.638615 
4244.000000	63.581681 
4243.000000	63.531184 
4242.000000	63.493537 
4241.000000	63.473033 
4240.000000	63.471341 
4239.000000	63.487172 
4238.000000	63.516807 
4237.000000	63.555073 
4236.000000	63.596153 
4235.000000	63.634109 
4234.000000	63.664221 
4233.000000	63.683223 
4232.000000	63.690137 
4231.000000	63.685989 
4230.000000	63.673591 
4229.000000	63.656592 
4228.000000	63.639664 
4227.000000	63.627243 
4226.000000	63.623070 
4225.000000	63.629245 
4224.000000	63.646078 
4223.000000	63.671851 
4222.000000	63.703203 
4221.000000	63.735699 
4220.000000	63.764429 
4219.000000	63.785338 
4218.000000	63.795924 
4217.000000	63.796043 
4216.000000	63.787603 
4215.000000	63.774561 
4214.000000	63.762331 
4213.000000	63.756227 
4212.000000	63.760399 
4211.000000	63.776731 
4210.000000	63.805150 
4209.000000	63.842678 
4208.000000	63.884377 
4207.000000	63.923907 
4206.000000	63.955187 
4205.000000	63.972520 
4204.000000	63.972067 
4203.000000	63.951659 
4202.000000	63.910961 
4201.000000	63.851404 
4200.000000	63.776159 
4199.000000	63.689470 
4198.000000	63.596749 
4197.000000	63.504052 
4196.000000	63.418006 
4195.000000	63.345217 
4194.000000	63.291954 
4193.000000	63.263297 
4192.000000	63.262915 
4191.000000	63.291096 
4190.000000	63.345813 
4189.000000	63.422274 
4188.000000	63.514232 
4187.000000	63.613390 
4186.000000	63.711857 
4185.000000	63.802671 
4184.000000	63.881134 
4183.000000	63.944745 
4182.000000	63.992905 
4181.000000	64.026689 
4180.000000	64.047408 
4179.000000	64.056921 
4178.000000	64.055895 
4177.000000	64.044284 
4176.000000	64.021563 
4175.000000	63.987874 
4174.000000	63.944935 
4173.000000	63.896656 
4172.000000	63.849043 
4171.000000	63.809299 
4170.000000	63.783836 
4169.000000	63.776302 
4168.000000	63.786745 
4167.000000	63.810706 
4166.000000	63.839697 
4165.000000	63.862800 
4164.000000	63.869190 
4163.000000	63.850569 
4162.000000	63.802814 
4161.000000	63.727617 
4160.000000	63.631200 
4159.000000	63.524627 
4158.000000	63.421130 
4157.000000	63.334274 
4156.000000	63.274836 
4155.000000	63.249588 
4154.000000	63.260769 
4153.000000	63.305187 
4152.000000	63.375163 
4151.000000	63.459777 
4150.000000	63.547086 
4149.000000	63.625812 
4148.000000	63.686943 
4147.000000	63.725662 
4146.000000	63.741469 
4145.000000	63.738250 
4144.000000	63.722825 
4143.000000	63.703227 
4142.000000	63.686466 
4141.000000	63.677334 
4140.000000	63.677024 
4139.000000	63.683581 
4138.000000	63.692188 
4137.000000	63.697528 
4136.000000	63.694763 
4135.000000	63.680696 
4134.000000	63.654708 
4133.000000	63.618326 
4132.000000	63.575220 
4131.000000	63.530039 
4130.000000	63.487505 
4129.000000	63.451552 
4128.000000	63.424468 
4127.000000	63.406372 
4126.000000	63.396000 
4125.000000	63.391256 
4124.000000	63.389873 
4123.000000	63.389849 
4122.000000	63.389825 
4121.000000	63.389205 
4120.000000	63.387846 
4119.000000	63.385629 
4118.000000	63.381886 
4117.000000	63.375377 
4116.000000	63.365173 
4115.000000	63.350725 
4114.000000	63.332366 
4113.000000	63.311457 
4112.000000	63.289999 
4111.000000	63.270282 
4110.000000	63.254237 
4109.000000	63.243103 
4108.000000	63.236975 
4107.000000	63.235139 
4106.000000	63.236117 
4105.000000	63.238811 
4104.000000	63.242435 
4103.000000	63.247346 
4102.000000	63.254690 
4101.000000	63.266205 
4100.000000	63.283514 
4099.000000	63.307666 
4098.000000	63.338375 
4097.000000	63.373804 
4096.000000	63.410711 
4095.000000	63.444876 
4094.000000	63.472151 
4093.000000	63.489174 
4092.000000	63.494014 
4091.000000	63.486671 
4090.000000	63.469028 
4089.000000	63.444685 
4088.000000	63.418149 
4087.000000	63.393974 
4086.000000	63.375687 
4085.000000	63.365221 
4084.000000	63.362312 
4083.000000	63.365054 
4082.000000	63.370442 
4081.000000	63.375306 
4080.000000	63.377213 
4079.000000	63.375163 
4078.000000	63.369512 
4077.000000	63.361358 
4076.000000	63.352108 
4075.000000	63.343095 
4074.000000	63.334774 
4073.000000	63.326787 
4072.000000	63.318037 
4071.000000	63.307571 
4070.000000	63.294506 
4069.000000	63.278532 
4068.000000	63.260030 
4067.000000	63.239884 
4066.000000	63.219189 
4065.000000	63.198995 
4064.000000	63.179993 
4063.000000	63.162446 
4062.000000	63.146638 
4061.000000	63.132929 
4060.000000	63.121891 
4059.000000	63.114118 
4058.000000	63.110303 
4057.000000	63.111066 
4056.000000	63.116192 
4055.000000	63.125348 
4054.000000	63.137984 
4053.000000	63.153815 
4052.000000	63.172912 
4051.000000	63.195776 
4050.000000	63.222956 
4049.000000	63.254833 
4048.000000	63.291144 
4047.000000	63.330864 
4046.000000	63.372063 
4045.000000	63.412213 
4044.000000	63.448858 
4043.000000	63.479852 
4042.000000	63.503885 
4041.000000	63.520646 
4040.000000	63.531017 
4039.000000	63.536643 
4038.000000	63.539576 
4037.000000	63.541436 
4036.000000	63.542985 
4035.000000	63.543725 
4034.000000	63.541698 
4033.000000	63.534259 
4032.000000	63.518452 
4031.000000	63.491916 
4030.000000	63.453745 
4029.000000	63.404917 
4028.000000	63.348674 
4027.000000	63.290047 
4026.000000	63.235139 
4025.000000	63.190007 
4024.000000	63.159799 
4023.000000	63.147330 
4022.000000	63.153100 
4021.000000	63.174843 
4020.000000	63.208341 
4019.000000	63.248419 
4018.000000	63.289761 
4017.000000	63.327598 
4016.000000	63.358473 
4015.000000	63.380241 
4014.000000	63.392066 
4013.000000	63.393855 
4012.000000	63.386225 
4011.000000	63.370227 
4010.000000	63.347458 
4009.000000	63.319492 
4008.000000	63.287854 
4007.000000	63.253903 
4006.000000	63.218879 
4005.000000	63.183951 
4004.000000	63.150024 
4003.000000	63.118243 
4002.000000	63.089847 
4001.000000	63.066649 
4000.000000	63.050293 
3999.000000	63.042616 
3998.000000	63.044762 
3997.000000	63.057279 
3996.000000	63.079071 
3995.000000	63.108038 
3994.000000	63.140559 
3993.000000	63.172745 
3992.000000	63.200664 
3991.000000	63.221359 
3990.000000	63.232946 
3989.000000	63.235306 
3988.000000	63.229799 
3987.000000	63.218903 
3986.000000	63.205456 
3985.000000	63.192605 
3984.000000	63.183331 
3983.000000	63.180017 
3982.000000	63.184046 
3981.000000	63.195633 
3980.000000	63.213992 
3979.000000	63.237190 
3978.000000	63.263010 
3977.000000	63.288950 
3976.000000	63.313102 
3975.000000	63.334560 
3974.000000	63.353323 
3973.000000	63.369822 
3972.000000	63.384580 
3971.000000	63.398051 
3970.000000	63.409662 
3969.000000	63.417863 
3968.000000	63.420152 
3967.000000	63.413882 
3966.000000	63.396835 
3965.000000	63.368129 
3964.000000	63.328552 
3963.000000	63.280749 
3962.000000	63.228607 
3961.000000	63.176798 
3960.000000	63.129639 
3959.000000	63.090324 
3958.000000	63.060569 
3957.000000	63.040518 
3956.000000	63.029003 
3955.000000	63.024044 
3954.000000	63.023209 
3953.000000	63.024401 
3952.000000	63.025736 
3951.000000	63.026452 
3950.000000	63.026690 
3949.000000	63.027787 
3948.000000	63.031625 
3947.000000	63.040399 
3946.000000	63.056087 
3945.000000	63.079786 
3944.000000	63.110971 
3943.000000	63.147544 
3942.000000	63.186049 
3941.000000	63.222122 
3940.000000	63.251161 
3939.000000	63.269710 
3938.000000	63.275957 
3937.000000	63.270711 
3936.000000	63.257074 
3935.000000	63.240003 
3934.000000	63.225007 
3933.000000	63.217115 
3932.000000	63.219809 
3931.000000	63.234090 
3930.000000	63.258099 
3929.000000	63.288068 
3928.000000	63.319158 
3927.000000	63.346576 
3926.000000	63.366436 
3925.000000	63.376736 
3924.000000	63.377594 
3923.000000	63.370919 
3922.000000	63.359475 
3921.000000	63.346242 
3920.000000	63.333296 
3919.000000	63.321399 
3918.000000	63.309884 
3917.000000	63.296818 
3916.000000	63.279962 
3915.000000	63.257694 
3914.000000	63.229680 
3913.000000	63.197088 
3912.000000	63.162803 
3911.000000	63.130545 
3910.000000	63.104605 
3909.000000	63.088488 
3908.000000	63.084554 
3907.000000	63.093423 
3906.000000	63.113975 
3905.000000	63.143467 
3904.000000	63.178324 
3903.000000	63.214635 
3902.000000	63.248896 
3901.000000	63.278293 
3900.000000	63.301110 
3899.000000	63.316869 
3898.000000	63.326096 
3897.000000	63.329696 
3896.000000	63.329339 
3895.000000	63.326215 
3894.000000	63.321375 
3893.000000	63.314962 
3892.000000	63.306498 
3891.000000	63.295054 
3890.000000	63.279795 
3889.000000	63.260602 
3888.000000	63.238310 
3887.000000	63.215541 
3886.000000	63.196229 
3885.000000	63.185048 
3884.000000	63.186240 
3883.000000	63.202428 
3882.000000	63.233733 
3881.000000	63.277029 
3880.000000	63.326263 
3879.000000	63.373374 
3878.000000	63.409852 
3877.000000	63.428568 
3876.000000	63.425326 
3875.000000	63.399624 
3874.000000	63.354945 
3873.000000	63.297677 
3872.000000	63.235807 
3871.000000	63.176965 
3870.000000	63.126897 
3869.000000	63.088655 
3868.000000	63.062596 
3867.000000	63.046741 
3866.000000	63.038110 
3865.000000	63.033962 
3864.000000	63.033056 
3863.000000	63.035440 
3862.000000	63.043022 
3861.000000	63.058018 
3860.000000	63.082814 
3859.000000	63.118243 
3858.000000	63.163161 
3857.000000	63.213992 
3856.000000	63.265562 
3855.000000	63.312005 
3854.000000	63.347768 
3853.000000	63.368797 
3852.000000	63.373184 
3851.000000	63.361692 
3850.000000	63.336968 
3849.000000	63.302874 
3848.000000	63.263678 
3847.000000	63.223123 
3846.000000	63.184142 
3845.000000	63.148498 
3844.000000	63.117074 
3843.000000	63.089942 
3842.000000	63.066554 
3841.000000	63.046240 
3840.000000	63.028025 
3839.000000	63.011479 
3838.000000	62.995767 
3837.000000	62.980818 
3836.000000	62.966680 
3835.000000	62.954306 
3834.000000	62.944889 
3833.000000	62.940526 
3832.000000	62.942957 
3831.000000	62.953782 
3830.000000	62.973856 
3829.000000	63.002967 
3828.000000	63.039398 
3827.000000	63.080310 
3826.000000	63.122272 
3825.000000	63.161659 
3824.000000	63.194966 
3823.000000	63.219714 
3822.000000	63.234663 
3821.000000	63.239765 
3820.000000	63.236045 
3819.000000	63.225388 
3818.000000	63.209986 
3817.000000	63.192224 
3816.000000	63.174080 
3815.000000	63.157105 
3814.000000	63.141989 
3813.000000	63.129115 
3812.000000	63.118386 
3811.000000	63.109302 
3810.000000	63.101220 
3809.000000	63.093543 
3808.000000	63.086032 
3807.000000	63.078594 
3806.000000	63.071107 
3805.000000	63.063621 
3804.000000	63.055729 
3803.000000	63.046574 
3802.000000	63.034915 
3801.000000	63.019156 
3800.000000	62.998294 
3799.000000	62.972140 
3798.000000	62.941718 
3797.000000	62.909340 
3796.000000	62.878251 
3795.000000	62.852096 
3794.000000	62.833666 
3793.000000	62.824416 
3792.000000	62.824010 
3791.000000	62.830615 
3790.000000	62.841057 
3789.000000	62.852001 
3788.000000	62.860703 
3787.000000	62.866163 
3786.000000	62.868905 
3785.000000	62.871050 
3784.000000	62.875247 
3783.000000	62.883949 
3782.000000	62.898397 
3781.000000	62.918281 
3780.000000	62.941741 
3779.000000	62.965703 
3778.000000	62.987041 
3777.000000	63.003039 
3776.000000	63.011980 
3775.000000	63.013505 
3774.000000	63.008737 
3773.000000	62.999534 
3772.000000	62.987875 
3771.000000	62.975621 
3770.000000	62.964129 
3769.000000	62.953948 
3768.000000	62.945032 
3767.000000	62.936973 
3766.000000	62.929368 
3765.000000	62.921857 
3764.000000	62.914395 
3763.000000	62.907099 
3762.000000	62.900280 
3761.000000	62.894201 
3760.000000	62.889051 
3759.000000	62.884879 
3758.000000	62.881398 
3757.000000	62.877964 
3756.000000	62.873840 
3755.000000	62.868094 
3754.000000	62.860226 
3753.000000	62.850093 
3752.000000	62.838649 
3751.000000	62.827420 
3750.000000	62.818956 
3749.000000	62.816286 
3748.000000	62.822341 
3747.000000	62.839078 
3746.000000	62.866878 
3745.000000	62.904238 
3744.000000	62.947630 
3743.000000	62.992072 
3742.000000	63.032007 
3741.000000	63.062453 
3740.000000	63.079762 
3739.000000	63.082599 
3738.000000	63.072037 
3737.000000	63.051128 
3736.000000	63.024258 
3735.000000	62.996101 
3734.000000	62.971115 
3733.000000	62.952256 
3732.000000	62.941360 
3731.000000	62.938380 
3730.000000	62.942075 
3729.000000	62.950062 
3728.000000	62.959575 
3727.000000	62.967634 
3726.000000	62.971496 
3725.000000	62.969231 
3724.000000	62.959623 
3723.000000	62.943077 
3722.000000	62.921261 
3721.000000	62.897181 
3720.000000	62.874603 
3719.000000	62.857151 
3718.000000	62.847828 
3717.000000	62.847805 
3716.000000	62.856221 
3715.000000	62.870240 
3714.000000	62.885737 
3713.000000	62.897992 
3712.000000	62.902951 
3711.000000	62.898325 
3710.000000	62.884211 
3709.000000	62.862634 
3708.000000	62.837338 
3707.000000	62.812757 
3706.000000	62.793016 
3705.000000	62.780809 
3704.000000	62.777161 
3703.000000	62.781190 
3702.000000	62.790608 
3701.000000	62.802600 
3700.000000	62.814402 
3699.000000	62.823891 
3698.000000	62.829828 
3697.000000	62.831807 
3696.000000	62.830328 
3695.000000	62.826085 
3694.000000	62.820029 
3693.000000	62.812900 
3692.000000	62.805247 
3691.000000	62.797474 
3690.000000	62.789893 
3689.000000	62.782740 
3688.000000	62.776088 
3687.000000	62.769842 
3686.000000	62.763500 
3685.000000	62.756419 
3684.000000	62.747931 
3683.000000	62.737607 
3682.000000	62.725424 
3681.000000	62.712001 
3680.000000	62.698483 
3679.000000	62.686514 
3678.000000	62.677764 
3677.000000	62.673711 
3676.000000	62.674951 
3675.000000	62.681055 
3674.000000	62.691044 
3673.000000	62.703037 
3672.000000	62.714695 
3671.000000	62.723779 
3670.000000	62.728595 
3669.000000	62.728166 
3668.000000	62.722611 
3667.000000	62.712717 
3666.000000	62.699747 
3665.000000	62.684941 
3664.000000	62.669372 
3663.000000	62.653374 
3662.000000	62.636685 
3661.000000	62.618684 
3660.000000	62.598752 
3659.000000	62.576627 
3658.000000	62.552976 
3657.000000	62.529349 
3656.000000	62.508106 
3655.000000	62.492084 
3654.000000	62.483954 
3653.000000	62.485527 
3652.000000	62.497448 
3651.000000	62.518763 
3650.000000	62.547373 
3649.000000	62.580370 
3648.000000	62.614607 
3647.000000	62.647342 
3646.000000	62.676382 
3645.000000	62.700414 
3644.000000	62.718605 
3643.000000	62.730669 
3642.000000	62.736392 
3641.000000	62.735390 
3640.000000	62.727284 
3639.000000	62.712001 
3638.000000	62.689685 
3637.000000	62.661242 
3636.000000	62.628221 
3635.000000	62.593150 
3634.000000	62.558984 
3633.000000	62.528777 
3632.000000	62.505483 
3631.000000	62.491178 
3630.000000	62.486886 
3629.000000	62.492227 
3628.000000	62.505769 
3627.000000	62.524890 
3626.000000	62.546443 
3625.000000	62.566947 
3624.000000	62.583184 
3623.000000	62.592649 
3622.000000	62.593746 
3621.000000	62.586069 
3620.000000	62.570405 
3619.000000	62.548613 
3618.000000	62.523603 
3617.000000	62.498617 
3616.000000	62.476944 
3615.000000	62.461423 
3614.000000	62.454009 
3613.000000	62.455129 
3612.000000	62.463998 
3611.000000	62.478542 
3610.000000	62.496137 
3609.000000	62.513828 
3608.000000	62.528991 
3607.000000	62.539911 
3606.000000	62.546157 
3605.000000	62.548565 
3604.000000	62.548804 
3603.000000	62.548875 
3602.000000	62.550282 
3601.000000	62.553882 
3600.000000	62.559366 
3599.000000	62.565612 
3598.000000	62.570738 
3597.000000	62.572717 
3596.000000	62.569975 
3595.000000	62.561869 
3594.000000	62.548995 
3593.000000	62.532806 
3592.000000	62.515640 
3591.000000	62.500214 
3590.000000	62.488913 
3589.000000	62.483477 
3588.000000	62.484097 
3587.000000	62.489461 
3586.000000	62.496685 
3585.000000	62.502288 
3584.000000	62.502574 
3583.000000	62.494659 
3582.000000	62.477469 
3581.000000	62.451863 
3580.000000	62.421131 
3579.000000	62.390089 
3578.000000	62.364196 
3577.000000	62.348198 
3576.000000	62.345099 
3575.000000	62.355089 
3574.000000	62.375497 
3573.000000	62.401175 
3572.000000	62.425732 
3571.000000	62.442970 
3570.000000	62.448191 
3569.000000	62.439346 
3568.000000	62.417078 
3567.000000	62.384772 
3566.000000	62.347435 
3565.000000	62.310957 
3564.000000	62.280893 
3563.000000	62.261486 
3562.000000	62.255167 
3561.000000	62.261962 
3560.000000	62.279915 
3559.000000	62.305378 
3558.000000	62.333798 
3557.000000	62.360596 
3556.000000	62.382030 
3555.000000	62.395596 
3554.000000	62.400245 
3553.000000	62.396478 
3552.000000	62.385988 
3551.000000	62.371134 
3550.000000	62.354302 
3549.000000	62.337350 
3548.000000	62.321639 
3547.000000	62.308025 
3546.000000	62.297201 
3545.000000	62.289857 
3544.000000	62.286710 
3543.000000	62.288904 
3542.000000	62.297177 
3541.000000	62.311816 
3540.000000	62.332105 
3539.000000	62.355899 
3538.000000	62.380003 
3537.000000	62.400603 
3536.000000	62.414121 
3535.000000	62.417960 
3534.000000	62.411165 
3533.000000	62.394618 
3532.000000	62.370657 
3531.000000	62.342905 
3530.000000	62.314581 
3529.000000	62.287855 
3528.000000	62.263607 
3527.000000	62.241220 
3526.000000	62.219834 
3525.000000	62.199258 
3524.000000	62.180542 
3523.000000	62.166094 
3522.000000	62.159490 
3521.000000	62.164258 
3520.000000	62.182617 
3519.000000	62.214446 
3518.000000	62.256979 
3517.000000	62.304878 
3516.000000	62.351584 
3515.000000	62.390041 
3514.000000	62.414383 
3513.000000	62.420797 
3512.000000	62.408161 
3511.000000	62.378597 
3510.000000	62.336921 
3509.000000	62.289738 
3508.000000	62.244343 
3507.000000	62.207365 
3506.000000	62.183928 
3505.000000	62.176513 
3504.000000	62.185168 
3503.000000	62.206959 
3502.000000	62.236952 
3501.000000	62.268710 
3500.000000	62.295699 
3499.000000	62.312197 
3498.000000	62.314367 
3497.000000	62.300896 
3496.000000	62.273073 
3495.000000	62.234544 
3494.000000	62.190604 
3493.000000	62.147378 
3492.000000	62.110638 
3491.000000	62.085223 
3490.000000	62.073969 
3489.000000	62.077641 
3488.000000	62.094402 
3487.000000	62.120413 
3486.000000	62.150359 
3485.000000	62.177920 
3484.000000	62.197566 
3483.000000	62.205171 
3482.000000	62.199139 
3481.000000	62.180471 
3480.000000	62.152576 
3479.000000	62.120199 
3478.000000	62.088656 
3477.000000	62.062740 
3476.000000	62.045288 
3475.000000	62.036824 
3474.000000	62.035894 
3473.000000	62.039709 
3472.000000	62.045049 
3471.000000	62.049388 
3470.000000	62.051558 
3469.000000	62.051796 
3468.000000	62.051606 
3467.000000	62.053060 
3466.000000	62.057781 
3465.000000	62.066102 
3464.000000	62.077045 
3463.000000	62.088227 
3462.000000	62.096786 
3461.000000	62.100100 
3460.000000	62.096452 
3459.000000	62.085556 
3458.000000	62.068796 
3457.000000	62.049150 
3456.000000	62.030434 
3455.000000	62.016701 
3454.000000	62.010979 
3453.000000	62.014937 
3452.000000	62.028670 
3451.000000	62.050461 
3450.000000	62.077355 
3449.000000	62.105584 
3448.000000	62.131428 
3447.000000	62.151813 
3446.000000	62.164831 
3445.000000	62.169861 
3444.000000	62.167453 
3443.000000	62.159156 
3442.000000	62.147068 
3441.000000	62.133455 
3440.000000	62.120294 
3439.000000	62.109112 
3438.000000	62.100768 
3437.000000	62.095522 
3436.000000	62.093162 
3435.000000	62.092971 
3434.000000	62.093615 
3433.000000	62.093400 
3432.000000	62.090158 
3431.000000	62.081694 
3430.000000	62.066006 
3429.000000	62.041950 
3428.000000	62.009525 
3427.000000	61.970090 
3426.000000	61.926507 
3425.000000	61.882400 
3424.000000	61.841869 
3423.000000	61.808538 
3422.000000	61.784934 
3421.000000	61.772084 
3420.000000	61.769247 
3419.000000	61.774063 
3418.000000	61.783385 
3417.000000	61.793899 
3416.000000	61.802673 
3415.000000	61.807608 
3414.000000	61.807537 
3413.000000	61.802148 
3412.000000	61.791515 
3411.000000	61.776256 
3410.000000	61.757087 
3409.000000	61.734914 
3408.000000	61.710953 
3407.000000	61.686825 
3406.000000	61.664295 
3405.000000	61.645340 
3404.000000	61.631965 
3403.000000	61.625790 
3402.000000	61.628055 
3401.000000	61.638736 
3400.000000	61.657023 
3399.000000	61.680698 
3398.000000	61.706328 
3397.000000	61.729812 
3396.000000	61.746931 
3395.000000	61.754584 
3394.000000	61.751103 
3393.000000	61.737275 
3392.000000	61.716032 
3391.000000	61.692047 
3390.000000	61.670780 
3389.000000	61.657285 
3388.000000	61.655092 
3387.000000	61.665105 
3386.000000	61.685323 
3385.000000	61.711502 
3384.000000	61.737990 
3383.000000	61.759305 
3382.000000	61.771202 
3381.000000	61.771774 
3380.000000	61.761689 
3379.000000	61.743664 
3378.000000	61.721682 
3377.000000	61.699986 
3376.000000	61.682248 
3375.000000	61.671066 
3374.000000	61.667490 
3373.000000	61.671471 
3372.000000	61.681699 
3371.000000	61.696052 
3370.000000	61.711668 
3369.000000	61.725425 
3368.000000	61.734414 
3367.000000	61.736202 
3366.000000	61.729454 
3365.000000	61.714029 
3364.000000	61.691761 
3363.000000	61.666083 
3362.000000	61.641645 
3361.000000	61.623263 
3360.000000	61.615037 
3359.000000	61.619448 
3358.000000	61.636614 
3357.000000	61.664366 
3356.000000	61.698532 
3355.000000	61.734127 
3354.000000	61.766505 
3353.000000	61.792278 
3352.000000	61.809682 
3351.000000	61.818790 
3350.000000	61.821079 
3349.000000	61.818718 
3348.000000	61.813998 
3347.000000	61.808729 
3346.000000	61.804032 
3345.000000	61.800360 
3344.000000	61.797714 
3343.000000	61.795783 
3342.000000	61.794447 
3341.000000	61.793661 
3340.000000	61.793708 
3339.000000	61.794424 
3338.000000	61.795163 
3337.000000	61.794090 
3336.000000	61.788821 
3335.000000	61.776494 
3334.000000	61.754798 
3333.000000	61.722946 
3332.000000	61.682391 
3331.000000	61.637043 
3330.000000	61.592841 
3329.000000	61.556267 
3328.000000	61.533045 
3327.000000	61.526608 
3326.000000	61.537623 
3325.000000	61.563539 
3324.000000	61.599493 
3323.000000	61.639118 
3322.000000	61.675906 
3321.000000	61.704683 
3320.000000	61.722135 
3319.000000	61.726927 
3318.000000	61.719632 
3317.000000	61.701917 
3316.000000	61.676216 
3315.000000	61.644887 
3314.000000	61.610007 
3313.000000	61.573576 
3312.000000	61.537480 
3311.000000	61.503767 
3310.000000	61.474514 
3309.000000	61.451745 
3308.000000	61.437249 
3307.000000	61.432290 
3306.000000	61.437463 
3305.000000	61.452507 
3304.000000	61.476206 
3303.000000	61.506557 
3302.000000	61.540508 
3301.000000	61.574316 
3300.000000	61.603736 
3299.000000	61.624670 
3298.000000	61.633896 
3297.000000	61.629533 
3296.000000	61.611700 
3295.000000	61.582469 
3294.000000	61.545896 
3293.000000	61.507058 
3292.000000	61.471223 
3291.000000	61.442351 
3290.000000	61.422920 
3289.000000	61.412978 
3288.000000	61.410284 
3287.000000	61.411404 
3286.000000	61.412644 
3285.000000	61.411237 
3284.000000	61.406230 
3283.000000	61.398553 
3282.000000	61.390852 
3281.000000	61.386513 
3280.000000	61.388587 
3279.000000	61.398911 
3278.000000	61.417245 
3277.000000	61.441564 
3276.000000	61.468195 
3275.000000	61.492657 
3274.000000	61.510300 
3273.000000	61.517739 
3272.000000	61.512994 
3271.000000	61.495780 
3270.000000	61.467170 
3269.000000	61.429500 
3268.000000	61.385774 
3267.000000	61.339378 
3266.000000	61.293458 
3265.000000	61.250996 
3264.000000	61.214232 
3263.000000	61.184501 
3262.000000	61.162257 
3261.000000	61.147165 
3260.000000	61.138296 
3259.000000	61.134338 
3258.000000	61.133933 
3257.000000	61.135697 
3256.000000	61.138558 
3255.000000	61.141681 
3254.000000	61.144447 
3253.000000	61.146521 
3252.000000	61.148047 
3251.000000	61.149883 
3250.000000	61.153340 
3249.000000	61.160111 
3248.000000	61.172056 
3247.000000	61.190581 
3246.000000	61.216330 
3245.000000	61.248493 
3244.000000	61.284780 
3243.000000	61.321640 
3242.000000	61.354827 
3241.000000	61.380124 
3240.000000	61.394381 
3239.000000	61.395931 
3238.000000	61.385488 
3237.000000	61.365175 
3236.000000	61.338210 
3235.000000	61.307668 
3234.000000	61.276268 
3233.000000	61.245417 
3232.000000	61.215329 
3231.000000	61.185455 
3230.000000	61.155152 
3229.000000	61.123991 
3228.000000	61.092305 
3227.000000	61.061096 
3226.000000	61.031651 
3225.000000	61.005353 
3224.000000	60.983157 
3223.000000	60.965061 
3222.000000	60.950326 
3221.000000	60.937786 
3220.000000	60.926675 
3219.000000	60.916495 
3218.000000	60.908031 
3217.000000	60.902857 
3216.000000	60.903263 
3215.000000	60.911178 
3214.000000	60.927271 
3213.000000	60.950613 
3212.000000	60.978531 
3211.000000	61.006593 
3210.000000	61.030268 
3209.000000	61.045718 
3208.000000	61.051082 
3207.000000	61.046886 
3206.000000	61.036086 
3205.000000	61.023306 
3204.000000	61.013436 
3203.000000	61.010432 
3202.000000	61.015820 
3201.000000	61.028361 
3200.000000	61.044502 
3199.000000	61.059379 
3198.000000	61.068272 
3197.000000	61.068010 
3196.000000	61.057901 
3195.000000	61.039781 
3194.000000	61.016988 
3193.000000	60.993599 
3192.000000	60.972881 
3191.000000	60.956835 
3190.000000	60.945868 
3189.000000	60.939073 
3188.000000	60.935020 
3187.000000	60.932230 
3186.000000	60.930180 
3185.000000	60.928988 
3184.000000	60.929179 
3183.000000	60.931301 
3182.000000	60.935378 
3181.000000	60.940742 
3180.000000	60.945940 
3179.000000	60.949254 
3178.000000	60.949277 
3177.000000	60.945153 
3176.000000	60.936903 
3175.000000	60.925436 
3174.000000	60.912275 
3173.000000	60.898780 
3172.000000	60.886001 
3171.000000	60.874462 
3170.000000	60.864281 
3169.000000	60.855412 
3168.000000	60.847854 
3167.000000	60.841941 
3166.000000	60.837888 
3165.000000	60.835838 
3164.000000	60.835337 
3163.000000	60.835194 
3162.000000	60.833549 
3161.000000	60.828280 
3160.000000	60.817813 
3159.000000	60.801434 
3158.000000	60.779953 
3157.000000	60.755920 
3156.000000	60.732841 
3155.000000	60.714864 
3154.000000	60.704922 
3153.000000	60.704302 
3152.000000	60.711717 
3151.000000	60.723495 
3150.000000	60.734415 
3149.000000	60.738921 
3148.000000	60.732531 
3147.000000	60.712957 
3146.000000	60.680890 
3145.000000	60.639858 
3144.000000	60.595107 
3143.000000	60.552334 
3142.000000	60.516524 
3141.000000	60.490846 
3140.000000	60.476303 
3139.000000	60.471749 
3138.000000	60.474753 
3137.000000	60.482573 
3136.000000	60.492920 
3135.000000	60.504293 
3134.000000	60.516142 
3133.000000	60.528397 
3132.000000	60.541009 
3131.000000	60.553646 
3130.000000	60.564875 
3129.000000	60.572814 
3128.000000	60.575389 
3127.000000	60.571146 
3126.000000	60.559725 
3125.000000	60.542559 
3124.000000	60.522556 
3123.000000	60.503959 
3122.000000	60.491561 
3121.000000	60.489988 
3120.000000	60.502600 
3119.000000	60.530924 
3118.000000	60.573911 
3117.000000	60.627889 
3116.000000	60.687160 
3115.000000	60.744476 
3114.000000	60.792493 
3113.000000	60.825300 
3112.000000	60.839128 
3111.000000	60.833573 
3110.000000	60.811114 
3109.000000	60.776257 
3108.000000	60.734367 
3107.000000	60.690927 
3106.000000	60.650038 
3105.000000	60.614109 
3104.000000	60.583710 
3103.000000	60.558223 
3102.000000	60.536670 
3101.000000	60.518360 
3100.000000	60.503578 
3099.000000	60.493278 
3098.000000	60.489106 
3097.000000	60.492515 
3096.000000	60.504102 
3095.000000	60.522770 
3094.000000	60.546016 
3093.000000	60.570049 
3092.000000	60.590386 
3091.000000	60.602855 
3090.000000	60.604143 
3089.000000	60.592818 
3088.000000	60.569381 
3087.000000	60.536384 
3086.000000	60.498213 
3085.000000	60.460400 
3084.000000	60.428595 
3083.000000	60.407686 
3082.000000	60.401248 
3081.000000	60.410499 
3080.000000	60.434341 
3079.000000	60.469222 
3078.000000	60.510063 
3077.000000	60.550999 
3076.000000	60.586524 
3075.000000	60.612463 
3074.000000	60.626244 
3073.000000	60.627460 
3072.000000	60.617709 
3071.000000	60.599684 
3070.000000	60.576438 
3069.000000	60.550761 
3068.000000	60.524630 
3067.000000	60.499024 
3066.000000	60.474157 
3065.000000	60.449981 
3064.000000	60.426759 
3063.000000	60.405278 
3062.000000	60.387015 
3061.000000	60.373544 
3060.000000	60.366392 
3059.000000	60.366010 
3058.000000	60.371899 
3057.000000	60.381960 
3056.000000	60.393142 
3055.000000	60.401916 
3054.000000	60.405445 
3053.000000	60.401940 
3052.000000	60.391330 
3051.000000	60.375118 
3050.000000	60.356092 
3049.000000	60.337448 
3048.000000	60.322165 
3047.000000	60.312414 
3046.000000	60.308861 
3045.000000	60.310792 
3044.000000	60.316491 
3043.000000	60.323882 
3042.000000	60.330820 
3041.000000	60.335803 
3040.000000	60.337924 
3039.000000	60.336899 
3038.000000	60.332894 
3037.000000	60.326528 
3036.000000	60.318374 
3035.000000	60.308980 
3034.000000	60.298919 
3033.000000	60.288715 
3032.000000	60.278773 
3031.000000	60.269284 
3030.000000	60.260462 
3029.000000	60.252189 
3028.000000	60.243964 
3027.000000	60.235404 
3026.000000	60.226058 
3025.000000	60.215783 
3024.000000	60.204720 
3023.000000	60.193490 
3022.000000	60.182952 
3021.000000	60.174202 
3020.000000	60.168099 
3019.000000	60.165071 
3018.000000	60.165238 
3017.000000	60.168027 
3016.000000	60.172510 
3015.000000	60.177636 
3014.000000	60.182452 
3013.000000	60.186338 
3012.000000	60.188841 
3011.000000	60.189723 
3010.000000	60.188913 
3009.000000	60.186243 
3008.000000	60.181546 
3007.000000	60.174655 
3006.000000	60.165524 
3005.000000	60.154557 
3004.000000	60.142564 
3003.000000	60.130810 
3002.000000	60.120606 
3001.000000	60.113096 
3000.000000	60.108828 
2999.000000	60.107684 
2998.000000	60.108876 
2997.000000	60.111188 
2996.000000	60.113477 
2995.000000	60.114955 
2994.000000	60.115575 
2993.000000	60.115838 
2992.000000	60.116696 
2991.000000	60.119152 
2990.000000	60.123801 
2989.000000	60.130643 
2988.000000	60.138845 
2987.000000	60.146951 
2986.000000	60.153293 
2985.000000	60.156464 
2984.000000	60.155534 
2983.000000	60.150289 
2982.000000	60.140967 
2981.000000	60.128235 
2980.000000	60.112643 
2979.000000	60.094833 
2978.000000	60.075163 
2977.000000	60.053992 
2976.000000	60.032010 
2975.000000	60.010051 
2974.000000	59.989237 
2973.000000	59.970593 
2972.000000	59.955096 
2971.000000	59.943175 
2970.000000	59.934687 
2969.000000	59.928965 
2968.000000	59.924817 
2967.000000	59.920978 
2966.000000	59.916162 
2965.000000	59.909319 
2964.000000	59.899783 
2963.000000	59.887361 
2962.000000	59.872198 
2961.000000	59.854745 
2960.000000	59.835243 
2959.000000	59.814190 
2958.000000	59.792232 
2957.000000	59.770321 
2956.000000	59.749460 
2955.000000	59.730863 
2954.000000	59.715962 
2953.000000	59.705734 
2952.000000	59.700846 
2951.000000	59.701609 
2950.000000	59.707856 
2949.000000	59.718799 
2948.000000	59.733223 
2947.000000	59.749388 
2946.000000	59.765481 
2945.000000	59.779715 
2944.000000	59.790635 
2943.000000	59.797549 
2942.000000	59.800171 
2941.000000	59.799146 
2940.000000	59.794950 
2939.000000	59.787845 
2938.000000	59.777474 
2937.000000	59.763026 
2936.000000	59.743261 
2935.000000	59.717178 
2934.000000	59.684658 
2933.000000	59.646940 
2932.000000	59.606647 
2931.000000	59.567427 
2930.000000	59.533381 
2929.000000	59.508085 
2928.000000	59.493327 
2927.000000	59.488558 
2926.000000	59.491038 
2925.000000	59.496450 
2924.000000	59.499979 
2923.000000	59.497904 
2922.000000	59.488296 
2921.000000	59.471416 
2920.000000	59.449505 
2919.000000	59.425997 
2918.000000	59.404087 
2917.000000	59.386420 
2916.000000	59.374451 
2915.000000	59.368205 
2914.000000	59.366774 
2913.000000	59.368729 
2912.000000	59.372878 
2911.000000	59.378361 
2910.000000	59.384703 
2909.000000	59.392189 
2908.000000	59.401369 
2907.000000	59.413051 
2906.000000	59.427785 
2905.000000	59.446048 
2904.000000	59.467911 
2903.000000	59.493231 
2902.000000	59.521555 
2901.000000	59.551954 
2900.000000	59.582948 
2899.000000	59.612560 
2898.000000	59.638547 
2897.000000	59.658336 
2896.000000	59.669756 
2895.000000	59.671449 
2894.000000	59.663081 
2893.000000	59.645986 
2892.000000	59.622311 
2891.000000	59.595370 
2890.000000	59.568142 
2889.000000	59.543371 
2888.000000	59.522461 
2887.000000	59.505558 
2886.000000	59.491658 
2885.000000	59.479045 
2884.000000	59.465980 
2883.000000	59.451365 
2882.000000	59.435296 
2881.000000	59.418964 
2880.000000	59.404659 
2879.000000	59.394645 
2878.000000	59.390664 
2877.000000	59.393191 
2876.000000	59.401345 
2875.000000	59.412765 
2874.000000	59.424090 
2873.000000	59.431743 
2872.000000	59.432792 
2871.000000	59.425544 
2870.000000	59.409761 
2869.000000	59.386467 
2868.000000	59.357547 
2867.000000	59.325289 
2866.000000	59.291839 
2865.000000	59.258699 
2864.000000	59.226679 
2863.000000	59.196376 
2862.000000	59.167957 
2861.000000	59.141850 
2860.000000	59.118962 
2859.000000	59.100508 
2858.000000	59.087824 
2857.000000	59.082174 
2856.000000	59.084033 
2855.000000	59.093475 
2854.000000	59.109687 
2853.000000	59.131455 
2852.000000	59.157156 
2851.000000	59.185290 
2850.000000	59.214639 
2849.000000	59.244441 
2848.000000	59.274244 
2847.000000	59.303808 
2846.000000	59.332656 
2845.000000	59.360074 
2844.000000	59.384751 
2843.000000	59.404754 
2842.000000	59.418129 
2841.000000	59.423136 
2840.000000	59.418916 
2839.000000	59.405970 
2838.000000	59.386253 
2837.000000	59.363365 
2836.000000	59.341239 
2835.000000	59.323883 
2834.000000	59.313726 
2833.000000	59.311723 
2832.000000	59.316420 
2831.000000	59.324645 
2830.000000	59.332227 
2829.000000	59.334778 
2828.000000	59.329390 
2827.000000	59.315085 
2826.000000	59.293341 
2825.000000	59.267377 
2824.000000	59.241390 
2823.000000	59.219479 
2822.000000	59.204506 
2821.000000	59.197354 
2820.000000	59.197211 
2819.000000	59.201812 
2818.000000	59.208416 
2817.000000	59.214496 
2816.000000	59.218549 
2815.000000	59.220290 
2814.000000	59.220409 
2813.000000	59.219908 
2812.000000	59.219765 
2811.000000	59.220194 
2810.000000	59.220576 
2809.000000	59.219455 
2808.000000	59.215307 
2807.000000	59.206485 
2806.000000	59.192347 
2805.000000	59.172821 
2804.000000	59.148597 
2803.000000	59.120798 
2802.000000	59.090757 
2801.000000	59.059715 
2800.000000	59.028744 
2799.000000	58.998823 
2798.000000	58.971071 
2797.000000	58.946776 
2796.000000	58.927536 
2795.000000	58.914971 
2794.000000	58.910417 
2793.000000	58.914327 
2792.000000	58.926200 
2791.000000	58.944416 
2790.000000	58.966398 
2789.000000	58.989071 
2788.000000	59.009575 
2787.000000	59.025645 
2786.000000	59.035897 
2785.000000	59.039878 
2784.000000	59.038233 
2783.000000	59.031867 
2782.000000	59.022092 
2781.000000	59.010338 
2780.000000	58.997774 
2779.000000	58.985757 
2778.000000	58.975219 
2777.000000	58.966898 
2776.000000	58.961033 
2775.000000	58.957624 
2774.000000	58.955907 
2773.000000	58.954882 
2772.000000	58.953237 
2771.000000	58.949708 
2770.000000	58.943486 
2769.000000	58.934307 
2768.000000	58.922553 
2767.000000	58.909177 
2766.000000	58.895468 
2765.000000	58.882689 
2764.000000	58.871674 
2763.000000	58.862853 
2762.000000	58.856296 
2761.000000	58.852171 
2760.000000	58.850502 
2759.000000	58.851194 
2758.000000	58.854103 
2757.000000	58.858776 
2756.000000	58.864116 
2755.000000	58.868718 
2754.000000	58.870959 
2753.000000	58.869504 
2752.000000	58.863449 
2751.000000	58.852910 
2750.000000	58.838891 
2749.000000	58.822989 
2748.000000	58.807420 
2747.000000	58.793902 
2746.000000	58.783388 
2745.000000	58.775568 
2744.000000	58.769059 
2743.000000	58.761453 
2742.000000	58.750009 
2741.000000	58.732247 
2740.000000	58.706688 
2739.000000	58.672928 
2738.000000	58.631992 
2737.000000	58.585953 
2736.000000	58.537769 
2735.000000	58.490705 
2734.000000	58.447957 
2733.000000	58.412337 
2732.000000	58.385586 
2731.000000	58.368468 
2730.000000	58.360600 
2729.000000	58.360505 
2728.000000	58.366131 
2727.000000	58.375024 
2726.000000	58.385038 
2725.000000	58.394289 
2724.000000	58.401632 
2723.000000	58.406376 
2722.000000	58.408474 
2721.000000	58.408212 
2720.000000	58.405971 
2719.000000	58.402228 
2718.000000	58.397579 
2717.000000	58.392596 
2716.000000	58.387994 
2715.000000	58.384466 
2714.000000	58.382654 
2713.000000	58.383059 
2712.000000	58.385658 
2711.000000	58.389806 
2710.000000	58.394169 
2709.000000	58.397030 
2708.000000	58.396673 
2707.000000	58.391690 
2706.000000	58.381724 
2705.000000	58.367490 
2704.000000	58.350563 
2703.000000	58.333301 
2702.000000	58.318400 
2701.000000	58.308362 
2700.000000	58.304834 
2699.000000	58.308434 
2698.000000	58.318662 
2697.000000	58.333754 
2696.000000	58.351254 
2695.000000	58.368325 
2694.000000	58.382153 
2693.000000	58.390641 
2692.000000	58.392596 
2691.000000	58.387923 
2690.000000	58.377408 
2689.000000	58.362555 
2688.000000	58.345174 
2687.000000	58.326935 
2686.000000	58.309102 
2685.000000	58.292293 
2684.000000	58.276557 
2683.000000	58.261728 
2682.000000	58.247685 
2681.000000	58.234715 
2680.000000	58.223509 
2679.000000	58.215332 
2678.000000	58.211278 
2677.000000	58.212256 
2676.000000	58.218050 
2675.000000	58.227205 
2674.000000	58.237147 
2673.000000	58.244705 
2672.000000	58.246755 
2671.000000	58.240842 
2670.000000	58.226156 
2669.000000	58.203411 
2668.000000	58.175277 
2667.000000	58.145236 
2666.000000	58.117318 
2665.000000	58.094954 
2664.000000	58.080482 
2663.000000	58.074378 
2662.000000	58.075785 
2661.000000	58.082699 
2660.000000	58.092617 
2659.000000	58.103060 
2658.000000	58.112192 
2657.000000	58.119010 
2656.000000	58.123373 
2655.000000	58.125662 
2654.000000	58.126616 
2653.000000	58.126831 
2652.000000	58.126735 
2651.000000	58.126330 
2650.000000	58.125543 
2649.000000	58.123731 
2648.000000	58.120608 
2647.000000	58.115696 
2646.000000	58.108878 
2645.000000	58.100008 
2644.000000	58.089423 
2643.000000	58.077335 
2642.000000	58.064270 
2641.000000	58.050537 
2640.000000	58.036589 
2639.000000	58.022618 
2638.000000	58.008575 
2637.000000	57.994198 
2636.000000	57.979154 
2635.000000	57.963085 
2634.000000	57.945823 
2633.000000	57.927536 
2632.000000	57.908749 
2631.000000	57.890415 
2630.000000	57.873606 
2629.000000	57.859206 
2628.000000	57.847738 
2627.000000	57.839155 
2626.000000	57.832860 
2625.000000	57.827734 
2624.000000	57.822608 
2623.000000	57.816624 
2622.000000	57.809591 
2621.000000	57.801961 
2620.000000	57.794976 
2619.000000	57.790184 
2618.000000	57.789206 
2617.000000	57.792997 
2616.000000	57.801842 
2615.000000	57.815098 
2614.000000	57.831430 
2613.000000	57.849168 
2612.000000	57.866454 
2611.000000	57.881712 
2610.000000	57.893943 
2609.000000	57.902598 
2608.000000	57.907700 
2607.000000	57.909417 
2606.000000	57.908034 
2605.000000	57.903838 
2604.000000	57.896804 
2603.000000	57.886886 
2602.000000	57.874083 
2601.000000	57.858514 
2600.000000	57.840681 
2599.000000	57.821202 
2598.000000	57.801055 
2597.000000	57.781147 
2596.000000	57.762408 
2595.000000	57.745409 
2594.000000	57.730269 
2593.000000	57.716870 
2592.000000	57.704663 
2591.000000	57.693076 
2590.000000	57.681655 
2589.000000	57.670283 
2588.000000	57.659125 
2587.000000	57.648801 
2586.000000	57.639908 
2585.000000	57.633042 
2584.000000	57.628273 
2583.000000	57.625269 
2582.000000	57.622981 
2581.000000	57.620191 
2580.000000	57.615613 
2579.000000	57.608437 
2578.000000	57.598280 
2577.000000	57.585549 
2576.000000	57.571363 
2575.000000	57.557058 
2574.000000	57.543992 
2573.000000	57.533097 
2572.000000	57.524633 
2571.000000	57.518196 
2570.000000	57.512950 
2569.000000	57.507729 
2568.000000	57.501983 
2567.000000	57.495522 
2566.000000	57.489037 
2565.000000	57.483887 
2564.000000	57.481837 
2563.000000	57.484507 
2562.000000	57.493066 
2561.000000	57.507610 
2560.000000	57.527184 
2559.000000	57.549738 
2558.000000	57.572579 
2557.000000	57.592797 
2556.000000	57.607865 
2555.000000	57.615995 
2554.000000	57.616472 
2553.000000	57.609629 
2552.000000	57.596588 
2551.000000	57.579135 
2550.000000	57.559323 
2549.000000	57.539057 
2548.000000	57.520031 
2547.000000	57.503128 
2546.000000	57.488894 
2545.000000	57.477188 
2544.000000	57.467555 
2543.000000	57.459282 
2542.000000	57.451629 
2541.000000	57.444095 
2540.000000	57.436370 
2539.000000	57.428550 
2538.000000	57.420921 
2537.000000	57.413959 
2536.000000	57.407903 
2535.000000	57.402729 
2534.000000	57.398009 
2533.000000	57.393002 
2532.000000	57.386732 
2531.000000	57.378530 
2530.000000	57.368135 
2529.000000	57.355856 
2528.000000	57.342576 
2527.000000	57.329392 
2526.000000	57.317399 
2525.000000	57.306861 
2524.000000	57.297182 
2523.000000	57.286906 
2522.000000	57.274079 
2521.000000	57.256793 
2520.000000	57.233738 
2519.000000	57.204627 
2518.000000	57.170414 
2517.000000	57.133507 
2516.000000	57.097005 
2515.000000	57.063817 
2514.000000	57.036352 
2513.000000	57.015705 
2512.000000	57.001686 
2511.000000	56.992888 
2510.000000	56.987285 
2509.000000	56.982827 
2508.000000	56.978082 
2507.000000	56.972622 
2506.000000	56.966924 
2505.000000	56.962013 
2504.000000	56.959176 
2503.000000	56.959223 
2502.000000	56.962108 
2501.000000	56.966876 
2500.000000	56.971573 
2499.000000	56.973838 
2498.000000	56.971526 
2497.000000	56.963348 
2496.000000	56.949043 
2495.000000	56.929659 
2494.000000	56.907415 
2493.000000	56.885266 
2492.000000	56.866121 
2491.000000	56.852078 
2490.000000	56.844472 
2489.000000	56.843328 
2488.000000	56.847405 
2487.000000	56.854510 
2486.000000	56.862187 
2485.000000	56.868147 
2484.000000	56.870508 
2483.000000	56.868076 
2482.000000	56.860566 
2481.000000	56.848335 
2480.000000	56.832218 
2479.000000	56.813097 
2478.000000	56.792044 
2477.000000	56.770038 
2476.000000	56.748104 
2475.000000	56.727313 
2474.000000	56.708741 
2473.000000	56.693482 
2472.000000	56.682658 
2471.000000	56.676888 
2470.000000	56.676316 
2469.000000	56.680464 
2468.000000	56.688475 
2467.000000	56.698989 
2466.000000	56.710720 
2465.000000	56.722593 
2464.000000	56.733989 
2463.000000	56.744813 
2462.000000	56.755280 
2461.000000	56.765484 
2460.000000	56.775259 
2459.000000	56.783747 
2458.000000	56.789803 
2457.000000	56.792116 
2456.000000	56.789755 
2455.000000	56.782436 
2454.000000	56.770730 
2453.000000	56.756329 
2452.000000	56.741309 
2451.000000	56.727981 
2450.000000	56.717848 
2449.000000	56.711244 
2448.000000	56.707048 
2447.000000	56.703329 
2446.000000	56.697392 
2445.000000	56.686687 
2444.000000	56.669664 
2443.000000	56.646442 
2442.000000	56.618738 
2441.000000	56.589531 
2440.000000	56.562542 
2439.000000	56.541252 
2438.000000	56.528186 
2437.000000	56.524300 
2436.000000	56.528568 
2435.000000	56.538200 
2434.000000	56.549215 
2433.000000	56.557154 
2432.000000	56.557774 
2431.000000	56.548285 
2430.000000	56.527733 
2429.000000	56.497359 
2428.000000	56.460261 
2427.000000	56.421065 
2426.000000	56.384849 
2425.000000	56.356644 
2424.000000	56.340193 
2423.000000	56.337666 
2422.000000	56.349253 
2421.000000	56.373333 
2420.000000	56.406736 
2419.000000	56.445384 
2418.000000	56.484937 
2417.000000	56.521272 
2416.000000	56.551122 
2415.000000	56.572294 
2414.000000	56.583929 
2413.000000	56.586432 
2412.000000	56.581068 
2411.000000	56.569933 
2410.000000	56.555080 
2409.000000	56.538796 
2408.000000	56.522774 
2407.000000	56.508255 
2406.000000	56.495571 
2405.000000	56.484723 
2404.000000	56.475281 
2403.000000	56.466531 
2402.000000	56.457805 
2401.000000	56.448602 
2400.000000	56.438755 
2399.000000	56.428575 
2398.000000	56.418538 
2397.000000	56.409287 
2396.000000	56.401252 
2395.000000	56.394433 
2394.000000	56.388449 
2393.000000	56.382560 
2392.000000	56.375718 
2391.000000	56.366991 
2390.000000	56.355595 
2389.000000	56.341242 
2388.000000	56.324291 
2387.000000	56.305789 
2386.000000	56.286931 
2385.000000	56.268811 
2384.000000	56.252431 
2383.000000	56.238245 
2382.000000	56.226253 
2381.000000	56.215929 
2380.000000	56.206631 
2379.000000	56.197786 
2378.000000	56.189036 
2377.000000	56.180596 
2376.000000	56.172990 
2375.000000	56.166982 
2374.000000	56.163263 
2373.000000	56.162261 
2372.000000	56.164002 
2371.000000	56.167960 
2370.000000	56.173181 
2369.000000	56.178426 
2368.000000	56.182599 
2367.000000	56.184649 
2366.000000	56.184029 
2365.000000	56.180381 
2364.000000	56.173634 
2363.000000	56.163883 
2362.000000	56.151294 
2361.000000	56.136107 
2360.000000	56.118726 
2359.000000	56.100010 
2358.000000	56.080937 
2357.000000	56.062841 
2356.000000	56.046915 
2355.000000	56.034302 
2354.000000	56.025695 
2353.000000	56.021094 
2352.000000	56.019639 
2351.000000	56.019854 
2350.000000	56.019759 
2349.000000	56.017112 
2348.000000	56.010079 
2347.000000	55.997180 
2346.000000	55.978083 
2345.000000	55.953383 
2344.000000	55.924725 
2343.000000	55.894398 
2342.000000	55.865049 
2341.000000	55.839133 
2340.000000	55.818486 
2339.000000	55.803942 
2338.000000	55.795049 
2337.000000	55.790257 
2336.000000	55.787181 
2335.000000	55.783438 
2334.000000	55.777072 
2333.000000	55.767345 
2332.000000	55.754947 
2331.000000	55.741715 
2330.000000	55.730295 
2329.000000	55.723309 
2328.000000	55.722546 
2327.000000	55.728530 
2326.000000	55.740308 
2325.000000	55.755686 
2324.000000	55.771780 
2323.000000	55.785512 
2322.000000	55.794596 
2321.000000	55.797600 
2320.000000	55.794477 
2319.000000	55.786037 
2318.000000	55.773639 
2317.000000	55.758857 
2316.000000	55.742979 
2315.000000	55.727052 
2314.000000	55.711770 
2313.000000	55.697774 
2312.000000	55.685687 
2311.000000	55.676031 
2310.000000	55.669283 
2309.000000	55.665612 
2308.000000	55.664849 
2307.000000	55.666327 
2306.000000	55.669116 
2305.000000	55.671954 
2304.000000	55.673480 
2303.000000	55.672407 
2302.000000	55.667495 
2301.000000	55.657792 
2300.000000	55.642628 
2299.000000	55.621767 
2298.000000	55.595326 
2297.000000	55.564117 
2296.000000	55.529570 
2295.000000	55.493688 
2294.000000	55.458950 
2293.000000	55.427837 
2292.000000	55.402684 
2291.000000	55.384945 
2290.000000	55.375075 
2289.000000	55.372309 
2288.000000	55.374979 
2287.000000	55.380892 
2286.000000	55.387902 
2285.000000	55.394124 
2284.000000	55.398273 
2283.000000	55.399727 
2282.000000	55.398440 
2281.000000	55.394601 
2280.000000	55.388569 
2279.000000	55.380725 
2278.000000	55.371427 
2277.000000	55.361056 
2276.000000	55.350041 
2275.000000	55.339121 
2274.000000	55.329108 
2273.000000	55.320787 
2272.000000	55.314993 
2271.000000	55.312156 
2270.000000	55.312490 
2269.000000	55.315780 
2268.000000	55.321383 
2267.000000	55.328392 
2266.000000	55.336022 
2265.000000	55.343270 
2264.000000	55.349302 
2263.000000	55.353283 
2262.000000	55.354523 
2261.000000	55.352497 
2260.000000	55.346965 
2259.000000	55.337929 
2258.000000	55.325722 
2257.000000	55.311179 
2256.000000	55.295419 
2255.000000	55.279779 
2254.000000	55.265378 
2253.000000	55.253171 
2252.000000	55.243611 
2251.000000	55.236649 
2250.000000	55.231690 
2249.000000	55.227971 
2248.000000	55.224752 
2247.000000	55.221390 
2246.000000	55.217790 
2245.000000	55.214118 
2244.000000	55.210876 
2243.000000	55.208635 
2242.000000	55.207538 
2241.000000	55.207276 
2240.000000	55.206751 
2239.000000	55.204510 
2238.000000	55.198645 
2237.000000	55.187273 
2236.000000	55.168914 
2235.000000	55.142855 
2234.000000	55.109310 
2233.000000	55.069494 
2232.000000	55.025339 
2231.000000	54.979300 
2230.000000	54.934048 
2229.000000	54.892206 
2228.000000	54.855990 
2227.000000	54.826927 
2226.000000	54.805803 
2225.000000	54.792571 
2224.000000	54.786348 
2223.000000	54.785680 
2222.000000	54.788684 
2221.000000	54.793500 
2220.000000	54.798316 
2219.000000	54.801940 
2218.000000	54.803752 
2217.000000	54.803895 
2216.000000	54.803133 
2215.000000	54.802727 
2214.000000	54.804253 
2213.000000	54.809045 
2212.000000	54.818224 
2211.000000	54.832100 
2210.000000	54.849958 
2209.000000	54.870057 
2208.000000	54.889988 
2207.000000	54.906535 
2206.000000	54.916453 
2205.000000	54.916906 
2204.000000	54.906272 
2203.000000	54.884505 
2202.000000	54.853129 
2201.000000	54.815316 
2200.000000	54.775404 
2199.000000	54.737901 
2198.000000	54.706668 
2197.000000	54.684305 
2196.000000	54.671716 
2195.000000	54.668140 
2194.000000	54.671382 
2193.000000	54.678583 
2192.000000	54.686880 
2191.000000	54.694008 
2190.000000	54.698872 
2189.000000	54.700922 
2188.000000	54.700732 
2187.000000	54.699254 
2186.000000	54.697585 
2185.000000	54.696345 
2184.000000	54.695868 
2183.000000	54.696106 
2182.000000	54.696798 
2181.000000	54.697608 
2180.000000	54.698371 
2179.000000	54.699110 
2178.000000	54.699993 
2177.000000	54.701137 
2176.000000	54.702448 
2175.000000	54.703426 
2174.000000	54.703330 
2173.000000	54.701185 
2172.000000	54.695892 
2171.000000	54.686594 
2170.000000	54.672813 
2169.000000	54.654574 
2168.000000	54.632163 
2167.000000	54.606103 
2166.000000	54.577016 
2165.000000	54.545688 
2164.000000	54.512858 
2163.000000	54.479146 
2162.000000	54.445362 
2161.000000	54.412412 
2160.000000	54.381394 
2159.000000	54.353451 
2158.000000	54.329442 
2157.000000	54.310274 
2156.000000	54.296422 
2155.000000	54.288196 
2154.000000	54.285144 
2153.000000	54.286789 
2152.000000	54.292273 
2151.000000	54.300665 
2150.000000	54.310917 
2149.000000	54.322218 
2148.000000	54.333877 
2147.000000	54.345250 
2146.000000	54.355716 
2145.000000	54.364752 
2144.000000	54.371809 
2143.000000	54.376459 
2142.000000	54.378247 
2141.000000	54.376888 
2140.000000	54.372143 
2139.000000	54.364299 
2138.000000	54.353666 
2137.000000	54.340887 
2136.000000	54.326391 
2135.000000	54.310989 
2134.000000	54.295182 
2133.000000	54.279160 
2132.000000	54.262971 
2131.000000	54.246640 
2130.000000	54.230165 
2129.000000	54.213714 
2128.000000	54.197621 
2127.000000	54.182410 
2126.000000	54.168438 
2125.000000	54.155898 
2124.000000	54.144430 
2123.000000	54.133057 
2122.000000	54.120492 
2121.000000	54.105353 
2120.000000	54.086565 
2119.000000	54.063677 
2118.000000	54.037380 
2117.000000	54.009413 
2116.000000	53.982281 
2115.000000	53.958845 
2114.000000	53.941583 
2113.000000	53.932070 
2112.000000	53.930592 
2111.000000	53.936195 
2110.000000	53.947043 
2109.000000	53.961014 
2108.000000	53.975868 
2107.000000	53.989768 
2106.000000	54.001283 
2105.000000	54.009413 
2104.000000	54.013419 
2103.000000	54.012894 
2102.000000	54.007577 
2101.000000	53.997564 
2100.000000	53.983569 
2099.000000	53.966665 
2098.000000	53.948307 
2097.000000	53.930091 
2096.000000	53.913569 
2095.000000	53.899955 
2094.000000	53.890037 
2093.000000	53.884172 
2092.000000	53.882145 
2091.000000	53.883433 
2090.000000	53.887224 
2089.000000	53.892683 
2088.000000	53.898882 
2087.000000	53.904795 
2086.000000	53.909254 
2085.000000	53.910994 
2084.000000	53.908801 
2083.000000	53.901767 
2082.000000	53.889799 
2081.000000	53.873586 
2080.000000	53.854990 
2079.000000	53.836941 
2078.000000	53.822946 
2077.000000	53.816270 
2076.000000	53.819417 
2075.000000	53.833651 
2074.000000	53.858160 
2073.000000	53.890156 
2072.000000	53.925132 
2071.000000	53.957796 
2070.000000	53.982853 
2069.000000	53.996133 
2068.000000	53.995585 
2067.000000	53.981661 
2066.000000	53.957200 
2065.000000	53.926682 
2064.000000	53.895115 
2063.000000	53.866720 
2062.000000	53.844213 
2061.000000	53.828191 
2060.000000	53.817605 
2059.000000	53.809928 
2058.000000	53.802514 
2057.000000	53.792905 
2056.000000	53.779816 
2055.000000	53.763222 
2054.000000	53.743743 
2053.000000	53.722667 
2052.000000	53.701138 
2051.000000	53.679871 
2050.000000	53.658986 
2049.000000	53.638052 
2048.000000	53.616428 
2047.000000	53.593420 
2046.000000	53.568983 
2045.000000	53.543233 
2044.000000	53.516674 
2043.000000	53.489947 
2042.000000	53.463530 
2041.000000	53.437876 
2040.000000	53.413367 
2039.000000	53.390645 
2038.000000	53.370356 
2037.000000	53.353404 
2036.000000	53.340816 
2035.000000	53.333377 
2034.000000	53.331446 
2033.000000	53.334712 
2032.000000	53.341984 
2031.000000	53.351473 
2030.000000	53.361010 
2029.000000	53.368139 
2028.000000	53.370809 
2027.000000	53.367590 
2026.000000	53.358173 
2025.000000	53.343367 
2024.000000	53.324794 
2023.000000	53.304672 
2022.000000	53.285264 
2021.000000	53.268575 
2020.000000	53.255820 
2019.000000	53.247451 
2018.000000	53.243064 
2017.000000	53.241634 
2016.000000	53.241753 
2015.000000	53.242135 
2014.000000	53.241634 
2013.000000	53.239560 
2012.000000	53.235673 
2011.000000	53.230047 
2010.000000	53.222823 
2009.000000	53.214049 
2008.000000	53.203845 
2007.000000	53.192234 
2006.000000	53.179550 
2005.000000	53.166294 
2004.000000	53.153419 
2003.000000	53.141951 
2002.000000	53.132939 
2001.000000	53.127002 
2000.000000	53.124046 
1999.000000	53.123188 
1998.000000	53.122901 
1997.000000	53.121232 
1996.000000	53.116250 
1995.000000	53.106260 
1994.000000	53.090596 
1993.000000	53.069376 
1992.000000	53.043794 
1991.000000	53.015875 
1990.000000	52.987790 
1989.000000	52.961897 
1988.000000	52.940154 
1987.000000	52.923965 
1986.000000	52.914094 
1985.000000	52.910470 
1984.000000	52.912473 
1983.000000	52.918910 
1982.000000	52.928137 
1981.000000	52.938055 
1980.000000	52.946424 
1979.000000	52.951145 
1978.000000	52.950501 
1977.000000	52.943325 
1976.000000	52.929282 
1975.000000	52.908992 
1974.000000	52.883768 
1973.000000	52.855682 
1972.000000	52.827095 
1971.000000	52.800273 
1970.000000	52.777171 
1969.000000	52.759027 
1968.000000	52.746558 
1967.000000	52.739739 
1966.000000	52.737903 
1965.000000	52.740073 
1964.000000	52.744936 
1963.000000	52.751016 
1962.000000	52.756834 
1961.000000	52.761077 
1960.000000	52.762675 
1959.000000	52.760863 
1958.000000	52.755308 
1957.000000	52.746105 
1956.000000	52.733492 
1955.000000	52.717757 
1954.000000	52.699255 
1953.000000	52.678322 
1952.000000	52.655482 
1951.000000	52.631354 
1950.000000	52.606868 
1949.000000	52.583098 
1948.000000	52.561068 
1947.000000	52.541685 
1946.000000	52.525424 
1945.000000	52.512216 
1944.000000	52.501320 
1943.000000	52.491736 
1942.000000	52.482342 
1941.000000	52.472472 
1940.000000	52.461814 
1939.000000	52.450799 
1938.000000	52.440404 
1937.000000	52.431917 
1936.000000	52.426338 
1935.000000	52.424001 
1934.000000	52.424478 
1933.000000	52.426838 
1932.000000	52.429652 
1931.000000	52.431559 
1930.000000	52.431488 
1929.000000	52.428913 
1928.000000	52.423834 
1927.000000	52.416706 
1926.000000	52.408218 
1925.000000	52.399039 
1924.000000	52.389717 
1923.000000	52.380824 
1922.000000	52.372741 
1921.000000	52.365732 
1920.000000	52.360010 
1919.000000	52.355766 
1918.000000	52.353119 
1917.000000	52.351856 
1916.000000	52.351498 
1915.000000	52.351427 
1914.000000	52.350831 
1913.000000	52.348780 
1912.000000	52.344441 
1911.000000	52.337360 
1910.000000	52.327179 
1909.000000	52.313852 
1908.000000	52.297425 
1907.000000	52.278137 
1906.000000	52.256584 
1905.000000	52.233648 
1904.000000	52.210640 
1903.000000	52.189111 
1902.000000	52.170777 
1901.000000	52.157068 
1900.000000	52.148723 
1899.000000	52.145767 
1898.000000	52.147316 
1897.000000	52.151560 
1896.000000	52.156233 
1895.000000	52.158975 
1894.000000	52.157807 
1893.000000	52.151823 
1892.000000	52.141094 
1891.000000	52.126717 
1890.000000	52.110719 
1889.000000	52.095341 
1888.000000	52.082657 
1887.000000	52.073979 
1886.000000	52.069878 
1885.000000	52.069830 
1884.000000	52.072477 
1883.000000	52.075839 
1882.000000	52.077937 
1881.000000	52.077007 
1880.000000	52.072048 
1879.000000	52.062940 
1878.000000	52.050447 
1877.000000	52.036166 
1876.000000	52.021861 
1875.000000	52.009129 
1874.000000	51.998758 
1873.000000	51.990795 
1872.000000	51.984286 
1871.000000	51.977753 
1870.000000	51.969432 
1869.000000	51.958155 
1868.000000	51.943302 
1867.000000	51.925182 
1866.000000	51.904726 
1865.000000	51.883363 
1864.000000	51.862430 
1863.000000	51.842927 
1862.000000	51.825261 
1861.000000	51.809048 
1860.000000	51.793718 
1859.000000	51.778626 
1858.000000	51.763415 
1857.000000	51.748442 
1856.000000	51.734495 
1855.000000	51.722550 
1854.000000	51.713562 
1853.000000	51.707601 
1852.000000	51.704216 
1851.000000	51.702237 
1850.000000	51.699852 
1849.000000	51.695370 
1848.000000	51.687455 
1847.000000	51.675963 
1846.000000	51.661729 
1845.000000	51.646828 
1844.000000	51.634001 
1843.000000	51.626157 
1842.000000	51.625657 
1841.000000	51.633596 
1840.000000	51.649546 
1839.000000	51.671361 
1838.000000	51.695728 
1837.000000	51.718711 
1836.000000	51.736712 
1835.000000	51.747155 
1834.000000	51.749110 
1833.000000	51.743102 
1832.000000	51.731038 
1831.000000	51.715254 
1830.000000	51.698350 
1829.000000	51.682019 
1828.000000	51.666975 
1827.000000	51.652765 
1826.000000	51.638269 
1825.000000	51.621985 
1824.000000	51.602506 
1823.000000	51.579236 
1822.000000	51.552391 
1821.000000	51.523184 
1820.000000	51.493358 
1819.000000	51.464891 
1818.000000	51.439476 
1817.000000	51.418256 
1816.000000	51.401567 
1815.000000	51.388931 
1814.000000	51.379323 
1813.000000	51.371479 
1812.000000	51.364326 
1811.000000	51.357054 
1810.000000	51.349496 
1809.000000	51.341891 
1808.000000	51.334929 
1807.000000	51.329207 
1806.000000	51.325201 
1805.000000	51.322984 
1804.000000	51.322245 
1803.000000	51.322197 
1802.000000	51.321911 
1801.000000	51.320672 
1800.000000	51.318001 
1799.000000	51.313805 
1798.000000	51.308345 
1797.000000	51.302146 
1796.000000	51.295638 
1795.000000	51.289153 
1794.000000	51.282429 
1793.000000	51.274847 
1792.000000	51.265573 
1791.000000	51.253700 
1790.000000	51.238584 
1789.000000	51.220059 
1788.000000	51.198673 
1787.000000	51.175665 
1786.000000	51.152586 
1785.000000	51.131200 
1784.000000	51.113033 
1783.000000	51.099371 
1782.000000	51.090812 
1781.000000	51.087355 
1780.000000	51.088428 
1779.000000	51.092863 
1778.000000	51.099061 
1777.000000	51.105237 
1776.000000	51.109385 
1775.000000	51.109886 
1774.000000	51.105666 
1773.000000	51.096487 
1772.000000	51.082730 
1771.000000	51.065731 
1770.000000	51.047587 
1769.000000	51.030516 
1768.000000	51.016545 
1767.000000	51.007151 
1766.000000	51.003003 
1765.000000	51.003766 
1764.000000	51.008176 
1763.000000	51.014328 
1762.000000	51.020336 
1761.000000	51.024460 
1760.000000	51.025629 
1759.000000	51.023578 
1758.000000	51.018714 
1757.000000	51.011991 
1756.000000	51.004338 
1755.000000	50.996446 
1754.000000	50.988435 
1753.000000	50.979995 
1752.000000	50.970315 
1751.000000	50.958371 
1750.000000	50.943088 
1749.000000	50.923991 
1748.000000	50.900888 
1747.000000	50.874257 
1746.000000	50.844836 
1745.000000	50.813627 
1744.000000	50.781702 
1743.000000	50.750327 
1742.000000	50.720691 
1741.000000	50.693893 
1740.000000	50.671076 
1739.000000	50.653243 
1738.000000	50.641155 
1737.000000	50.635170 
1736.000000	50.634789 
1735.000000	50.638699 
1734.000000	50.644946 
1733.000000	50.651240 
1732.000000	50.655341 
1731.000000	50.655460 
1730.000000	50.650954 
1729.000000	50.641918 
1728.000000	50.629377 
1727.000000	50.614786 
1726.000000	50.599670 
1725.000000	50.585103 
1724.000000	50.571584 
1723.000000	50.558662 
1722.000000	50.545644 
1721.000000	50.531387 
1720.000000	50.515007 
1719.000000	50.495815 
1718.000000	50.473833 
1717.000000	50.449609 
1716.000000	50.424242 
1715.000000	50.398850 
1714.000000	50.374674 
1713.000000	50.352764 
1712.000000	50.333976 
1711.000000	50.318980 
1710.000000	50.308465 
1709.000000	50.302958 
1708.000000	50.303149 
1707.000000	50.309514 
1706.000000	50.322318 
1705.000000	50.341677 
1704.000000	50.367164 
1703.000000	50.397562 
1702.000000	50.430989 
1701.000000	50.464892 
1700.000000	50.496339 
1699.000000	50.522303 
1698.000000	50.540041 
1697.000000	50.547885 
1696.000000	50.545024 
1695.000000	50.532174 
1694.000000	50.510764 
1693.000000	50.482964 
1692.000000	50.450968 
1691.000000	50.416922 
1690.000000	50.382423 
1689.000000	50.348615 
1688.000000	50.316333 
1687.000000	50.286436 
1686.000000	50.259900 
1685.000000	50.237965 
1684.000000	50.221991 
1683.000000	50.212812 
1682.000000	50.210547 
1681.000000	50.214147 
1680.000000	50.221371 
1679.000000	50.229024 
1678.000000	50.233387 
1677.000000	50.231385 
1676.000000	50.221014 
1675.000000	50.202083 
1674.000000	50.176215 
1673.000000	50.146579 
1672.000000	50.117063 
1671.000000	50.091576 
1670.000000	50.073099 
1669.000000	50.063276 
1668.000000	50.061726 
1667.000000	50.066518 
1666.000000	50.075006 
1665.000000	50.084090 
1664.000000	50.090956 
1663.000000	50.093722 
1662.000000	50.091552 
1661.000000	50.084590 
1660.000000	50.073766 
1659.000000	50.060248 
1658.000000	50.045180 
1657.000000	50.029587 
1656.000000	50.014162 
1655.000000	49.999356 
1654.000000	49.985575 
1653.000000	49.973297 
1652.000000	49.962949 
1651.000000	49.955177 
1650.000000	49.950361 
1649.000000	49.948668 
1648.000000	49.949860 
1647.000000	49.952960 
1646.000000	49.956536 
1645.000000	49.958777 
1644.000000	49.957776 
1643.000000	49.951744 
1642.000000	49.939393 
1641.000000	49.920201 
1640.000000	49.894475 
1639.000000	49.863290 
1638.000000	49.828362 
1637.000000	49.791812 
1636.000000	49.755764 
1635.000000	49.722313 
1634.000000	49.692988 
1633.000000	49.668622 
1632.000000	49.649548 
1631.000000	49.635553 
1630.000000	49.626064 
1629.000000	49.620151 
1628.000000	49.616646 
1627.000000	49.614572 
1626.000000	49.612879 
1625.000000	49.610877 
1624.000000	49.607968 
1623.000000	49.603962 
1622.000000	49.598932 
1621.000000	49.593138 
1620.000000	49.587059 
1619.000000	49.581146 
1618.000000	49.575781 
1617.000000	49.571108 
1616.000000	49.566984 
1615.000000	49.562978 
1614.000000	49.558281 
1613.000000	49.551987 
1612.000000	49.543213 
1611.000000	49.531197 
1610.000000	49.515509 
1609.000000	49.496173 
1608.000000	49.473810 
1607.000000	49.449682 
1606.000000	49.425482 
1605.000000	49.403119 
1604.000000	49.384546 
1603.000000	49.371504 
1602.000000	49.365043 
1601.000000	49.365353 
1600.000000	49.371647 
1599.000000	49.382185 
1598.000000	49.394726 
1597.000000	49.406599 
1596.000000	49.415564 
1595.000000	49.419832 
1594.000000	49.418663 
1593.000000	49.412369 
1592.000000	49.402117 
1591.000000	49.389696 
1590.000000	49.376583 
1589.000000	49.363970 
1588.000000	49.351859 
1587.000000	49.339532 
1586.000000	49.325203 
1585.000000	49.306821 
1584.000000	49.282526 
1583.000000	49.251437 
1582.000000	49.213981 
1581.000000	49.172019 
1580.000000	49.128651 
1579.000000	49.087667 
1578.000000	49.052739 
1577.000000	49.026656 
1576.000000	49.010753 
1575.000000	49.004793 
1574.000000	49.006938 
1573.000000	49.014401 
1572.000000	49.023962 
1571.000000	49.032449 
1570.000000	49.037456 
1569.000000	49.037694 
1568.000000	49.032592 
1567.000000	49.022936 
1566.000000	49.009990 
1565.000000	48.995757 
1564.000000	48.982191 
1563.000000	48.971152 
1562.000000	48.964118 
1561.000000	48.961687 
1560.000000	48.964023 
1559.000000	48.970270 
1558.000000	48.979020 
1557.000000	48.988366 
1556.000000	48.996376 
1555.000000	49.001407 
1554.000000	49.002361 
1553.000000	48.998904 
1552.000000	48.991298 
1551.000000	48.979949 
1550.000000	48.965191 
1549.000000	48.947381 
1548.000000	48.926520 
1547.000000	48.902630 
1546.000000	48.875832 
1545.000000	48.847007 
1544.000000	48.817563 
1543.000000	48.789310 
1542.000000	48.764038 
1541.000000	48.743128 
1540.000000	48.727607 
1539.000000	48.717570 
1538.000000	48.712563 
1537.000000	48.711490 
1536.000000	48.713135 
1535.000000	48.716449 
1534.000000	48.720693 
1533.000000	48.725295 
1532.000000	48.729991 
1531.000000	48.734259 
1530.000000	48.737573 
1529.000000	48.739075 
1528.000000	48.738002 
1527.000000	48.733854 
1526.000000	48.726654 
1525.000000	48.717117 
1524.000000	48.706603 
1523.000000	48.696732 
1522.000000	48.689031 
1521.000000	48.684668 
1520.000000	48.684334 
1519.000000	48.688220 
1518.000000	48.695993 
1517.000000	48.706698 
1516.000000	48.719143 
1515.000000	48.731923 
1514.000000	48.743486 
1513.000000	48.752355 
1512.000000	48.757266 
1511.000000	48.757100 
1510.000000	48.751330 
1509.000000	48.739767 
1508.000000	48.722791 
1507.000000	48.701238 
1506.000000	48.676347 
1505.000000	48.649668 
1504.000000	48.623061 
1503.000000	48.598265 
1502.000000	48.576831 
1501.000000	48.559880 
1500.000000	48.548054 
1499.000000	48.541188 
1498.000000	48.538517 
1497.000000	48.538279 
1496.000000	48.538303 
1495.000000	48.535990 
1494.000000	48.528861 
1493.000000	48.515129 
1492.000000	48.494052 
1491.000000	48.466229 
1490.000000	48.433494 
1489.000000	48.398351 
1488.000000	48.363661 
1487.000000	48.331880 
1486.000000	48.304653 
1485.000000	48.282957 
1484.000000	48.266553 
1483.000000	48.254299 
1482.000000	48.244309 
1481.000000	48.234367 
1480.000000	48.222303 
1479.000000	48.206257 
1478.000000	48.185324 
1477.000000	48.159718 
1476.000000	48.130941 
1475.000000	48.101305 
1474.000000	48.073577 
1473.000000	48.050236 
1472.000000	48.033022 
1471.000000	48.022317 
1470.000000	48.017454 
1469.000000	48.016786 
1468.000000	48.018383 
1467.000000	48.020648 
1466.000000	48.022603 
1465.000000	48.024106 
1464.000000	48.025774 
1463.000000	48.028159 
1462.000000	48.031449 
1461.000000	48.034763 
1460.000000	48.036289 
1459.000000	48.033428 
1458.000000	48.023438 
1457.000000	48.004317 
1456.000000	47.975850 
1455.000000	47.939682 
1454.000000	47.899389 
1453.000000	47.859549 
1452.000000	47.825050 
1451.000000	47.799324 
1450.000000	47.783493 
1449.000000	47.776174 
1448.000000	47.773694 
1447.000000	47.771096 
1446.000000	47.763609 
1445.000000	47.747945 
1444.000000	47.723340 
1443.000000	47.691631 
1442.000000	47.656893 
1441.000000	47.624230 
1440.000000	47.598600 
1439.000000	47.583580 
1438.000000	47.580623 
1437.000000	47.588825 
1436.000000	47.605252 
1435.000000	47.625827 
1434.000000	47.646188 
1433.000000	47.662377 
1432.000000	47.671651 
1431.000000	47.672533 
1430.000000	47.664880 
1429.000000	47.649621 
1428.000000	47.628641 
1427.000000	47.604084 
1426.000000	47.578573 
1425.000000	47.554731 
1424.000000	47.534990 
1423.000000	47.521376 
1422.000000	47.515201 
1421.000000	47.516798 
1420.000000	47.525358 
1419.000000	47.538948 
1418.000000	47.554802 
1417.000000	47.569847 
1416.000000	47.581243 
1415.000000	47.586965 
1414.000000	47.586059 
1413.000000	47.578668 
1412.000000	47.565698 
1411.000000	47.548675 
1410.000000	47.529101 
1409.000000	47.508525 
1408.000000	47.488141 
1407.000000	47.469067 
1406.000000	47.452473 
1405.000000	47.439670 
1404.000000	47.431945 
1403.000000	47.430324 
1402.000000	47.435069 
1401.000000	47.445249 
1400.000000	47.458958 
1399.000000	47.473025 
1398.000000	47.483611 
1397.000000	47.487044 
1396.000000	47.480511 
1395.000000	47.462964 
1394.000000	47.435402 
1393.000000	47.400593 
1392.000000	47.362494 
1391.000000	47.325396 
1390.000000	47.293162 
1389.000000	47.268390 
1388.000000	47.251796 
1387.000000	47.242689 
1386.000000	47.239065 
1385.000000	47.238421 
1384.000000	47.238612 
1383.000000	47.237896 
1382.000000	47.235536 
1381.000000	47.231602 
1380.000000	47.226786 
1379.000000	47.221589 
1378.000000	47.216176 
1377.000000	47.210216 
1376.000000	47.202610 
1375.000000	47.192120 
1374.000000	47.177457 
1373.000000	47.157859 
1372.000000	47.133541 
1371.000000	47.105908 
1370.000000	47.077536 
1369.000000	47.051811 
1368.000000	47.032380 
1367.000000	47.022318 
1366.000000	47.023653 
1365.000000	47.036671 
1364.000000	47.059774 
1363.000000	47.089624 
1362.000000	47.121548 
1361.000000	47.150540 
1360.000000	47.172117 
1359.000000	47.182846 
1358.000000	47.181129 
1357.000000	47.166848 
1356.000000	47.141671 
1355.000000	47.108125 
1354.000000	47.069048 
1353.000000	47.027087 
1352.000000	46.984410 
1351.000000	46.942496 
1350.000000	46.902656 
1349.000000	46.865987 
1348.000000	46.833753 
1347.000000	46.807575 
1346.000000	46.789026 
1345.000000	46.779608 
1344.000000	46.779775 
1343.000000	46.789288 
1342.000000	46.806645 
1341.000000	46.829438 
1340.000000	46.854448 
1339.000000	46.878337 
1338.000000	46.898078 
1337.000000	46.911501 
1336.000000	46.917533 
1335.000000	46.916294 
1334.000000	46.908855 
1333.000000	46.897101 
1332.000000	46.882963 
1331.000000	46.868419 
1330.000000	46.854758 
1329.000000	46.842837 
1328.000000	46.832513 
1327.000000	46.823215 
1326.000000	46.813797 
1325.000000	46.803164 
1324.000000	46.790242 
1323.000000	46.773958 
1322.000000	46.753597 
1321.000000	46.728873 
1320.000000	46.699833 
1319.000000	46.666717 
1318.000000	46.630144 
1317.000000	46.591258 
1316.000000	46.551609 
1315.000000	46.513175 
1314.000000	46.478152 
1313.000000	46.448659 
1312.000000	46.426272 
1311.000000	46.411728 
1310.000000	46.404385 
1309.000000	46.402549 
1308.000000	46.403694 
1307.000000	46.405076 
1306.000000	46.404051 
1305.000000	46.399021 
1304.000000	46.389555 
1303.000000	46.376824 
1302.000000	46.362900 
1301.000000	46.350550 
1300.000000	46.342420 
1299.000000	46.340537 
1298.000000	46.345782 
1297.000000	46.357727 
1296.000000	46.374559 
1295.000000	46.393728 
1294.000000	46.412348 
1293.000000	46.427655 
1292.000000	46.437430 
1291.000000	46.440553 
1290.000000	46.436834 
1289.000000	46.427059 
1288.000000	46.412825 
1287.000000	46.396160 
1286.000000	46.379256 
1285.000000	46.364116 
1284.000000	46.352291 
1283.000000	46.344685 
1282.000000	46.341562 
1281.000000	46.342325 
1280.000000	46.345615 
1279.000000	46.349525 
1278.000000	46.351957 
1277.000000	46.350836 
1276.000000	46.344685 
1275.000000	46.332812 
1274.000000	46.315526 
1273.000000	46.294069 
1272.000000	46.270394 
1271.000000	46.246886 
1270.000000	46.225833 
1269.000000	46.209001 
1268.000000	46.197199 
1267.000000	46.190166 
1266.000000	46.186637 
1265.000000	46.184492 
1264.000000	46.181297 
1263.000000	46.174669 
1262.000000	46.163082 
1261.000000	46.146154 
1260.000000	46.124863 
1259.000000	46.100902 
1258.000000	46.076536 
1257.000000	46.053934 
1256.000000	46.034455 
1255.000000	46.018290 
1254.000000	46.004724 
1253.000000	45.992445 
1252.000000	45.979905 
1251.000000	45.966219 
1250.000000	45.951461 
1249.000000	45.936965 
1248.000000	45.924758 
1247.000000	45.917391 
1246.000000	45.916914 
1245.000000	45.924305 
1244.000000	45.939040 
1243.000000	45.958948 
1242.000000	45.980811 
1241.000000	46.000552 
1240.000000	46.014618 
1239.000000	46.020221 
1238.000000	46.016097 
1237.000000	46.002745 
1236.000000	45.982003 
1235.000000	45.956683 
1234.000000	45.930027 
1233.000000	45.904850 
1232.000000	45.883178 
1231.000000	45.865678 
1230.000000	45.851945 
1229.000000	45.840573 
1228.000000	45.829796 
1227.000000	45.817947 
1226.000000	45.803809 
1225.000000	45.787167 
1224.000000	45.768785 
1223.000000	45.750117 
1222.000000	45.732975 
1221.000000	45.719099 
1220.000000	45.709657 
1219.000000	45.704936 
1218.000000	45.704030 
1217.000000	45.705270 
1216.000000	45.706319 
1215.000000	45.704770 
1214.000000	45.698690 
1213.000000	45.686841 
1212.000000	45.668935 
1211.000000	45.645570 
1210.000000	45.618104 
1209.000000	45.588159 
1208.000000	45.557570 
1207.000000	45.528221 
1206.000000	45.501613 
1205.000000	45.478820 
1204.000000	45.460605 
1203.000000	45.447182 
1202.000000	45.438385 
1201.000000	45.433664 
1200.000000	45.432257 
1199.000000	45.433259 
1198.000000	45.435810 
1197.000000	45.439219 
1196.000000	45.442771 
1195.000000	45.446038 
1194.000000	45.448613 
1193.000000	45.450139 
1192.000000	45.450353 
1191.000000	45.448946 
1190.000000	45.445632 
1189.000000	45.440387 
1188.000000	45.433330 
1187.000000	45.424842 
1186.000000	45.415735 
1185.000000	45.406651 
1184.000000	45.398044 
1183.000000	45.389914 
1182.000000	45.381927 
1181.000000	45.373225 
1180.000000	45.362639 
1179.000000	45.348882 
1178.000000	45.331096 
1177.000000	45.308613 
1176.000000	45.281267 
1175.000000	45.249438 
1174.000000	45.214080 
1173.000000	45.176672 
1172.000000	45.138978 
1171.000000	45.103025 
1170.000000	45.070528 
1169.000000	45.042872 
1168.000000	45.020508 
1167.000000	45.003151 
1166.000000	44.989657 
1165.000000	44.978380 
1164.000000	44.967770 
1163.000000	44.956231 
1162.000000	44.943451 
1161.000000	44.929909 
1160.000000	44.917297 
1159.000000	44.907784 
1158.000000	44.903635 
1157.000000	44.906282 
1156.000000	44.916129 
1155.000000	44.931888 
1154.000000	44.950985 
1153.000000	44.970440 
1152.000000	44.987058 
1151.000000	44.998192 
1150.000000	45.002031 
1149.000000	44.997787 
1148.000000	44.985508 
1147.000000	44.966173 
1146.000000	44.941449 
1145.000000	44.913506 
1144.000000	44.885015 
1143.000000	44.858765 
1142.000000	44.837141 
1141.000000	44.821453 
1140.000000	44.812178 
1139.000000	44.808530 
1138.000000	44.808316 
1137.000000	44.808530 
1136.000000	44.806385 
1135.000000	44.799327 
1134.000000	44.785571 
1133.000000	44.764304 
1132.000000	44.736146 
1131.000000	44.702291 
1130.000000	44.664454 
1129.000000	44.623899 
1128.000000	44.581627 
1127.000000	44.538116 
1126.000000	44.493627 
1125.000000	44.448471 
1124.000000	44.403314 
1123.000000	44.359660 
1122.000000	44.319891 
1121.000000	44.286823 
1120.000000	44.263076 
1119.000000	44.250941 
1118.000000	44.251632 
1117.000000	44.264745 
1116.000000	44.288754 
1115.000000	44.320654 
1114.000000	44.357323 
1113.000000	44.395613 
1112.000000	44.433593 
1111.000000	44.470548 
1110.000000	44.507408 
1109.000000	44.546055 
1108.000000	44.588422 
1107.000000	44.635915 
1106.000000	44.687914 
1105.000000	44.742226 
1104.000000	44.794106 
1103.000000	44.837617 
1102.000000	44.866061 
1101.000000	44.874143 
1100.000000	44.858670 
1099.000000	44.820070 
1098.000000	44.762015 
1097.000000	44.691038 
1096.000000	44.615292 
1095.000000	44.543051 
1094.000000	44.480919 
1093.000000	44.433045 
1092.000000	44.400763 
1091.000000	44.382858 
1090.000000	44.376134 
1089.000000	44.376516 
1088.000000	44.379496 
1087.000000	44.381165 
1086.000000	44.378280 
1085.000000	44.369053 
1084.000000	44.352412 
1083.000000	44.329023 
1082.000000	44.300293 
1081.000000	44.268798 
1080.000000	44.238042 
1079.000000	44.211244 
1078.000000	44.191098 
1077.000000	44.178080 
1076.000000	44.171071 
1075.000000	44.166159 
1074.000000	44.157910 
1073.000000	44.139862 
1072.000000	44.106554 
1071.000000	44.054627 
1070.000000	43.983912 
1069.000000	43.897414 
1068.000000	43.800950 
1067.000000	43.701958 
1066.000000	43.608355 
1065.000000	43.526625 
1064.000000	43.461251 
1063.000000	43.414735 
1062.000000	43.388128 
1061.000000	43.381738 
1060.000000	43.395590 
1059.000000	43.429422 
1058.000000	43.482398 
1057.000000	43.551898 
1056.000000	43.632984 
1055.000000	43.717551 
1054.000000	43.795680 
1053.000000	43.856787 
1052.000000	43.891978 
1051.000000	43.896079 
1050.000000	43.869066 
1049.000000	43.816471 
1048.000000	43.748283 
1047.000000	43.676972 
1046.000000	43.615150 
1045.000000	43.572783 
1044.000000	43.555784 
1043.000000	43.565106 
1042.000000	43.597698 
1041.000000	43.647813 
1040.000000	43.708682 
1039.000000	43.773865 
1038.000000	43.837690 
1037.000000	43.895626 
1036.000000	43.943738 
1035.000000	43.978810 
1034.000000	43.997764 
1033.000000	43.998456 
1032.000000	43.980455 
1031.000000	43.945264 
1030.000000	43.896865 
1029.000000	43.841075 
1028.000000	43.785095 
1027.000000	43.735623 
1026.000000	43.698501 
1025.000000	43.676447 
1024.000000	43.669056 
1023.000000	43.672537 
1022.000000	43.680930 
1021.000000	43.687343 
1020.000000	43.685412 
1019.000000	43.670821 
1018.000000	43.642115 
1017.000000	43.601083 
1016.000000	43.552017 
1015.000000	43.500494 
1014.000000	43.451976 
1013.000000	43.410801 
1012.000000	43.379449 
1011.000000	43.358206 
1010.000000	43.345499 
1009.000000	43.338537 
1008.000000	43.334054 
1007.000000	43.329477 
1006.000000	43.323349 
1005.000000	43.314909 
1004.000000	43.304395 
1003.000000	43.292355 
1002.000000	43.279433 
1001.000000	43.265628 
1000.000000	43.250489 
999.000000	 43.233251 
998.000000	 43.213391 
997.000000	 43.190717 
996.000000	 43.166422 
995.000000	 43.142461 
994.000000	 43.122148 
993.000000	 43.109059 
992.000000	 43.106842 
991.000000	 43.118071 
990.000000	 43.143653 
989.000000	 43.182349 
988.000000	 43.230605 
987.000000	 43.283033 
986.000000	 43.333315 
985.000000	 43.375182 
984.000000	 43.403363 
983.000000	 43.414592 
982.000000	 43.408179 
981.000000	 43.385887 
980.000000	 43.351221 
979.000000	 43.308591 
978.000000	 43.262600 
977.000000	 43.216705 
976.000000	 43.173408 
975.000000	 43.133378 
974.000000	 43.096637 
973.000000	 43.062305 
972.000000	 43.029808 
971.000000	 42.998528 
970.000000	 42.968630 
969.000000	 42.940449 
968.000000	 42.914199 
967.000000	 42.889833 
966.000000	 42.866683 
965.000000	 42.843818 
964.000000	 42.820024 
963.000000	 42.794585 
962.000000	 42.767453 
961.000000	 42.739820 
960.000000	 42.713952 
959.000000	 42.692542 
958.000000	 42.677974 
957.000000	 42.671632 
956.000000	 42.673373 
955.000000	 42.681121 
954.000000	 42.691445 
953.000000	 42.700672 
952.000000	 42.705607 
951.000000	 42.704439 
950.000000	 42.696881 
949.000000	 42.683792 
948.000000	 42.666769 
947.000000	 42.647528 
946.000000	 42.627453 
945.000000	 42.607188 
944.000000	 42.586946 
943.000000	 42.567372 
942.000000	 42.549133 
941.000000	 42.533636 
940.000000	 42.522168 
939.000000	 42.516160 
938.000000	 42.515945 
937.000000	 42.520403 
936.000000	 42.527008 
935.000000	 42.531895 
934.000000	 42.531108 
933.000000	 42.521548 
932.000000	 42.501902 
931.000000	 42.473030 
930.000000	 42.437791 
929.000000	 42.400527 
928.000000	 42.365741 
927.000000	 42.337322 
926.000000	 42.317867 
925.000000	 42.308330 
924.000000	 42.308139 
923.000000	 42.315459 
922.000000	 42.327809 
921.000000	 42.342448 
920.000000	 42.356657 
919.000000	 42.368292 
918.000000	 42.375874 
917.000000	 42.378830 
916.000000	 42.377138 
915.000000	 42.371392 
914.000000	 42.362475 
913.000000	 42.351198 
912.000000	 42.338395 
911.000000	 42.324304 
910.000000	 42.308664 
909.000000	 42.290639 
908.000000	 42.269468 
907.000000	 42.244362 
906.000000	 42.215251 
905.000000	 42.182779 
904.000000	 42.148447 
903.000000	 42.114353 
902.000000	 42.082667 
901.000000	 42.055010 
900.000000	 42.032217 
899.000000	 42.014050 
898.000000	 41.999173 
897.000000	 41.985869 
896.000000	 41.972327 
895.000000	 41.957044 
894.000000	 41.939353 
893.000000	 41.919350 
892.000000	 41.897821 
891.000000	 41.876244 
890.000000	 41.856336 
889.000000	 41.839170 
888.000000	 41.825628 
887.000000	 41.815829 
886.000000	 41.809391 
885.000000	 41.805505 
884.000000	 41.803407 
883.000000	 41.802215 
882.000000	 41.801428 
881.000000	 41.800642 
880.000000	 41.799259 
879.000000	 41.796493 
878.000000	 41.791439 
877.000000	 41.783332 
876.000000	 41.771841 
875.000000	 41.757154 
874.000000	 41.740489 
873.000000	 41.723704 
872.000000	 41.708803 
871.000000	 41.697239 
870.000000	 41.689443 
869.000000	 41.684532 
868.000000	 41.680335 
867.000000	 41.673707 
866.000000	 41.661548 
865.000000	 41.641497 
864.000000	 41.612577 
863.000000	 41.575717 
862.000000	 41.533303 
861.000000	 41.489243 
860.000000	 41.447687 
859.000000	 41.412520 
858.000000	 41.386508 
857.000000	 41.371011 
856.000000	 41.366004 
855.000000	 41.370296 
854.000000	 41.381907 
853.000000	 41.398334 
852.000000	 41.416835 
851.000000	 41.434478 
850.000000	 41.448330 
849.000000	 41.455721 
848.000000	 41.454505 
847.000000	 41.443109 
846.000000	 41.420745 
845.000000	 41.387724 
844.000000	 41.345643 
843.000000	 41.297149 
842.000000	 41.245722 
841.000000	 41.195607 
840.000000	 41.150975 
839.000000	 41.115427 
838.000000	 41.091156 
837.000000	 41.078615 
836.000000	 41.076302 
835.000000	 41.080999 
834.000000	 41.088366 
833.000000	 41.093659 
832.000000	 41.093039 
831.000000	 41.084146 
830.000000	 41.066908 
829.000000	 41.043162 
828.000000	 41.016435 
827.000000	 40.990972 
826.000000	 40.969729 
825.000000	 40.953612 
824.000000	 40.941023 
823.000000	 40.928149 
822.000000	 40.910172 
821.000000	 40.882444 
820.000000	 40.842294 
819.000000	 40.789747 
818.000000	 40.727090 
817.000000	 40.658783 
816.000000	 40.589857 
815.000000	 40.525317 
814.000000	 40.469193 
813.000000	 40.423846 
812.000000	 40.390133 
811.000000	 40.367436 
810.000000	 40.353655 
809.000000	 40.346264 
808.000000	 40.342235 
807.000000	 40.339350 
806.000000	 40.335965 
805.000000	 40.332007 
804.000000	 40.327930 
803.000000	 40.325212 
802.000000	 40.325474 
801.000000	 40.330052 
800.000000	 40.339231 
799.000000	 40.352630 
798.000000	 40.369153 
797.000000	 40.387392 
796.000000	 40.406084 
795.000000	 40.424251 
794.000000	 40.441298 
793.000000	 40.457177 
792.000000	 40.471816 
791.000000	 40.484881 
790.000000	 40.495276 
789.000000	 40.501236 
788.000000	 40.500473 
787.000000	 40.491032 
786.000000	 40.471363 
785.000000	 40.441560 
784.000000	 40.402793 
783.000000	 40.357828 
782.000000	 40.309786 
781.000000	 40.262198 
780.000000	 40.217113 
779.000000	 40.175318 
778.000000	 40.135765 
777.000000	 40.096426 
776.000000	 40.054655 
775.000000	 40.008354 
774.000000	 39.956760 
773.000000	 39.900946 
772.000000	 39.844083 
771.000000	 39.790534 
770.000000	 39.745092 
769.000000	 39.711689 
768.000000	 39.692425 
767.000000	 39.686775 
766.000000	 39.691758 
765.000000	 39.702272 
764.000000	 39.712119 
763.000000	 39.714860 
762.000000	 39.705133 
761.000000	 39.679169 
760.000000	 39.635205 
759.000000	 39.573931 
758.000000	 39.497590 
757.000000	 39.410805 
756.000000	 39.319396 
755.000000	 39.230513 
754.000000	 39.151597 
753.000000	 39.089536 
752.000000	 39.049601 
751.000000	 39.034652 
750.000000	 39.044570 
749.000000	 39.076137 
748.000000	 39.123010 
747.000000	 39.177465 
746.000000	 39.231181 
745.000000	 39.277482 
744.000000	 39.312148 
743.000000	 39.334106 
742.000000	 39.344954 
741.000000	 39.348268 
740.000000	 39.348077 
739.000000	 39.347910 
738.000000	 39.349555 
737.000000	 39.353084 
736.000000	 39.356613 
735.000000	 39.357829 
734.000000	 39.354157 
733.000000	 39.343857 
732.000000	 39.326286 
731.000000	 39.301896 
730.000000	 39.272356 
729.000000	 39.240193 
728.000000	 39.208722 
727.000000	 39.181256 
726.000000	 39.160823 
725.000000	 39.149880 
724.000000	 39.149212 
723.000000	 39.158487 
722.000000	 39.174795 
721.000000	 39.193272 
720.000000	 39.207243 
719.000000	 39.209485 
718.000000	 39.193677 
717.000000	 39.155983 
716.000000	 39.096236 
715.000000	 39.018154 
714.000000	 38.929319 
713.000000	 38.839697 
712.000000	 38.759636 
711.000000	 38.697481 
710.000000	 38.658380 
709.000000	 38.642716 
708.000000	 38.646674 
707.000000	 38.662719 
706.000000	 38.681435 
705.000000	 38.693499 
704.000000	 38.691306 
703.000000	 38.670825 
702.000000	 38.631534 
701.000000	 38.576889 
700.000000	 38.512587 
699.000000	 38.445782 
698.000000	 38.383007 
697.000000	 38.329219 
696.000000	 38.287281 
695.000000	 38.257479 
694.000000	 38.237977 
693.000000	 38.225531 
692.000000	 38.216543 
691.000000	 38.208007 
690.000000	 38.198232 
689.000000	 38.186836 
688.000000	 38.174366 
687.000000	 38.162326 
686.000000	 38.152503 
685.000000	 38.146114 
684.000000	 38.143587 
683.000000	 38.144445 
682.000000	 38.147282 
681.000000	 38.150548 
680.000000	 38.152599 
679.000000	 38.151741 
678.000000	 38.147068 
677.000000	 38.138294 
676.000000	 38.126277 
675.000000	 38.112783 
674.000000	 38.100361 
673.000000	 38.091325 
672.000000	 38.087534 
671.000000	 38.090634 
670.000000	 38.100385 
669.000000	 38.115096 
668.000000	 38.131022 
667.000000	 38.143348 
666.000000	 38.146495 
665.000000	 38.135600 
664.000000	 38.106846 
663.000000	 38.058447 
662.000000	 37.991189 
661.000000	 37.908363 
660.000000	 37.815022 
659.000000	 37.717151 
658.000000	 37.621045 
657.000000	 37.532591 
656.000000	 37.456536 
655.000000	 37.396287 
654.000000	 37.353801 
653.000000	 37.329196 
652.000000	 37.321019 
651.000000	 37.325406 
650.000000	 37.336635 
649.000000	 37.346935 
648.000000	 37.347793 
647.000000	 37.330746 
646.000000	 37.288737 
645.000000	 37.217688 
644.000000	 37.117457 
643.000000	 36.992621 
642.000000	 36.851930 
641.000000	 36.707448 
640.000000	 36.572265 
639.000000	 36.458826 
638.000000	 36.376452 
637.000000	 36.330437 
636.000000	 36.321449 
635.000000	 36.345744 
634.000000	 36.396241 
633.000000	 36.464476 
632.000000	 36.542057 
631.000000	 36.621522 
630.000000	 36.697220 
629.000000	 36.765170 
628.000000	 36.822772 
627.000000	 36.868166 
626.000000	 36.899518 
625.000000	 36.914730 
624.000000	 36.911582 
623.000000	 36.889028 
622.000000	 36.847686 
621.000000	 36.790800 
620.000000	 36.723709 
619.000000	 36.654186 
618.000000	 36.590003 
617.000000	 36.538052 
616.000000	 36.502599 
615.000000	 36.484622 
614.000000	 36.481881 
613.000000	 36.489629 
612.000000	 36.502194 
611.000000	 36.514592 
610.000000	 36.523032 
609.000000	 36.525535 
608.000000	 36.521577 
607.000000	 36.511325 
606.000000	 36.494922 
605.000000	 36.471915 
604.000000	 36.441206 
603.000000	 36.401319 
602.000000	 36.351919 
601.000000	 36.293959 
600.000000	 36.230373 
599.000000	 36.164999 
598.000000	 36.102128 
597.000000	 36.045169 
596.000000	 35.995435 
595.000000	 35.952544 
594.000000	 35.914087 
593.000000	 35.877442 
592.000000	 35.840535 
591.000000	 35.803270 
590.000000	 35.767388 
589.000000	 35.736560 
588.000000	 35.714983 
587.000000	 35.705757 
586.000000	 35.709357 
585.000000	 35.722684 
584.000000	 35.739350 
583.000000	 35.750555 
582.000000	 35.747146 
581.000000	 35.721397 
580.000000	 35.669016 
579.000000	 35.590124 
578.000000	 35.489797 
577.000000	 35.376811 
576.000000	 35.262465 
575.000000	 35.158991 
574.000000	 35.077476 
573.000000	 35.026073 
572.000000	 35.008740 
571.000000	 35.024881 
570.000000	 35.069465 
569.000000	 35.133743 
568.000000	 35.207462 
567.000000	 35.280346 
566.000000	 35.344338 
565.000000	 35.393905 
564.000000	 35.427045 
563.000000	 35.444593 
562.000000	 35.448884 
561.000000	 35.442614 
560.000000	 35.427284 
559.000000	 35.403251 
558.000000	 35.369205 
557.000000	 35.323643 
556.000000	 35.265588 
555.000000	 35.195779 
554.000000	 35.117244 
553.000000	 35.035252 
552.000000	 34.956336 
551.000000	 34.886789 
550.000000	 34.830594 
549.000000	 34.788465 
548.000000	 34.757494 
547.000000	 34.731912 
546.000000	 34.704661 
545.000000	 34.669232 
544.000000	 34.621024 
543.000000	 34.558391 
542.000000	 34.483528 
541.000000	 34.400796 
540.000000	 34.315443 
539.000000	 34.231472 
538.000000	 34.150719 
537.000000	 34.072542 
536.000000	 33.994674 
535.000000	 33.914518 
534.000000	 33.830332 
533.000000	 33.743405 
532.000000	 33.658218 
531.000000	 33.581638 
530.000000	 33.520865 
529.000000	 33.481121 
528.000000	 33.464002 
527.000000	 33.465552 
526.000000	 33.476710 
525.000000	 33.485603 
524.000000	 33.480668 
523.000000	 33.453083 
522.000000	 33.399820 
521.000000	 33.324718 
520.000000	 33.238220 
519.000000	 33.154344 
518.000000	 33.087491 
517.000000	 33.048844 
516.000000	 33.043527 
515.000000	 33.069610 
514.000000	 33.118581 
513.000000	 33.177471 
512.000000	 33.232212 
511.000000	 33.271217 
510.000000	 33.287525 
509.000000	 33.279609 
508.000000	 33.251357 
507.000000	 33.210372 
506.000000	 33.164691 
505.000000	 33.120298 
504.000000	 33.078980 
503.000000	 33.038520 
502.000000	 32.992362 
501.000000	 32.932162 
500.000000	 32.849335 
499.000000	 32.738089 
498.000000	 32.596445 
497.000000	 32.427620 
496.000000	 32.239103 
495.000000	 32.041835 
494.000000	 31.848120 
493.000000	 31.670284 
492.000000	 31.518268 
491.000000	 31.399345 
490.000000	 31.317329 
489.000000	 31.272959 
488.000000	 31.262946 
487.000000	 31.282091 
486.000000	 31.322884 
485.000000	 31.378126 
484.000000	 31.439375 
483.000000	 31.499838 
482.000000	 31.554198 
481.000000	 31.598949 
480.000000	 31.631517 
479.000000	 31.649732 
478.000000	 31.652116 
477.000000	 31.635975 
476.000000	 31.598424 
475.000000	 31.535363 
474.000000	 31.443023 
473.000000	 31.320309 
472.000000	 31.170582 
471.000000	 31.002902 
470.000000	 30.831241 
469.000000	 30.673217 
468.000000	 30.545949 
467.000000	 30.461835 
466.000000	 30.424904 
465.000000	 30.430340 
464.000000	 30.464506 
463.000000	 30.506420 
462.000000	 30.533623 
461.000000	 30.527400 
460.000000	 30.477452 
459.000000	 30.384278 
458.000000	 30.257678 
457.000000	 30.113339 
456.000000	 29.967498 
455.000000	 29.831075 
454.000000	 29.709124 
453.000000	 29.598569 
452.000000	 29.495215 
451.000000	 29.398322 
450.000000	 29.312181 
449.000000	 29.247164 
448.000000	 29.214501 
447.000000	 29.222464 
446.000000	 29.269170 
445.000000	 29.341101 
444.000000	 29.416918 
443.000000	 29.473638 
442.000000	 29.493355 
441.000000	 29.469633 
440.000000	 29.414963 
439.000000	 29.355812 
438.000000	 29.322648 
437.000000	 29.339504 
436.000000	 29.418540 
435.000000	 29.552245 
434.000000	 29.708361 
433.000000	 29.843282 
432.000000	 29.919743 
431.000000	 29.912948 
430.000000	 29.821491 
429.000000	 29.662537 
428.000000	 29.464197 
427.000000	 29.258203 
426.000000	 29.076313 
425.000000	 28.932499 
424.000000	 28.810811 
423.000000	 28.691577 
422.000000	 28.570365 
421.000000	 28.437018 
420.000000	 28.276705 
419.000000	 28.087210 
418.000000	 27.877235 
417.000000	 27.655816 
416.000000	 27.425527 
415.000000	 27.169418 
414.000000	 26.850295 
413.000000	 26.432490 
412.000000	 25.879740 
411.000000	 25.175094 
410.000000	 24.311375 
409.000000	 23.287796 
408.000000	 22.116971 
407.000000	 20.797038 
406.000000	 19.359779 
405.000000	 17.876482 
404.000000	 16.475486 
403.000000	 15.299630 
402.000000	 14.530301 
401.000000	 14.305591 
400.000000	 14.775538 
399.000000	 15.985679 
398.000000	 18.025374 
397.000000	 20.998740 
396.000000	 25.010991 
395.000000	 30.136823 
394.000000	 36.244010 
393.000000	 42.945289 
392.000000	 49.592733 
391.000000	 55.379104 
390.000000	 59.493708 
389.000000	 61.302113 
388.000000	 60.646009 
387.000000	 57.840132 
386.000000	 53.547215 
385.000000	 48.609995 
384.000000	 43.754601 
383.000000	 39.495801 
382.000000	 36.196541 
381.000000	 33.931183 
380.000000	 32.771801 
379.000000	 32.535266 
378.000000	 32.761049 
377.000000	 32.860183 
376.000000	 32.078242 
375.000000	 29.931187 
374.000000	 26.338815 
373.000000	 21.709656 
372.000000	 17.094516 
371.000000	 13.443160 
370.000000	 11.181259 

