PE IR       SPECTRUM    SPECTRUM    ASCII       PEDS        1.60        
  -1
C-4909~1.ASC
17/03/27
23:53:38.00
17/03/27
23:53:38.00
tln
$C-4040-8_t0114$<tbV0>[5.2,13.0,8.0,0.0,27,1,0]
370.000000
64









2002,4.07    
MIRTGS : RIGHTBACK : INTERNAL 2
MIR : ON : INTERNAL 2
OPTKBR

0.200000
8
8.000000
FILLER
RATIO
SPECTRUM
UNLOCKED 256

DOUBLE
64
COMBINED
1
0
0


1.000000
RATIO


1
0
TRUE
51149
0
LEFT NOT FITTED RIGHT NOT FITTED 0
NONE
NONE
15600
12.000000
4.427000
51148
TRUE
1 0 8 72 0 0 0 0 

15798.010000






#HDR
-1
-1
#GR
CM-1
%T
0.00002384185791015625
0.0
5000.000000
-1.000000
4631
8
96.961212
39.143419
#DATA
5000.000000	64.621615 
4999.000000	64.601230 
4998.000000	64.574098 
4997.000000	64.536309 
4996.000000	64.488744 
4995.000000	64.435601 
4994.000000	64.384937 
4993.000000	64.344668 
4992.000000	64.322924 
4991.000000	64.324808 
4990.000000	64.352941 
4989.000000	64.406657 
4988.000000	64.482092 
4987.000000	64.573001 
4986.000000	64.671039 
4985.000000	64.766979 
4984.000000	64.851856 
4983.000000	64.918279 
4982.000000	64.961862 
4981.000000	64.982151 
4980.000000	64.983773 
4979.000000	64.975500 
4978.000000	64.969110 
4977.000000	64.976048 
4976.000000	65.004968 
4975.000000	65.058994 
4974.000000	65.135169 
4973.000000	65.224790 
4972.000000	65.315365 
4971.000000	65.393948 
4970.000000	65.451216 
4969.000000	65.483117 
4968.000000	65.491557 
4967.000000	65.483474 
4966.000000	65.468549 
4965.000000	65.456557 
4964.000000	65.454912 
4963.000000	65.466952 
4962.000000	65.492010 
4961.000000	65.525746 
4960.000000	65.562224 
4959.000000	65.595173 
4958.000000	65.620112 
4957.000000	65.633535 
4956.000000	65.633535 
4955.000000	65.618228 
4954.000000	65.585875 
4953.000000	65.535306 
4952.000000	65.466833 
4951.000000	65.382623 
4950.000000	65.287756 
4949.000000	65.190911 
4948.000000	65.103197 
4947.000000	65.036344 
4946.000000	65.000343 
4945.000000	65.001440 
4944.000000	65.039873 
4943.000000	65.109300 
4942.000000	65.197706 
4941.000000	65.289592 
4940.000000	65.369033 
4939.000000	65.421843 
4938.000000	65.439939 
4937.000000	65.422439 
4936.000000	65.376234 
4935.000000	65.313386 
4934.000000	65.249180 
4933.000000	65.198063 
4932.000000	65.171313 
4931.000000	65.175056 
4930.000000	65.208077 
4929.000000	65.262556 
4928.000000	65.326714 
4927.000000	65.387582 
4926.000000	65.432977 
4925.000000	65.454339 
4924.000000	65.447759 
4923.000000	65.414738 
4922.000000	65.361714 
4921.000000	65.298151 
4920.000000	65.234613 
4919.000000	65.179991 
4918.000000	65.140700 
4917.000000	65.118193 
4916.000000	65.110325 
4915.000000	65.110588 
4914.000000	65.110826 
4913.000000	65.102338 
4912.000000	65.077328 
4911.000000	65.032219 
4910.000000	64.967417 
4909.000000	64.889764 
4908.000000	64.809513 
4907.000000	64.742660 
4906.000000	64.706921 
4905.000000	64.720082 
4904.000000	64.795303 
4903.000000	64.938640 
4902.000000	65.146303 
4901.000000	65.403747 
4900.000000	65.686655 
4899.000000	65.963673 
4898.000000	66.201281 
4897.000000	66.369962 
4896.000000	66.449236 
4895.000000	66.432046 
4894.000000	66.324639 
4893.000000	66.146993 
4892.000000	65.925931 
4891.000000	65.690827 
4890.000000	65.465998 
4889.000000	65.269088 
4888.000000	65.107083 
4887.000000	64.979076 
4886.000000	64.877867 
4885.000000	64.795660 
4884.000000	64.725875 
4883.000000	64.665317 
4882.000000	64.614486 
4881.000000	64.574909 
4880.000000	64.548969 
4879.000000	64.536690 
4878.000000	64.535856 
4877.000000	64.541149 
4876.000000	64.547061 
4875.000000	64.549112 
4874.000000	64.546203 
4873.000000	64.540958 
4872.000000	64.539575 
4871.000000	64.549922 
4870.000000	64.578485 
4869.000000	64.628386 
4868.000000	64.698338 
4867.000000	64.782524 
4866.000000	64.870858 
4865.000000	64.952111 
4864.000000	65.017127 
4863.000000	65.060615 
4862.000000	65.082502 
4861.000000	65.087461 
4860.000000	65.083289 
4859.000000	65.078592 
4858.000000	65.081524 
4857.000000	65.095829 
4856.000000	65.120244 
4855.000000	65.148854 
4854.000000	65.173888 
4853.000000	65.187168 
4852.000000	65.182876 
4851.000000	65.159511 
4850.000000	65.120434 
4849.000000	65.073060 
4848.000000	65.026783 
4847.000000	64.990997 
4846.000000	64.972662 
4845.000000	64.975214 
4844.000000	64.997386 
4843.000000	65.034461 
4842.000000	65.078496 
4841.000000	65.120339 
4840.000000	65.150618 
4839.000000	65.161538 
4838.000000	65.148043 
4837.000000	65.107965 
4836.000000	65.042948 
4835.000000	64.957666 
4834.000000	64.859843 
4833.000000	64.759182 
4832.000000	64.666175 
4831.000000	64.590334 
4830.000000	64.538645 
4829.000000	64.514446 
4828.000000	64.516925 
4827.000000	64.541363 
4826.000000	64.580488 
4825.000000	64.625835 
4824.000000	64.669871 
4823.000000	64.707064 
4822.000000	64.734864 
4821.000000	64.753437 
4820.000000	64.764928 
4819.000000	64.772343 
4818.000000	64.779305 
4817.000000	64.789056 
4816.000000	64.804053 
4815.000000	64.825558 
4814.000000	64.854073 
4813.000000	64.888882 
4812.000000	64.928603 
4811.000000	64.970850 
4810.000000	65.012812 
4809.000000	65.051245 
4808.000000	65.082812 
4807.000000	65.105032 
4806.000000	65.116333 
4805.000000	65.117120 
4804.000000	65.109562 
4803.000000	65.097618 
4802.000000	65.085864 
4801.000000	65.079259 
4800.000000	65.082550 
4799.000000	65.098762 
4798.000000	65.128636 
4797.000000	65.170335 
4796.000000	65.219759 
4795.000000	65.270256 
4794.000000	65.313720 
4793.000000	65.341281 
4792.000000	65.345120 
4791.000000	65.320038 
4790.000000	65.264821 
4789.000000	65.182685 
4788.000000	65.080738 
4787.000000	64.969873 
4786.000000	64.862155 
4785.000000	64.768767 
4784.000000	64.697694 
4783.000000	64.652347 
4782.000000	64.631462 
4781.000000	64.629006 
4780.000000	64.637446 
4779.000000	64.649200 
4778.000000	64.659953 
4777.000000	64.668440 
4776.000000	64.677739 
4775.000000	64.692783 
4774.000000	64.719343 
4773.000000	64.760971 
4772.000000	64.818310 
4771.000000	64.887785 
4770.000000	64.962649 
4769.000000	65.034699 
4768.000000	65.095162 
4767.000000	65.136456 
4766.000000	65.153598 
4765.000000	65.144705 
4764.000000	65.111041 
4763.000000	65.056276 
4762.000000	64.985346 
4761.000000	64.903593 
4760.000000	64.816451 
4759.000000	64.728617 
4758.000000	64.644455 
4757.000000	64.567685 
4756.000000	64.501380 
4755.000000	64.448332 
4754.000000	64.410543 
4753.000000	64.389872 
4752.000000	64.386868 
4751.000000	64.401745 
4750.000000	64.432907 
4749.000000	64.478206 
4748.000000	64.534091 
4747.000000	64.597082 
4746.000000	64.663004 
4745.000000	64.729118 
4744.000000	64.793992 
4743.000000	64.857316 
4742.000000	64.919185 
4741.000000	64.978861 
4740.000000	65.034151 
4739.000000	65.080547 
4738.000000	65.111827 
4737.000000	65.121483 
4736.000000	65.104174 
4735.000000	65.058302 
4734.000000	64.986562 
4733.000000	64.896178 
4732.000000	64.797520 
4731.000000	64.702653 
4730.000000	64.622211 
4729.000000	64.562797 
4728.000000	64.525914 
4727.000000	64.508342 
4726.000000	64.503860 
4725.000000	64.505147 
4724.000000	64.506268 
4723.000000	64.504456 
4722.000000	64.500045 
4721.000000	64.495468 
4720.000000	64.493584 
4719.000000	64.495348 
4718.000000	64.499759 
4717.000000	64.503407 
4716.000000	64.501690 
4715.000000	64.490222 
4714.000000	64.466905 
4713.000000	64.433169 
4712.000000	64.393544 
4711.000000	64.355087 
4710.000000	64.325642 
4709.000000	64.312100 
4708.000000	64.318323 
4707.000000	64.344429 
4706.000000	64.387130 
4705.000000	64.440464 
4704.000000	64.497470 
4703.000000	64.551377 
4702.000000	64.596486 
4701.000000	64.629364 
4700.000000	64.648771 
4699.000000	64.655709 
4698.000000	64.652228 
4697.000000	64.641284 
4696.000000	64.626908 
4695.000000	64.612293 
4694.000000	64.599919 
4693.000000	64.590764 
4692.000000	64.584898 
4691.000000	64.581131 
4690.000000	64.577674 
4689.000000	64.572834 
4688.000000	64.565491 
4687.000000	64.555740 
4686.000000	64.544773 
4685.000000	64.534640 
4684.000000	64.527583 
4683.000000	64.525103 
4682.000000	64.527487 
4681.000000	64.533424 
4680.000000	64.540529 
4679.000000	64.545512 
4678.000000	64.545702 
4677.000000	64.539575 
4676.000000	64.527845 
4675.000000	64.512991 
4674.000000	64.499187 
4673.000000	64.490628 
4672.000000	64.491558 
4671.000000	64.504694 
4670.000000	64.531350 
4669.000000	64.570546 
4668.000000	64.619970 
4667.000000	64.676809 
4666.000000	64.737629 
4665.000000	64.799094 
4664.000000	64.857625 
4663.000000	64.909625 
4662.000000	64.951419 
4661.000000	64.979434 
4660.000000	64.991211 
4659.000000	64.985966 
4658.000000	64.965605 
4657.000000	64.934682 
4656.000000	64.899563 
4655.000000	64.867401 
4654.000000	64.844918 
4653.000000	64.837121 
4652.000000	64.845919 
4651.000000	64.870166 
4650.000000	64.906024 
4649.000000	64.947915 
4648.000000	64.989876 
4647.000000	65.026688 
4646.000000	65.054655 
4645.000000	65.071916 
4644.000000	65.078282 
4643.000000	65.074586 
4642.000000	65.062117 
4641.000000	65.041685 
4640.000000	65.013837 
4639.000000	64.978599 
4638.000000	64.936351 
4637.000000	64.888095 
4636.000000	64.835953 
4635.000000	64.783382 
4634.000000	64.734911 
4633.000000	64.695930 
4632.000000	64.671897 
4631.000000	64.667415 
4630.000000	64.685297 
4629.000000	64.726138 
4628.000000	64.787888 
4627.000000	64.865851 
4626.000000	64.953351 
4625.000000	65.042352 
4624.000000	65.124654 
4623.000000	65.192937 
4622.000000	65.241694 
4621.000000	65.267872 
4620.000000	65.271282 
4619.000000	65.254616 
4618.000000	65.222597 
4617.000000	65.181708 
4616.000000	65.138649 
4615.000000	65.099740 
4614.000000	65.069818 
4613.000000	65.051817 
4612.000000	65.046715 
4611.000000	65.053963 
4610.000000	65.071487 
4609.000000	65.096211 
4608.000000	65.124917 
4607.000000	65.154910 
4606.000000	65.184259 
4605.000000	65.211844 
4604.000000	65.237450 
4603.000000	65.261244 
4602.000000	65.283060 
4601.000000	65.302324 
4600.000000	65.317964 
4599.000000	65.328764 
4598.000000	65.334248 
4597.000000	65.334653 
4596.000000	65.331315 
4595.000000	65.325975 
4594.000000	65.320634 
4593.000000	65.316724 
4592.000000	65.314054 
4591.000000	65.311813 
4590.000000	65.308737 
4589.000000	65.304374 
4588.000000	65.299081 
4587.000000	65.295171 
4586.000000	65.296149 
4585.000000	65.306282 
4584.000000	65.329241 
4583.000000	65.366864 
4582.000000	65.418386 
4581.000000	65.480256 
4580.000000	65.546631 
4579.000000	65.611052 
4578.000000	65.667867 
4577.000000	65.713572 
4576.000000	65.747237 
4575.000000	65.769839 
4574.000000	65.783405 
4573.000000	65.790200 
4572.000000	65.791654 
4571.000000	65.788602 
4570.000000	65.780997 
4569.000000	65.769195 
4568.000000	65.753579 
4567.000000	65.735101 
4566.000000	65.714859 
4565.000000	65.694236 
4564.000000	65.674638 
4563.000000	65.657401 
4562.000000	65.643405 
4561.000000	65.632939 
4560.000000	65.625381 
4559.000000	65.619611 
4558.000000	65.613460 
4557.000000	65.603899 
4556.000000	65.588283 
4555.000000	65.564966 
4554.000000	65.534591 
4553.000000	65.499925 
4552.000000	65.466475 
4551.000000	65.441584 
4550.000000	65.433144 
4549.000000	65.447664 
4548.000000	65.488386 
4547.000000	65.554141 
4546.000000	65.638685 
4545.000000	65.732312 
4544.000000	65.823864 
4543.000000	65.903663 
4542.000000	65.965557 
4541.000000	66.007781 
4540.000000	66.033148 
4539.000000	66.046428 
4538.000000	66.053605 
4537.000000	66.057705 
4536.000000	66.058802 
4535.000000	66.052293 
4534.000000	66.031360 
4533.000000	65.988087 
4532.000000	65.916705 
4531.000000	65.816140 
4530.000000	65.691614 
4529.000000	65.555167 
4528.000000	65.423631 
4527.000000	65.316057 
4526.000000	65.249609 
4525.000000	65.235757 
4524.000000	65.277385 
4523.000000	65.368485 
4522.000000	65.495276 
4521.000000	65.639233 
4520.000000	65.781044 
4519.000000	65.904021 
4518.000000	65.997338 
4517.000000	66.056942 
4516.000000	66.085457 
4515.000000	66.089487 
4514.000000	66.077375 
4513.000000	66.057181 
4512.000000	66.034102 
4511.000000	66.011261 
4510.000000	65.988206 
4509.000000	65.963864 
4508.000000	65.936040 
4507.000000	65.904307 
4506.000000	65.869522 
4505.000000	65.834093 
4504.000000	65.802073 
4503.000000	65.777635 
4502.000000	65.765404 
4501.000000	65.768671 
4500.000000	65.790367 
4499.000000	65.832138 
4498.000000	65.893745 
4497.000000	65.972232 
4496.000000	66.062331 
4495.000000	66.156387 
4494.000000	66.244149 
4493.000000	66.314554 
4492.000000	66.356897 
4491.000000	66.363835 
4490.000000	66.333365 
4489.000000	66.270256 
4488.000000	66.185307 
4487.000000	66.093850 
4486.000000	66.013789 
4485.000000	65.960812 
4484.000000	65.945339 
4483.000000	65.969991 
4482.000000	66.029691 
4481.000000	66.112613 
4480.000000	66.203022 
4479.000000	66.285562 
4478.000000	66.347980 
4477.000000	66.385149 
4476.000000	66.398572 
4475.000000	66.397047 
4474.000000	66.393232 
4473.000000	66.400408 
4472.000000	66.428589 
4471.000000	66.481709 
4470.000000	66.556406 
4469.000000	66.643047 
4468.000000	66.728377 
4467.000000	66.798162 
4466.000000	66.840863 
4465.000000	66.850852 
4464.000000	66.829061 
4463.000000	66.782498 
4462.000000	66.721677 
4461.000000	66.658163 
4460.000000	66.600775 
4459.000000	66.553330 
4458.000000	66.514563 
4457.000000	66.479206 
4456.000000	66.441130 
4455.000000	66.396927 
4454.000000	66.347265 
4453.000000	66.298151 
4452.000000	66.257858 
4451.000000	66.234302 
4450.000000	66.231870 
4449.000000	66.248202 
4448.000000	66.276407 
4447.000000	66.306090 
4446.000000	66.327810 
4445.000000	66.335964 
4444.000000	66.331243 
4443.000000	66.320872 
4442.000000	66.316986 
4441.000000	66.333341 
4440.000000	66.382527 
4439.000000	66.472482 
4438.000000	66.600370 
4437.000000	66.753649 
4436.000000	66.921186 
4435.000000	67.091345 
4434.000000	67.247295 
4433.000000	67.372417 
4432.000000	67.461943 
4431.000000	67.515492 
4430.000000	67.525529 
4429.000000	67.488265 
4428.000000	67.413139 
4427.000000	67.313361 
4426.000000	67.204165 
4425.000000	67.099094 
4424.000000	67.007207 
4423.000000	66.933178 
4422.000000	66.877126 
4421.000000	66.839551 
4420.000000	66.820955 
4419.000000	66.831374 
4418.000000	66.890668 
4417.000000	67.012000 
4416.000000	67.192101 
4415.000000	67.412352 
4414.000000	67.631840 
4413.000000	67.785072 
4412.000000	67.782020 
4411.000000	67.541170 
4410.000000	66.984558 
4409.000000	66.055297 
4408.000000	64.710879 
4407.000000	62.950181 
4406.000000	60.795617 
4405.000000	58.293509 
4404.000000	55.515813 
4403.000000	52.555727 
4402.000000	49.540567 
4401.000000	46.616458 
4400.000000	43.959736 
4399.000000	41.741895 
4398.000000	40.130925 
4397.000000	39.242386 
4396.000000	39.143419 
4395.000000	39.807152 
4394.000000	41.152548 
4393.000000	43.034768 
4392.000000	45.289015 
4391.000000	47.737765 
4390.000000	50.229358 
4389.000000	52.643799 
4388.000000	54.901909 
4387.000000	56.958913 
4386.000000	58.805489 
4385.000000	60.450315 
4384.000000	61.920475 
4383.000000	63.237428 
4382.000000	64.414095 
4381.000000	65.439915 
4380.000000	66.304850 
4379.000000	66.988229 
4378.000000	67.484784 
4377.000000	67.794609 
4376.000000	67.957425 
4375.000000	68.016743 
4374.000000	68.017244 
4373.000000	67.989802 
4372.000000	67.960023 
4371.000000	67.933440 
4370.000000	67.903065 
4369.000000	67.856597 
4368.000000	67.797684 
4367.000000	67.728018 
4366.000000	67.650437 
4365.000000	67.563986 
4364.000000	67.462491 
4363.000000	67.341160 
4362.000000	67.199945 
4361.000000	67.041921 
4360.000000	66.873884 
4359.000000	66.714096 
4358.000000	66.587281 
4357.000000	66.505265 
4356.000000	66.467857 
4355.000000	66.471982 
4354.000000	66.509628 
4353.000000	66.563749 
4352.000000	66.615986 
4351.000000	66.654920 
4350.000000	66.675186 
4349.000000	66.672658 
4348.000000	66.648626 
4347.000000	66.609168 
4346.000000	66.561841 
4345.000000	66.511797 
4344.000000	66.462254 
4343.000000	66.414570 
4342.000000	66.368722 
4341.000000	66.325020 
4340.000000	66.284203 
4339.000000	66.247963 
4338.000000	66.218757 
4337.000000	66.199278 
4336.000000	66.190719 
4335.000000	66.191983 
4334.000000	66.200041 
4333.000000	66.210293 
4332.000000	66.216993 
4331.000000	66.214680 
4330.000000	66.199541 
4329.000000	66.170382 
4328.000000	66.128778 
4327.000000	66.078805 
4326.000000	66.026020 
4325.000000	65.976285 
4324.000000	65.934252 
4323.000000	65.902495 
4322.000000	65.881180 
4321.000000	65.868616 
4320.000000	65.862178 
4319.000000	65.859508 
4318.000000	65.858840 
4317.000000	65.860247 
4316.000000	65.864586 
4315.000000	65.874218 
4314.000000	65.891242 
4313.000000	65.917825 
4312.000000	65.954875 
4311.000000	66.002321 
4310.000000	66.058754 
4309.000000	66.121220 
4308.000000	66.185259 
4307.000000	66.245532 
4306.000000	66.296291 
4305.000000	66.331720 
4304.000000	66.346311 
4303.000000	66.336250 
4302.000000	66.299533 
4301.000000	66.236257 
4300.000000	66.149115 
4299.000000	66.042971 
4298.000000	65.925312 
4297.000000	65.805435 
4296.000000	65.693807 
4295.000000	65.601062 
4294.000000	65.536165 
4293.000000	65.504860 
4292.000000	65.508747 
4291.000000	65.544462 
4290.000000	65.604472 
4289.000000	65.677809 
4288.000000	65.752482 
4287.000000	65.816569 
4286.000000	65.861630 
4285.000000	65.883421 
4284.000000	65.883183 
4283.000000	65.866112 
4282.000000	65.841221 
4281.000000	65.818452 
4280.000000	65.806818 
4279.000000	65.811872 
4278.000000	65.834665 
4277.000000	65.871095 
4276.000000	65.913105 
4275.000000	65.950465 
4274.000000	65.972876 
4273.000000	65.972757 
4272.000000	65.946698 
4271.000000	65.896987 
4270.000000	65.830659 
4269.000000	65.758204 
4268.000000	65.691471 
4267.000000	65.640187 
4266.000000	65.610504 
4265.000000	65.602731 
4264.000000	65.612339 
4263.000000	65.630364 
4262.000000	65.646481 
4261.000000	65.651178 
4260.000000	65.638160 
4259.000000	65.605902 
4258.000000	65.557336 
4257.000000	65.499114 
4256.000000	65.439343 
4255.000000	65.386366 
4254.000000	65.346717 
4253.000000	65.324163 
4252.000000	65.319252 
4251.000000	65.329909 
4250.000000	65.352344 
4249.000000	65.382409 
4248.000000	65.416336 
4247.000000	65.450835 
4246.000000	65.483069 
4245.000000	65.510773 
4244.000000	65.531468 
4243.000000	65.542316 
4242.000000	65.540099 
4241.000000	65.521907 
4240.000000	65.485358 
4239.000000	65.429687 
4238.000000	65.356421 
4237.000000	65.269804 
4236.000000	65.176868 
4235.000000	65.086674 
4234.000000	65.008831 
4233.000000	64.952111 
4232.000000	64.922356 
4231.000000	64.921164 
4230.000000	64.945363 
4229.000000	64.987564 
4228.000000	65.038251 
4227.000000	65.087771 
4226.000000	65.128779 
4225.000000	65.157914 
4224.000000	65.176272 
4223.000000	65.188765 
4222.000000	65.202450 
4221.000000	65.224337 
4220.000000	65.259480 
4219.000000	65.309262 
4218.000000	65.371203 
4217.000000	65.439224 
4216.000000	65.506196 
4215.000000	65.564775 
4214.000000	65.609884 
4213.000000	65.638470 
4212.000000	65.650200 
4211.000000	65.646386 
4210.000000	65.629673 
4209.000000	65.602850 
4208.000000	65.568351 
4207.000000	65.528464 
4206.000000	65.485978 
4205.000000	65.443921 
4204.000000	65.405821 
4203.000000	65.375423 
4202.000000	65.356421 
4201.000000	65.351676 
4200.000000	65.362524 
4199.000000	65.387821 
4198.000000	65.423583 
4197.000000	65.463757 
4196.000000	65.500545 
4195.000000	65.525364 
4194.000000	65.530514 
4193.000000	65.510654 
4192.000000	65.463924 
4191.000000	65.392184 
4190.000000	65.301299 
4189.000000	65.199780 
4188.000000	65.098094 
4187.000000	65.006589 
4186.000000	64.934730 
4185.000000	64.889883 
4184.000000	64.876461 
4183.000000	64.895057 
4182.000000	64.942908 
4181.000000	65.014433 
4180.000000	65.101385 
4179.000000	65.194129 
4178.000000	65.282106 
4177.000000	65.354919 
4176.000000	65.403604 
4175.000000	65.421915 
4174.000000	65.406608 
4173.000000	65.358185 
4172.000000	65.280914 
4171.000000	65.182447 
4170.000000	65.072798 
4169.000000	64.963078 
4168.000000	64.864039 
4167.000000	64.784812 
4166.000000	64.732050 
4165.000000	64.709138 
4164.000000	64.716100 
4163.000000	64.749360 
4162.000000	64.802289 
4161.000000	64.866209 
4160.000000	64.931058 
4159.000000	64.987444 
4158.000000	65.026664 
4157.000000	65.043568 
4156.000000	65.036463 
4155.000000	65.008425 
4154.000000	64.965701 
4153.000000	64.917445 
4152.000000	64.873957 
4151.000000	64.844465 
4150.000000	64.835619 
4149.000000	64.849495 
4148.000000	64.883613 
4147.000000	64.930939 
4146.000000	64.981746 
4145.000000	65.025115 
4144.000000	65.051507 
4143.000000	65.054965 
4142.000000	65.034389 
4141.000000	64.993333 
4140.000000	64.939212 
4139.000000	64.881610 
4138.000000	64.830255 
4137.000000	64.793062 
4136.000000	64.774727 
4135.000000	64.776778 
4134.000000	64.797401 
4133.000000	64.832901 
4132.000000	64.878487 
4131.000000	64.929175 
4130.000000	64.980602 
4129.000000	65.028858 
4128.000000	65.070915 
4127.000000	65.104365 
4126.000000	65.127491 
4125.000000	65.139245 
4124.000000	65.139460 
4123.000000	65.129089 
4122.000000	65.110325 
4121.000000	65.086555 
4120.000000	65.061140 
4119.000000	65.036749 
4118.000000	65.014624 
4117.000000	64.994335 
4116.000000	64.973449 
4115.000000	64.948225 
4114.000000	64.914512 
4113.000000	64.869022 
4112.000000	64.810204 
4111.000000	64.739251 
4110.000000	64.659762 
4109.000000	64.577770 
4108.000000	64.500093 
4107.000000	64.434027 
4106.000000	64.385223 
4105.000000	64.357662 
4104.000000	64.352154 
4103.000000	64.367151 
4102.000000	64.398479 
4101.000000	64.441108 
4100.000000	64.489698 
4099.000000	64.539909 
4098.000000	64.587974 
4097.000000	64.632105 
4096.000000	64.671802 
4095.000000	64.707779 
4094.000000	64.740729 
4093.000000	64.771366 
4092.000000	64.799737 
4091.000000	64.825296 
4090.000000	64.847016 
4089.000000	64.863705 
4088.000000	64.874172 
4087.000000	64.878129 
4086.000000	64.876365 
4085.000000	64.870452 
4084.000000	64.862680 
4083.000000	64.856147 
4082.000000	64.853787 
4081.000000	64.857840 
4080.000000	64.869356 
4079.000000	64.888429 
4078.000000	64.913439 
4077.000000	64.941430 
4076.000000	64.968538 
4075.000000	64.990830 
4074.000000	65.004706 
4073.000000	65.007519 
4072.000000	64.998173 
4071.000000	64.977121 
4070.000000	64.946508 
4069.000000	64.909815 
4068.000000	64.871072 
4067.000000	64.833998 
4066.000000	64.801764 
4065.000000	64.776396 
4064.000000	64.758610 
4063.000000	64.747977 
4062.000000	64.743208 
4061.000000	64.743089 
4060.000000	64.746379 
4059.000000	64.752602 
4058.000000	64.762020 
4057.000000	64.775586 
4056.000000	64.794063 
4055.000000	64.817857 
4054.000000	64.845824 
4053.000000	64.875674 
4052.000000	64.904117 
4051.000000	64.927268 
4050.000000	64.941763 
4049.000000	64.945292 
4048.000000	64.937734 
4047.000000	64.920735 
4046.000000	64.897537 
4045.000000	64.872050 
4044.000000	64.848017 
4043.000000	64.828300 
4042.000000	64.814448 
4041.000000	64.806675 
4040.000000	64.804148 
4039.000000	64.805483 
4038.000000	64.809060 
4037.000000	64.813446 
4036.000000	64.817690 
4035.000000	64.820551 
4034.000000	64.820861 
4033.000000	64.817309 
4032.000000	64.808917 
4031.000000	64.795327 
4030.000000	64.777326 
4029.000000	64.757323 
4028.000000	64.739012 
4027.000000	64.726877 
4026.000000	64.725255 
4025.000000	64.737200 
4024.000000	64.763736 
4023.000000	64.803338 
4022.000000	64.852094 
4021.000000	64.904379 
4020.000000	64.953589 
4019.000000	64.993953 
4018.000000	65.021038 
4017.000000	65.032696 
4016.000000	65.029191 
4015.000000	65.012621 
4014.000000	64.986658 
4013.000000	64.955568 
4012.000000	64.923477 
4011.000000	64.893913 
4010.000000	64.869761 
4009.000000	64.853143 
4008.000000	64.845466 
4007.000000	64.847540 
4006.000000	64.859509 
4005.000000	64.881181 
4004.000000	64.912009 
4003.000000	64.950919 
4002.000000	64.996194 
4001.000000	65.045213 
4000.000000	65.094637 
3999.000000	65.140438 
3998.000000	65.178608 
3997.000000	65.205502 
3996.000000	65.218663 
3995.000000	65.217208 
3994.000000	65.202450 
3993.000000	65.177369 
3992.000000	65.146231 
3991.000000	65.113544 
3990.000000	65.083456 
3989.000000	65.058636 
3988.000000	65.040183 
3987.000000	65.027642 
3986.000000	65.019416 
3985.000000	65.013980 
3984.000000	65.010404 
3983.000000	65.008711 
3982.000000	65.009808 
3981.000000	65.014553 
3980.000000	65.023207 
3979.000000	65.034484 
3978.000000	65.045928 
3977.000000	65.053939 
3976.000000	65.054988 
3975.000000	65.046548 
3974.000000	65.028142 
3973.000000	65.001964 
3972.000000	64.972448 
3971.000000	64.945006 
3970.000000	64.925003 
3969.000000	64.916324 
3968.000000	64.920711 
3967.000000	64.936804 
3966.000000	64.961194 
3965.000000	64.989328 
3964.000000	65.016770 
3963.000000	65.040254 
3962.000000	65.058398 
3961.000000	65.071225 
3960.000000	65.080285 
3959.000000	65.087580 
3958.000000	65.094876 
3957.000000	65.103125 
3956.000000	65.112662 
3955.000000	65.123367 
3954.000000	65.134668 
3953.000000	65.145730 
3952.000000	65.156078 
3951.000000	65.165424 
3950.000000	65.173268 
3949.000000	65.178871 
3948.000000	65.181231 
3947.000000	65.178990 
3946.000000	65.170979 
3945.000000	65.156459 
3944.000000	65.135383 
3943.000000	65.108561 
3942.000000	65.078186 
3941.000000	65.047001 
3940.000000	65.017938 
3939.000000	64.993667 
3938.000000	64.975929 
3937.000000	64.965629 
3936.000000	64.962649 
3935.000000	64.966535 
3934.000000	64.976429 
3933.000000	64.991784 
3932.000000	65.012240 
3931.000000	65.038204 
3930.000000	65.070462 
3929.000000	65.109658 
3928.000000	65.155577 
3927.000000	65.207290 
3926.000000	65.262627 
3925.000000	65.318727 
3924.000000	65.371799 
3923.000000	65.417909 
3922.000000	65.452837 
3921.000000	65.473651 
3920.000000	65.478014 
3919.000000	65.464735 
3918.000000	65.433597 
3917.000000	65.386056 
3916.000000	65.324878 
3915.000000	65.254235 
3914.000000	65.179681 
3913.000000	65.107727 
3912.000000	65.045213 
3911.000000	64.998698 
3910.000000	64.972853 
3909.000000	64.969944 
3908.000000	64.988756 
3907.000000	65.024757 
3906.000000	65.070319 
3905.000000	65.116119 
3904.000000	65.152931 
3903.000000	65.173602 
3902.000000	65.174460 
3901.000000	65.156078 
3900.000000	65.123486 
3899.000000	65.085268 
3898.000000	65.051460 
3897.000000	65.031838 
3896.000000	65.033960 
3895.000000	65.061616 
3894.000000	65.114569 
3893.000000	65.188336 
3892.000000	65.275907 
3891.000000	65.368247 
3890.000000	65.456390 
3889.000000	65.532207 
3888.000000	65.589714 
3887.000000	65.625190 
3886.000000	65.637183 
3885.000000	65.626430 
3884.000000	65.595555 
3883.000000	65.548443 
3882.000000	65.490460 
3881.000000	65.427327 
3880.000000	65.364861 
3879.000000	65.308308 
3878.000000	65.262365 
3877.000000	65.230059 
3876.000000	65.212678 
3875.000000	65.209674 
3874.000000	65.219116 
3873.000000	65.238165 
3872.000000	65.264105 
3871.000000	65.294051 
3870.000000	65.325641 
3869.000000	65.357160 
3868.000000	65.387344 
3867.000000	65.415143 
3866.000000	65.439224 
3865.000000	65.457892 
3864.000000	65.468931 
3863.000000	65.470623 
3862.000000	65.461158 
3861.000000	65.439844 
3860.000000	65.406703 
3859.000000	65.362763 
3858.000000	65.310359 
3857.000000	65.253090 
3856.000000	65.195536 
3855.000000	65.142536 
3854.000000	65.099358 
3853.000000	65.070962 
3852.000000	65.061354 
3851.000000	65.072655 
3850.000000	65.104460 
3849.000000	65.153312 
3848.000000	65.212631 
3847.000000	65.273857 
3846.000000	65.327358 
3845.000000	65.364623 
3844.000000	65.379738 
3843.000000	65.371251 
3842.000000	65.342736 
3841.000000	65.302109 
3840.000000	65.260291 
3839.000000	65.228128 
3838.000000	65.214633 
3837.000000	65.224075 
3836.000000	65.255570 
3835.000000	65.302705 
3834.000000	65.355491 
3833.000000	65.402626 
3832.000000	65.434384 
3831.000000	65.444588 
3830.000000	65.431737 
3829.000000	65.399146 
3828.000000	65.353488 
3827.000000	65.303254 
3826.000000	65.256237 
3825.000000	65.218329 
3824.000000	65.192461 
3823.000000	65.178680 
3822.000000	65.174865 
3821.000000	65.178036 
3820.000000	65.185546 
3819.000000	65.195345 
3818.000000	65.206718 
3817.000000	65.219330 
3816.000000	65.233159 
3815.000000	65.247678 
3814.000000	65.261888 
3813.000000	65.273928 
3812.000000	65.281820 
3811.000000	65.284347 
3810.000000	65.281343 
3809.000000	65.274190 
3808.000000	65.265297 
3807.000000	65.257692 
3806.000000	65.254139 
3805.000000	65.256357 
3804.000000	65.264558 
3803.000000	65.277481 
3802.000000	65.292429 
3801.000000	65.306019 
3800.000000	65.314984 
3799.000000	65.317058 
3798.000000	65.311408 
3797.000000	65.298914 
3796.000000	65.281963 
3795.000000	65.263891 
3794.000000	65.248632 
3793.000000	65.239858 
3792.000000	65.240144 
3791.000000	65.250325 
3790.000000	65.269637 
3789.000000	65.295290 
3788.000000	65.323328 
3787.000000	65.349030 
3786.000000	65.367746 
3785.000000	65.375947 
3784.000000	65.371775 
3783.000000	65.355229 
3782.000000	65.328335 
3781.000000	65.294194 
3780.000000	65.256547 
3779.000000	65.218782 
3778.000000	65.183568 
3777.000000	65.152311 
3776.000000	65.125536 
3775.000000	65.103077 
3774.000000	65.084695 
3773.000000	65.070366 
3772.000000	65.060448 
3771.000000	65.055704 
3770.000000	65.056705 
3769.000000	65.063881 
3768.000000	65.077018 
3767.000000	65.095186 
3766.000000	65.116739 
3765.000000	65.139675 
3764.000000	65.162014 
3763.000000	65.182113 
3762.000000	65.198802 
3761.000000	65.211319 
3760.000000	65.219259 
3759.000000	65.222191 
3758.000000	65.219926 
3757.000000	65.212440 
3756.000000	65.200233 
3755.000000	65.184116 
3754.000000	65.165948 
3753.000000	65.148329 
3752.000000	65.134382 
3751.000000	65.127301 
3750.000000	65.129590 
3749.000000	65.142560 
3748.000000	65.165829 
3747.000000	65.197396 
3746.000000	65.233778 
3745.000000	65.270662 
3744.000000	65.303969 
3743.000000	65.330410 
3742.000000	65.348100 
3741.000000	65.356683 
3740.000000	65.357375 
3739.000000	65.352559 
3738.000000	65.345287 
3737.000000	65.338325 
3736.000000	65.333724 
3735.000000	65.332126 
3734.000000	65.332889 
3733.000000	65.333890 
3732.000000	65.332245 
3731.000000	65.324711 
3730.000000	65.308928 
3729.000000	65.283870 
3728.000000	65.250349 
3727.000000	65.210795 
3726.000000	65.168833 
3725.000000	65.128397 
3724.000000	65.092992 
3723.000000	65.065050 
3722.000000	65.045094 
3721.000000	65.032362 
3720.000000	65.024995 
3719.000000	65.021514 
3718.000000	65.021395 
3717.000000	65.025544 
3716.000000	65.035915 
3715.000000	65.055012 
3714.000000	65.084695 
3713.000000	65.124964 
3712.000000	65.173244 
3711.000000	65.224790 
3710.000000	65.273332 
3709.000000	65.312480 
3708.000000	65.337038 
3707.000000	65.344262 
3706.000000	65.334534 
3705.000000	65.311312 
3704.000000	65.280556 
3703.000000	65.249156 
3702.000000	65.223765 
3701.000000	65.209603 
3700.000000	65.209364 
3699.000000	65.223360 
3698.000000	65.249061 
3697.000000	65.282487 
3696.000000	65.318369 
3695.000000	65.351223 
3694.000000	65.376257 
3693.000000	65.390062 
3692.000000	65.391206 
3691.000000	65.380096 
3690.000000	65.359091 
3689.000000	65.331745 
3688.000000	65.301871 
3687.000000	65.272665 
3686.000000	65.246200 
3685.000000	65.223288 
3684.000000	65.203762 
3683.000000	65.187191 
3682.000000	65.173292 
3681.000000	65.162396 
3680.000000	65.155625 
3679.000000	65.154528 
3678.000000	65.160036 
3677.000000	65.172314 
3676.000000	65.189981 
3675.000000	65.210485 
3674.000000	65.230274 
3673.000000	65.245771 
3672.000000	65.254306 
3671.000000	65.254592 
3670.000000	65.247607 
3669.000000	65.235519 
3668.000000	65.221047 
3667.000000	65.206575 
3666.000000	65.193438 
3665.000000	65.181827 
3664.000000	65.171051 
3663.000000	65.160131 
3662.000000	65.148496 
3661.000000	65.136504 
3660.000000	65.125608 
3659.000000	65.117716 
3658.000000	65.114760 
3657.000000	65.117669 
3656.000000	65.126228 
3655.000000	65.138673 
3654.000000	65.152311 
3653.000000	65.164017 
3652.000000	65.171432 
3651.000000	65.173602 
3650.000000	65.171480 
3649.000000	65.167546 
3648.000000	65.165376 
3647.000000	65.168356 
3646.000000	65.179014 
3645.000000	65.198373 
3644.000000	65.225696 
3643.000000	65.258455 
3642.000000	65.293025 
3641.000000	65.325736 
3640.000000	65.353369 
3639.000000	65.373992 
3638.000000	65.386986 
3637.000000	65.392994 
3636.000000	65.393519 
3635.000000	65.390467 
3634.000000	65.385293 
3633.000000	65.378618 
3632.000000	65.370249 
3631.000000	65.359449 
3630.000000	65.345406 
3629.000000	65.327596 
3628.000000	65.306568 
3627.000000	65.283775 
3626.000000	65.261673 
3625.000000	65.242719 
3624.000000	65.229010 
3623.000000	65.221118 
3622.000000	65.217852 
3621.000000	65.216207 
3620.000000	65.211677 
3619.000000	65.199780 
3618.000000	65.177106 
3617.000000	65.142750 
3616.000000	65.098667 
3615.000000	65.049886 
3614.000000	65.003681 
3613.000000	64.968037 
3612.000000	64.949774 
3611.000000	64.952898 
3610.000000	64.977574 
3609.000000	65.019822 
3608.000000	65.072488 
3607.000000	65.126824 
3606.000000	65.174341 
3605.000000	65.208578 
3604.000000	65.226411 
3603.000000	65.227937 
3602.000000	65.216302 
3601.000000	65.196347 
3600.000000	65.173292 
3599.000000	65.151834 
3598.000000	65.135049 
3597.000000	65.124392 
3596.000000	65.119504 
3595.000000	65.119123 
3594.000000	65.121126 
3593.000000	65.123462 
3592.000000	65.124630 
3591.000000	65.123224 
3590.000000	65.118813 
3589.000000	65.111613 
3588.000000	65.102696 
3587.000000	65.093398 
3586.000000	65.085887 
3585.000000	65.082597 
3584.000000	65.085434 
3583.000000	65.095090 
3582.000000	65.111136 
3581.000000	65.131807 
3580.000000	65.154314 
3579.000000	65.175318 
3578.000000	65.191650 
3577.000000	65.200805 
3576.000000	65.201449 
3575.000000	65.193414 
3574.000000	65.177297 
3573.000000	65.154099 
3572.000000	65.125250 
3571.000000	65.092229 
3570.000000	65.056347 
3569.000000	65.019202 
3568.000000	64.982557 
3567.000000	64.948940 
3566.000000	64.921116 
3565.000000	64.902591 
3564.000000	64.896273 
3563.000000	64.905452 
3562.000000	64.931726 
3561.000000	64.976406 
3560.000000	65.039420 
3559.000000	65.119791 
3558.000000	65.214800 
3557.000000	65.319967 
3556.000000	65.428996 
3555.000000	65.533947 
3554.000000	65.626120 
3553.000000	65.697360 
3552.000000	65.741372 
3551.000000	65.755033 
3550.000000	65.738987 
3549.000000	65.697598 
3548.000000	65.637850 
3547.000000	65.568184 
3546.000000	65.496635 
3545.000000	65.429735 
3544.000000	65.371537 
3543.000000	65.323734 
3542.000000	65.286111 
3541.000000	65.257740 
3540.000000	65.237307 
3539.000000	65.224218 
3538.000000	65.218257 
3537.000000	65.218877 
3536.000000	65.225219 
3535.000000	65.234947 
3534.000000	65.245318 
3533.000000	65.253019 
3532.000000	65.255498 
3531.000000	65.251374 
3530.000000	65.240812 
3529.000000	65.225648 
3528.000000	65.208387 
3527.000000	65.191507 
3526.000000	65.177035 
3525.000000	65.165925 
3524.000000	65.157699 
3523.000000	65.150690 
3522.000000	65.143036 
3521.000000	65.133237 
3520.000000	65.120387 
3519.000000	65.104770 
3518.000000	65.087294 
3517.000000	65.069508 
3516.000000	65.052890 
3515.000000	65.038871 
3514.000000	65.028190 
3513.000000	65.021204 
3512.000000	65.018272 
3511.000000	65.019488 
3510.000000	65.024495 
3509.000000	65.032911 
3508.000000	65.044140 
3507.000000	65.057921 
3506.000000	65.074062 
3505.000000	65.092802 
3504.000000	65.114283 
3503.000000	65.138483 
3502.000000	65.164852 
3501.000000	65.192031 
3500.000000	65.217804 
3499.000000	65.239500 
3498.000000	65.254449 
3497.000000	65.260958 
3496.000000	65.258598 
3495.000000	65.248441 
3494.000000	65.232491 
3493.000000	65.213561 
3492.000000	65.194463 
3491.000000	65.177297 
3490.000000	65.163064 
3489.000000	65.151500 
3488.000000	65.141820 
3487.000000	65.133690 
3486.000000	65.127372 
3485.000000	65.124320 
3484.000000	65.126681 
3483.000000	65.136766 
3482.000000	65.155744 
3481.000000	65.182900 
3480.000000	65.215277 
3479.000000	65.247797 
3478.000000	65.274477 
3477.000000	65.289711 
3476.000000	65.289807 
3475.000000	65.274143 
3474.000000	65.245676 
3473.000000	65.210413 
3472.000000	65.176486 
3471.000000	65.152263 
3470.000000	65.144371 
3469.000000	65.155935 
3468.000000	65.185904 
3467.000000	65.228796 
3466.000000	65.276169 
3465.000000	65.318202 
3464.000000	65.345811 
3463.000000	65.352630 
3462.000000	65.336132 
3461.000000	65.298271 
3460.000000	65.244388 
3459.000000	65.182304 
3458.000000	65.120363 
3457.000000	65.065884 
3456.000000	65.023946 
3455.000000	64.997053 
3454.000000	64.985179 
3453.000000	64.986395 
3452.000000	64.998126 
3451.000000	65.017414 
3450.000000	65.041804 
3449.000000	65.068912 
3448.000000	65.096306 
3447.000000	65.121364 
3446.000000	65.140962 
3445.000000	65.152168 
3444.000000	65.152692 
3443.000000	65.141820 
3442.000000	65.120697 
3441.000000	65.092349 
3440.000000	65.061140 
3439.000000	65.031981 
3438.000000	65.009379 
3437.000000	64.996385 
3436.000000	64.993906 
3435.000000	65.000820 
3434.000000	65.014433 
3433.000000	65.031147 
3432.000000	65.047645 
3431.000000	65.061259 
3430.000000	65.070796 
3429.000000	65.076279 
3428.000000	65.078902 
3427.000000	65.080285 
3426.000000	65.082097 
3425.000000	65.084958 
3424.000000	65.088844 
3423.000000	65.093255 
3422.000000	65.097188 
3421.000000	65.099978 
3420.000000	65.101313 
3419.000000	65.101671 
3418.000000	65.102124 
3417.000000	65.104079 
3416.000000	65.108847 
3415.000000	65.117168 
3414.000000	65.128755 
3413.000000	65.142512 
3412.000000	65.156602 
3411.000000	65.169048 
3410.000000	65.177869 
3409.000000	65.181851 
3408.000000	65.180873 
3407.000000	65.175938 
3406.000000	65.168762 
3405.000000	65.161371 
3404.000000	65.155816 
3403.000000	65.153360 
3402.000000	65.154552 
3401.000000	65.158796 
3400.000000	65.164732 
3399.000000	65.170717 
3398.000000	65.175151 
3397.000000	65.176844 
3396.000000	65.175509 
3395.000000	65.171551 
3394.000000	65.165925 
3393.000000	65.159702 
3392.000000	65.153694 
3391.000000	65.148282 
3390.000000	65.143251 
3389.000000	65.138077 
3388.000000	65.132045 
3387.000000	65.125083 
3386.000000	65.117740 
3385.000000	65.111494 
3384.000000	65.108323 
3383.000000	65.110182 
3382.000000	65.118527 
3381.000000	65.133380 
3380.000000	65.153408 
3379.000000	65.175962 
3378.000000	65.197372 
3377.000000	65.213894 
3376.000000	65.222907 
3375.000000	65.223240 
3374.000000	65.215921 
3373.000000	65.203690 
3372.000000	65.190482 
3371.000000	65.180540 
3370.000000	65.177059 
3369.000000	65.181660 
3368.000000	65.193724 
3367.000000	65.210866 
3366.000000	65.229272 
3365.000000	65.244889 
3364.000000	65.254306 
3363.000000	65.255713 
3362.000000	65.249085 
3361.000000	65.236020 
3360.000000	65.219426 
3359.000000	65.202546 
3358.000000	65.188407 
3357.000000	65.179061 
3356.000000	65.175533 
3355.000000	65.177559 
3354.000000	65.184283 
3353.000000	65.194201 
3352.000000	65.205645 
3351.000000	65.216851 
3350.000000	65.226197 
3349.000000	65.232157 
3348.000000	65.233445 
3347.000000	65.228843 
3346.000000	65.217876 
3345.000000	65.200519 
3344.000000	65.177702 
3343.000000	65.151190 
3342.000000	65.123486 
3341.000000	65.097141 
3340.000000	65.074539 
3339.000000	65.057253 
3338.000000	65.045714 
3337.000000	65.039229 
3336.000000	65.036010 
3335.000000	65.033841 
3334.000000	65.030503 
3333.000000	65.024328 
3332.000000	65.014672 
3331.000000	65.001845 
3330.000000	64.987468 
3329.000000	64.973473 
3328.000000	64.962410 
3327.000000	64.956474 
3326.000000	64.957642 
3325.000000	64.966940 
3324.000000	64.984679 
3323.000000	65.010237 
3322.000000	65.042233 
3321.000000	65.078663 
3320.000000	65.116906 
3319.000000	65.154170 
3318.000000	65.187501 
3317.000000	65.214180 
3316.000000	65.231919 
3315.000000	65.239334 
3314.000000	65.236067 
3313.000000	65.222930 
3312.000000	65.201735 
3311.000000	65.175247 
3310.000000	65.146803 
3309.000000	65.119910 
3308.000000	65.097737 
3307.000000	65.082883 
3306.000000	65.077042 
3305.000000	65.080881 
3304.000000	65.093779 
3303.000000	65.114045 
3302.000000	65.138792 
3301.000000	65.164375 
3300.000000	65.186786 
3299.000000	65.202546 
3298.000000	65.208935 
3297.000000	65.205001 
3296.000000	65.191650 
3295.000000	65.171670 
3294.000000	65.148901 
3293.000000	65.127587 
3292.000000	65.111780 
3291.000000	65.103745 
3290.000000	65.103912 
3289.000000	65.110468 
3288.000000	65.120005 
3287.000000	65.128231 
3286.000000	65.131187 
3285.000000	65.125846 
3284.000000	65.110898 
3283.000000	65.086984 
3282.000000	65.056371 
3281.000000	65.022325 
3280.000000	64.988207 
3279.000000	64.957189 
3278.000000	64.931678 
3277.000000	64.913249 
3276.000000	64.902663 
3275.000000	64.900016 
3274.000000	64.905333 
3273.000000	64.918112 
3272.000000	64.937877 
3271.000000	64.963674 
3270.000000	64.995026 
3269.000000	65.030765 
3268.000000	65.070199 
3267.000000	65.112686 
3266.000000	65.158081 
3265.000000	65.206265 
3264.000000	65.257048 
3263.000000	65.309596 
3262.000000	65.361952 
3261.000000	65.411472 
3260.000000	65.454483 
3259.000000	65.486860 
3258.000000	65.505003 
3257.000000	65.506863 
3256.000000	65.492391 
3255.000000	65.463685 
3254.000000	65.424728 
3253.000000	65.380668 
3252.000000	65.336394 
3251.000000	65.295481 
3250.000000	65.259599 
3249.000000	65.228605 
3248.000000	65.200567 
3247.000000	65.173149 
3246.000000	65.144348 
3245.000000	65.113854 
3244.000000	65.082883 
3243.000000	65.054488 
3242.000000	65.031981 
3241.000000	65.018725 
3240.000000	65.016794 
3239.000000	65.026712 
3238.000000	65.046620 
3237.000000	65.073323 
3236.000000	65.103316 
3235.000000	65.133261 
3234.000000	65.160608 
3233.000000	65.183949 
3232.000000	65.203046 
3231.000000	65.218210 
3230.000000	65.229535 
3229.000000	65.236949 
3228.000000	65.240168 
3227.000000	65.238714 
3226.000000	65.232443 
3225.000000	65.221905 
3224.000000	65.208506 
3223.000000	65.194535 
3222.000000	65.182709 
3221.000000	65.175294 
3220.000000	65.173578 
3219.000000	65.177774 
3218.000000	65.186738 
3217.000000	65.198206 
3216.000000	65.209221 
3215.000000	65.217185 
3214.000000	65.219974 
3213.000000	65.216422 
3212.000000	65.206599 
3211.000000	65.191435 
3210.000000	65.172743 
3209.000000	65.152406 
3208.000000	65.132379 
3207.000000	65.114283 
3206.000000	65.099191 
3205.000000	65.087580 
3204.000000	65.079236 
3203.000000	65.073347 
3202.000000	65.068936 
3201.000000	65.065193 
3200.000000	65.061450 
3199.000000	65.057563 
3198.000000	65.054082 
3197.000000	65.052080 
3196.000000	65.052986 
3195.000000	65.057897 
3194.000000	65.067195 
3193.000000	65.080189 
3192.000000	65.095233 
3191.000000	65.109848 
3190.000000	65.121078 
3189.000000	65.126490 
3188.000000	65.124797 
3187.000000	65.116214 
3186.000000	65.102601 
3185.000000	65.086936 
3184.000000	65.072584 
3183.000000	65.062594 
3182.000000	65.059113 
3181.000000	65.062665 
3180.000000	65.072178 
3179.000000	65.085268 
3178.000000	65.098857 
3177.000000	65.109825 
3176.000000	65.115714 
3175.000000	65.114855 
3174.000000	65.106701 
3173.000000	65.091657 
3172.000000	65.070962 
3171.000000	65.046525 
3170.000000	65.020751 
3169.000000	64.996480 
3168.000000	64.977097 
3167.000000	64.965820 
3166.000000	64.965462 
3165.000000	64.977979 
3164.000000	65.003752 
3163.000000	65.041065 
3162.000000	65.086150 
3161.000000	65.133643 
3160.000000	65.177345 
3159.000000	65.211176 
3158.000000	65.230703 
3157.000000	65.233874 
3156.000000	65.221452 
3155.000000	65.197157 
3154.000000	65.166330 
3153.000000	65.135025 
3152.000000	65.108466 
3151.000000	65.089893 
3150.000000	65.080356 
3149.000000	65.078735 
3148.000000	65.082335 
3147.000000	65.088033 
3146.000000	65.093469 
3145.000000	65.097856 
3144.000000	65.102219 
3143.000000	65.109014 
3142.000000	65.121102 
3141.000000	65.140914 
3140.000000	65.169286 
3139.000000	65.205311 
3138.000000	65.246367 
3137.000000	65.288877 
3136.000000	65.329670 
3135.000000	65.366268 
3134.000000	65.397977 
3133.000000	65.424919 
3132.000000	65.448188 
3131.000000	65.468406 
3130.000000	65.484976 
3129.000000	65.496158 
3128.000000	65.499734 
3127.000000	65.493702 
3126.000000	65.477275 
3125.000000	65.452098 
3124.000000	65.422654 
3123.000000	65.395259 
3122.000000	65.377068 
3121.000000	65.373730 
3120.000000	65.388011 
3119.000000	65.418577 
3118.000000	65.460419 
3117.000000	65.505957 
3116.000000	65.546917 
3115.000000	65.576696 
3114.000000	65.591716 
3113.000000	65.592098 
3112.000000	65.581107 
3111.000000	65.563869 
3110.000000	65.545487 
3109.000000	65.529704 
3108.000000	65.517449 
3107.000000	65.507316 
3106.000000	65.495491 
3105.000000	65.477991 
3104.000000	65.451383 
3103.000000	65.414261 
3102.000000	65.367794 
3101.000000	65.315723 
3100.000000	65.263509 
3099.000000	65.216732 
3098.000000	65.180301 
3097.000000	65.157318 
3096.000000	65.148687 
3095.000000	65.153002 
3094.000000	65.167427 
3093.000000	65.188407 
3092.000000	65.212607 
3091.000000	65.237426 
3090.000000	65.261745 
3089.000000	65.285491 
3088.000000	65.309476 
3087.000000	65.334463 
3086.000000	65.360689 
3085.000000	65.387177 
3084.000000	65.411901 
3083.000000	65.431785 
3082.000000	65.443849 
3081.000000	65.445542 
3080.000000	65.435934 
3079.000000	65.415620 
3078.000000	65.386843 
3077.000000	65.352678 
3076.000000	65.317010 
3075.000000	65.283179 
3074.000000	65.253663 
3073.000000	65.229535 
3072.000000	65.210819 
3071.000000	65.196466 
3070.000000	65.185046 
3069.000000	65.175271 
3068.000000	65.166378 
3067.000000	65.158224 
3066.000000	65.150928 
3065.000000	65.145015 
3064.000000	65.140986 
3063.000000	65.139198 
3062.000000	65.139555 
3061.000000	65.141606 
3060.000000	65.144729 
3059.000000	65.148377 
3058.000000	65.152215 
3057.000000	65.156078 
3056.000000	65.160012 
3055.000000	65.164136 
3054.000000	65.168642 
3053.000000	65.173506 
3052.000000	65.178465 
3051.000000	65.183067 
3050.000000	65.186643 
3049.000000	65.188503 
3048.000000	65.187978 
3047.000000	65.184593 
3046.000000	65.178394 
3045.000000	65.169930 
3044.000000	65.160679 
3043.000000	65.152597 
3042.000000	65.148401 
3041.000000	65.150856 
3040.000000	65.162348 
3039.000000	65.184164 
3038.000000	65.215802 
3037.000000	65.254926 
3036.000000	65.297007 
3035.000000	65.336203 
3034.000000	65.366148 
3033.000000	65.381407 
3032.000000	65.378427 
3031.000000	65.356516 
3030.000000	65.318346 
3029.000000	65.269374 
3028.000000	65.216946 
3027.000000	65.168786 
3026.000000	65.131616 
3025.000000	65.109801 
3024.000000	65.104866 
3023.000000	65.115165 
3022.000000	65.136837 
3021.000000	65.164542 
3020.000000	65.192794 
3019.000000	65.217089 
3018.000000	65.234184 
3017.000000	65.242910 
3016.000000	65.243697 
3015.000000	65.238308 
3014.000000	65.228843 
3013.000000	65.217590 
3012.000000	65.206527 
3011.000000	65.197134 
3010.000000	65.190315 
3009.000000	65.186643 
3008.000000	65.186142 
3007.000000	65.188741 
3006.000000	65.194058 
3005.000000	65.201258 
3004.000000	65.209412 
3003.000000	65.217328 
3002.000000	65.224027 
3001.000000	65.228891 
3000.000000	65.231943 
2999.000000	65.233850 
2998.000000	65.235853 
2997.000000	65.239214 
2996.000000	65.244555 
2995.000000	65.252089 
2994.000000	65.260767 
2993.000000	65.268588 
2992.000000	65.272736 
2991.000000	65.270376 
2990.000000	65.259146 
2989.000000	65.237998 
2988.000000	65.207409 
2987.000000	65.169143 
2986.000000	65.126252 
2985.000000	65.082311 
2984.000000	65.040969 
2983.000000	65.005373 
2982.000000	64.977836 
2981.000000	64.959812 
2980.000000	64.951992 
2979.000000	64.954471 
2978.000000	64.966869 
2977.000000	64.988541 
2976.000000	65.018248 
2975.000000	65.054488 
2974.000000	65.095138 
2973.000000	65.137958 
2972.000000	65.180301 
2971.000000	65.219283 
2970.000000	65.252351 
2969.000000	65.277051 
2968.000000	65.291500 
2967.000000	65.294218 
2966.000000	65.284729 
2965.000000	65.263175 
2964.000000	65.230846 
2963.000000	65.189909 
2962.000000	65.143728 
2961.000000	65.096378 
2960.000000	65.052556 
2959.000000	65.016794 
2958.000000	64.992880 
2957.000000	64.983248 
2956.000000	64.988374 
2955.000000	65.006422 
2954.000000	65.033602 
2953.000000	65.064787 
2952.000000	65.094590 
2951.000000	65.118074 
2950.000000	65.131807 
2949.000000	65.134525 
2948.000000	65.127062 
2947.000000	65.111899 
2946.000000	65.092325 
2945.000000	65.071630 
2944.000000	65.052366 
2943.000000	65.035986 
2942.000000	65.022683 
2941.000000	65.011811 
2940.000000	65.001893 
2939.000000	64.991593 
2938.000000	64.979720 
2937.000000	64.965748 
2936.000000	64.949846 
2935.000000	64.932632 
2934.000000	64.915037 
2933.000000	64.898180 
2932.000000	64.882874 
2931.000000	64.869618 
2930.000000	64.858818 
2929.000000	64.850831 
2928.000000	64.845991 
2927.000000	64.844632 
2926.000000	64.847302 
2925.000000	64.854478 
2924.000000	64.866232 
2923.000000	64.882040 
2922.000000	64.900445 
2921.000000	64.919281 
2920.000000	64.935803 
2919.000000	64.947175 
2918.000000	64.951038 
2917.000000	64.946222 
2916.000000	64.932990 
2915.000000	64.913439 
2914.000000	64.890980 
2913.000000	64.869856 
2912.000000	64.853978 
2911.000000	64.846420 
2910.000000	64.848542 
2909.000000	64.859962 
2908.000000	64.878749 
2907.000000	64.901924 
2906.000000	64.926362 
2905.000000	64.949512 
2904.000000	64.969992 
2903.000000	64.987707 
2902.000000	65.003657 
2901.000000	65.019345 
2900.000000	65.036273 
2899.000000	65.055298 
2898.000000	65.076327 
2897.000000	65.098333 
2896.000000	65.119719 
2895.000000	65.138864 
2894.000000	65.154194 
2893.000000	65.164852 
2892.000000	65.170669 
2891.000000	65.172052 
2890.000000	65.169835 
2889.000000	65.165305 
2888.000000	65.159535 
2887.000000	65.153574 
2886.000000	65.148115 
2885.000000	65.143609 
2884.000000	65.140104 
2883.000000	65.137624 
2882.000000	65.135884 
2881.000000	65.134239 
2880.000000	65.131759 
2879.000000	65.127491 
2878.000000	65.120363 
2877.000000	65.109252 
2876.000000	65.093207 
2875.000000	65.071797 
2874.000000	65.045070 
2873.000000	65.013957 
2872.000000	64.979982 
2871.000000	64.945340 
2870.000000	64.912700 
2869.000000	64.884710 
2868.000000	64.863634 
2867.000000	64.850616 
2866.000000	64.845442 
2865.000000	64.846420 
2864.000000	64.850497 
2863.000000	64.854359 
2862.000000	64.854836 
2861.000000	64.850211 
2860.000000	64.840435 
2859.000000	64.827680 
2858.000000	64.815592 
2857.000000	64.808678 
2856.000000	64.810967 
2855.000000	64.825344 
2854.000000	64.852285 
2853.000000	64.889931 
2852.000000	64.934206 
2851.000000	64.979910 
2850.000000	65.021920 
2849.000000	65.056180 
2848.000000	65.080428 
2847.000000	65.094685 
2846.000000	65.100908 
2845.000000	65.102529 
2844.000000	65.103387 
2843.000000	65.106987 
2842.000000	65.115547 
2841.000000	65.130281 
2840.000000	65.150737 
2839.000000	65.175414 
2838.000000	65.201997 
2837.000000	65.228104 
2836.000000	65.251874 
2835.000000	65.271973 
2834.000000	65.287995 
2833.000000	65.300273 
2832.000000	65.309524 
2831.000000	65.316534 
2830.000000	65.321397 
2829.000000	65.323829 
2828.000000	65.322589 
2827.000000	65.316200 
2826.000000	65.302872 
2825.000000	65.281319 
2824.000000	65.251135 
2823.000000	65.213394 
2822.000000	65.170526 
2821.000000	65.126156 
2820.000000	65.084838 
2819.000000	65.051245 
2818.000000	65.029287 
2817.000000	65.021228 
2816.000000	65.027308 
2815.000000	65.045857 
2814.000000	65.073013 
2813.000000	65.104246 
2812.000000	65.134692 
2811.000000	65.160846 
2810.000000	65.180420 
2809.000000	65.193414 
2808.000000	65.201616 
2807.000000	65.207934 
2806.000000	65.215587 
2805.000000	65.226531 
2804.000000	65.241336 
2803.000000	65.258240 
2802.000000	65.274071 
2801.000000	65.284442 
2800.000000	65.285253 
2799.000000	65.273618 
2798.000000	65.249156 
2797.000000	65.213871 
2796.000000	65.171980 
2795.000000	65.129256 
2794.000000	65.091943 
2793.000000	65.065455 
2792.000000	65.053367 
2791.000000	65.057086 
2790.000000	65.075349 
2789.000000	65.104842 
2788.000000	65.140509 
2787.000000	65.176820 
2786.000000	65.208411 
2785.000000	65.231060 
2784.000000	65.242123 
2783.000000	65.240645 
2782.000000	65.227770 
2781.000000	65.206265 
2780.000000	65.180110 
2779.000000	65.153622 
2778.000000	65.130805 
2777.000000	65.115046 
2776.000000	65.108203 
2775.000000	65.110850 
2774.000000	65.122079 
2773.000000	65.140080 
2772.000000	65.162563 
2771.000000	65.187144 
2770.000000	65.211820 
2769.000000	65.235209 
2768.000000	65.256404 
2767.000000	65.274763 
2766.000000	65.289688 
2765.000000	65.300559 
2764.000000	65.306687 
2763.000000	65.307688 
2762.000000	65.303444 
2761.000000	65.294241 
2760.000000	65.281295 
2759.000000	65.266180 
2758.000000	65.250706 
2757.000000	65.236330 
2756.000000	65.224027 
2755.000000	65.213775 
2754.000000	65.205144 
2753.000000	65.197300 
2752.000000	65.189409 
2751.000000	65.180969 
2750.000000	65.172004 
2749.000000	65.163064 
2748.000000	65.154957 
2747.000000	65.148448 
2746.000000	65.143632 
2745.000000	65.140199 
2744.000000	65.137338 
2743.000000	65.134263 
2742.000000	65.130448 
2741.000000	65.126204 
2740.000000	65.122509 
2739.000000	65.121102 
2738.000000	65.123867 
2737.000000	65.132164 
2736.000000	65.146279 
2735.000000	65.165042 
2734.000000	65.185832 
2733.000000	65.205192 
2732.000000	65.219521 
2731.000000	65.225791 
2730.000000	65.222454 
2729.000000	65.209865 
2728.000000	65.190410 
2727.000000	65.167689 
2726.000000	65.145969 
2725.000000	65.129232 
2724.000000	65.120458 
2723.000000	65.120768 
2722.000000	65.129446 
2721.000000	65.144324 
2720.000000	65.162324 
2719.000000	65.180206 
2718.000000	65.195274 
2717.000000	65.205717 
2716.000000	65.210938 
2715.000000	65.211462 
2714.000000	65.208411 
2713.000000	65.203428 
2712.000000	65.198302 
2711.000000	65.194654 
2710.000000	65.193963 
2709.000000	65.197277 
2708.000000	65.205287 
2707.000000	65.218281 
2706.000000	65.236067 
2705.000000	65.257883 
2704.000000	65.282607 
2703.000000	65.308618 
2702.000000	65.333962 
2701.000000	65.356683 
2700.000000	65.375256 
2699.000000	65.388345 
2698.000000	65.395426 
2697.000000	65.396451 
2696.000000	65.391898 
2695.000000	65.382552 
2694.000000	65.369534 
2693.000000	65.354037 
2692.000000	65.337347 
2691.000000	65.320563 
2690.000000	65.304684 
2689.000000	65.290236 
2688.000000	65.277600 
2687.000000	65.266609 
2686.000000	65.256953 
2685.000000	65.248274 
2684.000000	65.240454 
2683.000000	65.233731 
2682.000000	65.228557 
2681.000000	65.225529 
2680.000000	65.224909 
2679.000000	65.226435 
2678.000000	65.229225 
2677.000000	65.231537 
2676.000000	65.231394 
2675.000000	65.226864 
2674.000000	65.216803 
2673.000000	65.201139 
2672.000000	65.181255 
2671.000000	65.159606 
2670.000000	65.139102 
2669.000000	65.122413 
2668.000000	65.111351 
2667.000000	65.106129 
2666.000000	65.105795 
2665.000000	65.108466 
2664.000000	65.112090 
2663.000000	65.115094 
2662.000000	65.116930 
2661.000000	65.118217 
2660.000000	65.120363 
2659.000000	65.125012 
2658.000000	65.133500 
2657.000000	65.146207 
2656.000000	65.162324 
2655.000000	65.179920 
2654.000000	65.196490 
2653.000000	65.209674 
2652.000000	65.217733 
2651.000000	65.220308 
2650.000000	65.218281 
2649.000000	65.213727 
2648.000000	65.209341 
2647.000000	65.207862 
2646.000000	65.211343 
2645.000000	65.220570 
2644.000000	65.235090 
2643.000000	65.252995 
2642.000000	65.271282 
2641.000000	65.286397 
2640.000000	65.295267 
2639.000000	65.295624 
2638.000000	65.286588 
2637.000000	65.268921 
2636.000000	65.244793 
2635.000000	65.216970 
2634.000000	65.188407 
2633.000000	65.161371 
2632.000000	65.137219 
2631.000000	65.116310 
2630.000000	65.098285 
2629.000000	65.082550 
2628.000000	65.068602 
2627.000000	65.056467 
2626.000000	65.046930 
2625.000000	65.041112 
2624.000000	65.040421 
2623.000000	65.045714 
2622.000000	65.057492 
2621.000000	65.075016 
2620.000000	65.096950 
2619.000000	65.121603 
2618.000000	65.147280 
2617.000000	65.172338 
2616.000000	65.195703 
2615.000000	65.216565 
2614.000000	65.234589 
2613.000000	65.249538 
2612.000000	65.261435 
2611.000000	65.270400 
2610.000000	65.276598 
2609.000000	65.280413 
2608.000000	65.282177 
2607.000000	65.282177 
2606.000000	65.280389 
2605.000000	65.276622 
2604.000000	65.270566 
2603.000000	65.262126 
2602.000000	65.251612 
2601.000000	65.239787 
2600.000000	65.228033 
2599.000000	65.217804 
2598.000000	65.210556 
2597.000000	65.207076 
2596.000000	65.207004 
2595.000000	65.208864 
2594.000000	65.210032 
2593.000000	65.207719 
2592.000000	65.199565 
2591.000000	65.184783 
2590.000000	65.164303 
2589.000000	65.141224 
2588.000000	65.119862 
2587.000000	65.105152 
2586.000000	65.101194 
2585.000000	65.110278 
2584.000000	65.132331 
2583.000000	65.164518 
2582.000000	65.202069 
2581.000000	65.238881 
2580.000000	65.269041 
2579.000000	65.287756 
2578.000000	65.292310 
2577.000000	65.282535 
2576.000000	65.260791 
2575.000000	65.231227 
2574.000000	65.198993 
2573.000000	65.169310 
2572.000000	65.146493 
2571.000000	65.133476 
2570.000000	65.131640 
2569.000000	65.140652 
2568.000000	65.158724 
2567.000000	65.183281 
2566.000000	65.211176 
2565.000000	65.239381 
2564.000000	65.265345 
2563.000000	65.286922 
2562.000000	65.303134 
2561.000000	65.313935 
2560.000000	65.320277 
2559.000000	65.323686 
2558.000000	65.325903 
2557.000000	65.328502 
2556.000000	65.332436 
2555.000000	65.337824 
2554.000000	65.343809 
2553.000000	65.348768 
2552.000000	65.350699 
2551.000000	65.347909 
2550.000000	65.339565 
2549.000000	65.326118 
2548.000000	65.309214 
2547.000000	65.291595 
2546.000000	65.276432 
2545.000000	65.266656 
2544.000000	65.264463 
2543.000000	65.270590 
2542.000000	65.284109 
2541.000000	65.302658 
2540.000000	65.322947 
2539.000000	65.341258 
2538.000000	65.353989 
2537.000000	65.358400 
2536.000000	65.352678 
2535.000000	65.336799 
2534.000000	65.312600 
2533.000000	65.283274 
2532.000000	65.252876 
2531.000000	65.225601 
2530.000000	65.205192 
2529.000000	65.193963 
2528.000000	65.192508 
2527.000000	65.199637 
2526.000000	65.213012 
2525.000000	65.229249 
2524.000000	65.244889 
2523.000000	65.256738 
2522.000000	65.262794 
2521.000000	65.262198 
2520.000000	65.255546 
2519.000000	65.244674 
2518.000000	65.232467 
2517.000000	65.222477 
2516.000000	65.217876 
2515.000000	65.220928 
2514.000000	65.232205 
2513.000000	65.250730 
2512.000000	65.273785 
2511.000000	65.297293 
2510.000000	65.316700 
2509.000000	65.327906 
2508.000000	65.328168 
2507.000000	65.316748 
2506.000000	65.294885 
2505.000000	65.265631 
2504.000000	65.232682 
2503.000000	65.199756 
2502.000000	65.169310 
2501.000000	65.142560 
2500.000000	65.119051 
2499.000000	65.097260 
2498.000000	65.075445 
2497.000000	65.052628 
2496.000000	65.028905 
2495.000000	65.005731 
2494.000000	64.985561 
2493.000000	64.971542 
2492.000000	64.966416 
2491.000000	64.972233 
2490.000000	64.989328 
2489.000000	65.016579 
2488.000000	65.051555 
2487.000000	65.090966 
2486.000000	65.131139 
2485.000000	65.168738 
2484.000000	65.201020 
2483.000000	65.226364 
2482.000000	65.243959 
2481.000000	65.254020 
2480.000000	65.257430 
2479.000000	65.255618 
2478.000000	65.250444 
2477.000000	65.243864 
2476.000000	65.237855 
2475.000000	65.234112 
2474.000000	65.233993 
2473.000000	65.238475 
2472.000000	65.247893 
2471.000000	65.262174 
2470.000000	65.280842 
2469.000000	65.303063 
2468.000000	65.327620 
2467.000000	65.353322 
2466.000000	65.378689 
2465.000000	65.401935 
2464.000000	65.420889 
2463.000000	65.433287 
2462.000000	65.437126 
2461.000000	65.431189 
2460.000000	65.415406 
2459.000000	65.390896 
2458.000000	65.360093 
2457.000000	65.326762 
2456.000000	65.295100 
2455.000000	65.268850 
2454.000000	65.250825 
2453.000000	65.242958 
2452.000000	65.245389 
2451.000000	65.256643 
2450.000000	65.273785 
2449.000000	65.292978 
2448.000000	65.310096 
2447.000000	65.321612 
2446.000000	65.325045 
2445.000000	65.319490 
2444.000000	65.305995 
2443.000000	65.287756 
2442.000000	65.269565 
2441.000000	65.256714 
2440.000000	65.254449 
2439.000000	65.266180 
2438.000000	65.292763 
2437.000000	65.331292 
2436.000000	65.375971 
2435.000000	65.418362 
2434.000000	65.449428 
2433.000000	65.460848 
2432.000000	65.447020 
2431.000000	65.405964 
2430.000000	65.339636 
2429.000000	65.253877 
2428.000000	65.156698 
2427.000000	65.057635 
2426.000000	64.965772 
2425.000000	64.889264 
2424.000000	64.834022 
2423.000000	64.803838 
2422.000000	64.800214 
2421.000000	64.822673 
2420.000000	64.868974 
2419.000000	64.935398 
2418.000000	65.016913 
2417.000000	65.107464 
2416.000000	65.200400 
2415.000000	65.289592 
2414.000000	65.369868 
2413.000000	65.437793 
2412.000000	65.491580 
2411.000000	65.531158 
2410.000000	65.557146 
2409.000000	65.570998 
2408.000000	65.573763 
2407.000000	65.566515 
2406.000000	65.549206 
2405.000000	65.522384 
2404.000000	65.486359 
2403.000000	65.442347 
2402.000000	65.392065 
2401.000000	65.338373 
2400.000000	65.284585 
2399.000000	65.234160 
2398.000000	65.190362 
2397.000000	65.156006 
2396.000000	65.132761 
2395.000000	65.120887 
2394.000000	65.119504 
2393.000000	65.126919 
2392.000000	65.140652 
2391.000000	65.157914 
2390.000000	65.175914 
2389.000000	65.192055 
2388.000000	65.204811 
2387.000000	65.213775 
2386.000000	65.219020 
2385.000000	65.221285 
2384.000000	65.221619 
2383.000000	65.221023 
2382.000000	65.219640 
2381.000000	65.216922 
2380.000000	65.212059 
2379.000000	65.204119 
2378.000000	65.192508 
2377.000000	65.177607 
2376.000000	65.160799 
2375.000000	65.144658 
2374.000000	65.132379 
2373.000000	65.127420 
2372.000000	65.132260 
2371.000000	65.148353 
2370.000000	65.175294 
2369.000000	65.210771 
2368.000000	65.250706 
2367.000000	65.290021 
2366.000000	65.323591 
2365.000000	65.346837 
2364.000000	65.356492 
2363.000000	65.351271 
2362.000000	65.331864 
2361.000000	65.300965 
2360.000000	65.262770 
2359.000000	65.222430 
2358.000000	65.184926 
2357.000000	65.154981 
2356.000000	65.135884 
2355.000000	65.129280 
2354.000000	65.135145 
2353.000000	65.151667 
2352.000000	65.176081 
2351.000000	65.204548 
2350.000000	65.233469 
2349.000000	65.259385 
2348.000000	65.280079 
2347.000000	65.294170 
2346.000000	65.301895 
2345.000000	65.304541 
2344.000000	65.304160 
2343.000000	65.303063 
2342.000000	65.303063 
2341.000000	65.305328 
2340.000000	65.309906 
2339.000000	65.315914 
2338.000000	65.322041 
2337.000000	65.326929 
2336.000000	65.329623 
2335.000000	65.329980 
2334.000000	65.328454 
2333.000000	65.326142 
2332.000000	65.324234 
2331.000000	65.323472 
2330.000000	65.323781 
2329.000000	65.324282 
2328.000000	65.323710 
2327.000000	65.320944 
2326.000000	65.315294 
2325.000000	65.307140 
2324.000000	65.298032 
2323.000000	65.290117 
2322.000000	65.285682 
2321.000000	65.286207 
2320.000000	65.291857 
2319.000000	65.301179 
2318.000000	65.311717 
2317.000000	65.320086 
2316.000000	65.323257 
2315.000000	65.319037 
2314.000000	65.306925 
2313.000000	65.288066 
2312.000000	65.265011 
2311.000000	65.241432 
2310.000000	65.221023 
2309.000000	65.207004 
2308.000000	65.201663 
2307.000000	65.205955 
2306.000000	65.219593 
2305.000000	65.241265 
2304.000000	65.268826 
2303.000000	65.299749 
2302.000000	65.331363 
2301.000000	65.361046 
2300.000000	65.386486 
2299.000000	65.405702 
2298.000000	65.417408 
2297.000000	65.421152 
2296.000000	65.417075 
2295.000000	65.406203 
2294.000000	65.389823 
2293.000000	65.369892 
2292.000000	65.348100 
2291.000000	65.326166 
2290.000000	65.305495 
2289.000000	65.287041 
2288.000000	65.271306 
2287.000000	65.258526 
2286.000000	65.248632 
2285.000000	65.241479 
2284.000000	65.236902 
2283.000000	65.234661 
2282.000000	65.234494 
2281.000000	65.235948 
2280.000000	65.238285 
2279.000000	65.240764 
2278.000000	65.242505 
2277.000000	65.242815 
2276.000000	65.241527 
2275.000000	65.239024 
2274.000000	65.236353 
2273.000000	65.234947 
2272.000000	65.236592 
2271.000000	65.242600 
2270.000000	65.253496 
2269.000000	65.268778 
2268.000000	65.286874 
2267.000000	65.305256 
2266.000000	65.321040 
2265.000000	65.331530 
2264.000000	65.335011 
2263.000000	65.331125 
2262.000000	65.320992 
2261.000000	65.306997 
2260.000000	65.292072 
2259.000000	65.279126 
2258.000000	65.270328 
2257.000000	65.266776 
2256.000000	65.268206 
2255.000000	65.273261 
2254.000000	65.280127 
2253.000000	65.286970 
2252.000000	65.292334 
2251.000000	65.295791 
2250.000000	65.297460 
2249.000000	65.298032 
2248.000000	65.298342 
2247.000000	65.298938 
2246.000000	65.299773 
2245.000000	65.300154 
2244.000000	65.298962 
2243.000000	65.295076 
2242.000000	65.287876 
2241.000000	65.277266 
2240.000000	65.264081 
2239.000000	65.249872 
2238.000000	65.236353 
2237.000000	65.225124 
2236.000000	65.217161 
2235.000000	65.212631 
2234.000000	65.210890 
2233.000000	65.210771 
2232.000000	65.210866 
2231.000000	65.210127 
2230.000000	65.208077 
2229.000000	65.205192 
2228.000000	65.202617 
2227.000000	65.201759 
2226.000000	65.204119 
2225.000000	65.210580 
2224.000000	65.221285 
2223.000000	65.235757 
2222.000000	65.252852 
2221.000000	65.271329 
2220.000000	65.289998 
2219.000000	65.307879 
2218.000000	65.324354 
2217.000000	65.339064 
2216.000000	65.351724 
2215.000000	65.362191 
2214.000000	65.370321 
2213.000000	65.376043 
2212.000000	65.379714 
2211.000000	65.381717 
2210.000000	65.382814 
2209.000000	65.383625 
2208.000000	65.384960 
2207.000000	65.386986 
2206.000000	65.389466 
2205.000000	65.391683 
2204.000000	65.392565 
2203.000000	65.391206 
2202.000000	65.387034 
2201.000000	65.380072 
2200.000000	65.370965 
2199.000000	65.360927 
2198.000000	65.351486 
2197.000000	65.343999 
2196.000000	65.339350 
2195.000000	65.337681 
2194.000000	65.338611 
2193.000000	65.341162 
2192.000000	65.344071 
2191.000000	65.346336 
2190.000000	65.347361 
2189.000000	65.346860 
2188.000000	65.345239 
2187.000000	65.343427 
2186.000000	65.342855 
2185.000000	65.344762 
2184.000000	65.350198 
2183.000000	65.359783 
2182.000000	65.373373 
2181.000000	65.390181 
2180.000000	65.408730 
2179.000000	65.427064 
2178.000000	65.442848 
2177.000000	65.453982 
2176.000000	65.458559 
2175.000000	65.455389 
2174.000000	65.444254 
2173.000000	65.425872 
2172.000000	65.402078 
2171.000000	65.375471 
2170.000000	65.349149 
2169.000000	65.325903 
2168.000000	65.307950 
2167.000000	65.296196 
2166.000000	65.290188 
2165.000000	65.288138 
2164.000000	65.287208 
2163.000000	65.284419 
2162.000000	65.277194 
2161.000000	65.264296 
2160.000000	65.245985 
2159.000000	65.224575 
2158.000000	65.203452 
2157.000000	65.186762 
2156.000000	65.177845 
2155.000000	65.178894 
2154.000000	65.190076 
2153.000000	65.209603 
2152.000000	65.233969 
2151.000000	65.258860 
2150.000000	65.280008 
2149.000000	65.293860 
2148.000000	65.298223 
2147.000000	65.292429 
2146.000000	65.277314 
2145.000000	65.254902 
2144.000000	65.227794 
2143.000000	65.199041 
2142.000000	65.171432 
2141.000000	65.147042 
2140.000000	65.127348 
2139.000000	65.113043 
2138.000000	65.104603 
2137.000000	65.102052 
2136.000000	65.105462 
2135.000000	65.114784 
2134.000000	65.130090 
2133.000000	65.150928 
2132.000000	65.176796 
2131.000000	65.206408 
2130.000000	65.238308 
2129.000000	65.270709 
2128.000000	65.301942 
2127.000000	65.330624 
2126.000000	65.355801 
2125.000000	65.377068 
2124.000000	65.394377 
2123.000000	65.407967 
2122.000000	65.418148 
2121.000000	65.425109 
2120.000000	65.429019 
2119.000000	65.429973 
2118.000000	65.428328 
2117.000000	65.424847 
2116.000000	65.420484 
2115.000000	65.416383 
2114.000000	65.413713 
2113.000000	65.413308 
2112.000000	65.415215 
2111.000000	65.419006 
2110.000000	65.423631 
2109.000000	65.427899 
2108.000000	65.430808 
2107.000000	65.431785 
2106.000000	65.430617 
2105.000000	65.427613 
2104.000000	65.423488 
2103.000000	65.418863 
2102.000000	65.414166 
2101.000000	65.409541 
2100.000000	65.404891 
2099.000000	65.400004 
2098.000000	65.394639 
2097.000000	65.388703 
2096.000000	65.382480 
2095.000000	65.376567 
2094.000000	65.371727 
2093.000000	65.368390 
2092.000000	65.366268 
2091.000000	65.364193 
2090.000000	65.360093 
2089.000000	65.350985 
2088.000000	65.333843 
2087.000000	65.306234 
2086.000000	65.267491 
2085.000000	65.218544 
2084.000000	65.162611 
2083.000000	65.104484 
2082.000000	65.050387 
2081.000000	65.006065 
2080.000000	64.977073 
2079.000000	64.966797 
2078.000000	64.977121 
2077.000000	65.007519 
2076.000000	65.055894 
2075.000000	65.118598 
2074.000000	65.191292 
2073.000000	65.269160 
2072.000000	65.347218 
2071.000000	65.420484 
2070.000000	65.484213 
2069.000000	65.534353 
2068.000000	65.567445 
2067.000000	65.581297 
2066.000000	65.575146 
2065.000000	65.550041 
2064.000000	65.508270 
2063.000000	65.453147 
2062.000000	65.388798 
2061.000000	65.319633 
2060.000000	65.249896 
2059.000000	65.183281 
2058.000000	65.123081 
2057.000000	65.072107 
2056.000000	65.032434 
2055.000000	65.005874 
2054.000000	64.993143 
2053.000000	64.994549 
2052.000000	65.009021 
2051.000000	65.034890 
2050.000000	65.069150 
2049.000000	65.108680 
2048.000000	65.149950 
2047.000000	65.190029 
2046.000000	65.226387 
2045.000000	65.257549 
2044.000000	65.282869 
2043.000000	65.302300 
2042.000000	65.316128 
2041.000000	65.325069 
2040.000000	65.330243 
2039.000000	65.332722 
2038.000000	65.333652 
2037.000000	65.334367 
2036.000000	65.336179 
2035.000000	65.340209 
2034.000000	65.347027 
2033.000000	65.356731 
2032.000000	65.368604 
2031.000000	65.381503 
2030.000000	65.393853 
2029.000000	65.403771 
2028.000000	65.409564 
2027.000000	65.410041 
2026.000000	65.404820 
2025.000000	65.394067 
2024.000000	65.378689 
2023.000000	65.360164 
2022.000000	65.340304 
2021.000000	65.321040 
2020.000000	65.304112 
2019.000000	65.290927 
2018.000000	65.282607 
2017.000000	65.279769 
2016.000000	65.282416 
2015.000000	65.289902 
2014.000000	65.300822 
2013.000000	65.313386 
2012.000000	65.325307 
2011.000000	65.334248 
2010.000000	65.337967 
2009.000000	65.334844 
2008.000000	65.323948 
2007.000000	65.305495 
2006.000000	65.280652 
2005.000000	65.251350 
2004.000000	65.220022 
2003.000000	65.189003 
2002.000000	65.160465 
2001.000000	65.135884 
2000.000000	65.116047 
1999.000000	65.101194 
1998.000000	65.091228 
1997.000000	65.085983 
1996.000000	65.085077 
1995.000000	65.088248 
1994.000000	65.094733 
1993.000000	65.103745 
1992.000000	65.113949 
1991.000000	65.124344 
1990.000000	65.134048 
1989.000000	65.142965 
1988.000000	65.151572 
1987.000000	65.161037 
1986.000000	65.172696 
1985.000000	65.187621 
1984.000000	65.206241 
1983.000000	65.228223 
1982.000000	65.252232 
1981.000000	65.276360 
1980.000000	65.298175 
1979.000000	65.315175 
1978.000000	65.325045 
1977.000000	65.326166 
1976.000000	65.317749 
1975.000000	65.300035 
1974.000000	65.274190 
1973.000000	65.242433 
1972.000000	65.207862 
1971.000000	65.173935 
1970.000000	65.144228 
1969.000000	65.122008 
1968.000000	65.109705 
1967.000000	65.108442 
1966.000000	65.117859 
1965.000000	65.136051 
1964.000000	65.160012 
1963.000000	65.185952 
1962.000000	65.210127 
1961.000000	65.229272 
1960.000000	65.241265 
1959.000000	65.245556 
1958.000000	65.243005 
1957.000000	65.235424 
1956.000000	65.225338 
1955.000000	65.215325 
1954.000000	65.207409 
1953.000000	65.203070 
1952.000000	65.202927 
1951.000000	65.206837 
1950.000000	65.214228 
1949.000000	65.224099 
1948.000000	65.235066 
1947.000000	65.245842 
1946.000000	65.255069 
1945.000000	65.261864 
1944.000000	65.265655 
1943.000000	65.266656 
1942.000000	65.265679 
1941.000000	65.263938 
1940.000000	65.262818 
1939.000000	65.263175 
1938.000000	65.265393 
1937.000000	65.269041 
1936.000000	65.273070 
1935.000000	65.275907 
1934.000000	65.275931 
1933.000000	65.272235 
1932.000000	65.264797 
1931.000000	65.254545 
1930.000000	65.243005 
1929.000000	65.232157 
1928.000000	65.223836 
1927.000000	65.219283 
1926.000000	65.218997 
1925.000000	65.222787 
1924.000000	65.230107 
1923.000000	65.240383 
1922.000000	65.253162 
1921.000000	65.268063 
1920.000000	65.284967 
1919.000000	65.303587 
1918.000000	65.323233 
1917.000000	65.343046 
1916.000000	65.361785 
1915.000000	65.378069 
1914.000000	65.390658 
1913.000000	65.398764 
1912.000000	65.401864 
1911.000000	65.400099 
1910.000000	65.393710 
1909.000000	65.383315 
1908.000000	65.369343 
1907.000000	65.352153 
1906.000000	65.332078 
1905.000000	65.309691 
1904.000000	65.285849 
1903.000000	65.261888 
1902.000000	65.239572 
1901.000000	65.220928 
1900.000000	65.207886 
1899.000000	65.201878 
1898.000000	65.203571 
1897.000000	65.212512 
1896.000000	65.227484 
1895.000000	65.246534 
1894.000000	65.267443 
1893.000000	65.287995 
1892.000000	65.306401 
1891.000000	65.321421 
1890.000000	65.332412 
1889.000000	65.339112 
1888.000000	65.341663 
1887.000000	65.340209 
1886.000000	65.334773 
1885.000000	65.325379 
1884.000000	65.312170 
1883.000000	65.295124 
1882.000000	65.274524 
1881.000000	65.250682 
1880.000000	65.224194 
1879.000000	65.195798 
1878.000000	65.166568 
1877.000000	65.137672 
1876.000000	65.110588 
1875.000000	65.086984 
1874.000000	65.068721 
1873.000000	65.057492 
1872.000000	65.054678 
1871.000000	65.060973 
1870.000000	65.076136 
1869.000000	65.098786 
1868.000000	65.126633 
1867.000000	65.156865 
1866.000000	65.186548 
1865.000000	65.213108 
1864.000000	65.234827 
1863.000000	65.250968 
1862.000000	65.261983 
1861.000000	65.268921 
1860.000000	65.273523 
1859.000000	65.277814 
1858.000000	65.283489 
1857.000000	65.291833 
1856.000000	65.303182 
1855.000000	65.317010 
1854.000000	65.331864 
1853.000000	65.345859 
1852.000000	65.356755 
1851.000000	65.362501 
1850.000000	65.361547 
1849.000000	65.353345 
1848.000000	65.338349 
1847.000000	65.317916 
1846.000000	65.294241 
1845.000000	65.269851 
1844.000000	65.247297 
1843.000000	65.228652 
1842.000000	65.215325 
1841.000000	65.208005 
1840.000000	65.206909 
1839.000000	65.211749 
1838.000000	65.221714 
1837.000000	65.235638 
1836.000000	65.251994 
1835.000000	65.269041 
1834.000000	65.284466 
1833.000000	65.295982 
1832.000000	65.301728 
1831.000000	65.300559 
1830.000000	65.292525 
1829.000000	65.278792 
1828.000000	65.261554 
1827.000000	65.243530 
1826.000000	65.227484 
1825.000000	65.215539 
1824.000000	65.208697 
1823.000000	65.206575 
1822.000000	65.207648 
1821.000000	65.209698 
1820.000000	65.210485 
1819.000000	65.208411 
1818.000000	65.202903 
1817.000000	65.194392 
1816.000000	65.184116 
1815.000000	65.173792 
1814.000000	65.164828 
1813.000000	65.157842 
1812.000000	65.152645 
1811.000000	65.148067 
1810.000000	65.142917 
1809.000000	65.136122 
1808.000000	65.127611 
1807.000000	65.118384 
1806.000000	65.110778 
1805.000000	65.107846 
1804.000000	65.112590 
1803.000000	65.127158 
1802.000000	65.151810 
1801.000000	65.184783 
1800.000000	65.222048 
1799.000000	65.258145 
1798.000000	65.287256 
1797.000000	65.304446 
1796.000000	65.306758 
1795.000000	65.293908 
1794.000000	65.268492 
1793.000000	65.235304 
1792.000000	65.200352 
1791.000000	65.169572 
1790.000000	65.147757 
1789.000000	65.137481 
1788.000000	65.138983 
1787.000000	65.150165 
1786.000000	65.167284 
1785.000000	65.186119 
1784.000000	65.202784 
1783.000000	65.214705 
1782.000000	65.220737 
1781.000000	65.221667 
1780.000000	65.219187 
1779.000000	65.215873 
1778.000000	65.213871 
1777.000000	65.214514 
1776.000000	65.217971 
1775.000000	65.223169 
1774.000000	65.228414 
1773.000000	65.231609 
1772.000000	65.230870 
1771.000000	65.225148 
1770.000000	65.214347 
1769.000000	65.199232 
1768.000000	65.181112 
1767.000000	65.161752 
1766.000000	65.142917 
1765.000000	65.126037 
1764.000000	65.111851 
1763.000000	65.100812 
1762.000000	65.092992 
1761.000000	65.088319 
1760.000000	65.086865 
1759.000000	65.088462 
1758.000000	65.093183 
1757.000000	65.101003 
1756.000000	65.111613 
1755.000000	65.124320 
1754.000000	65.138053 
1753.000000	65.151286 
1752.000000	65.162181 
1751.000000	65.169000 
1750.000000	65.170240 
1749.000000	65.165019 
1748.000000	65.152955 
1747.000000	65.134263 
1746.000000	65.109777 
1745.000000	65.080952 
1744.000000	65.049386 
1743.000000	65.016674 
1742.000000	64.984154 
1741.000000	64.952945 
1740.000000	64.923858 
1739.000000	64.897513 
1738.000000	64.874219 
1737.000000	64.854264 
1736.000000	64.837980 
1735.000000	64.825940 
1734.000000	64.818668 
1733.000000	64.816784 
1732.000000	64.820742 
1731.000000	64.830708 
1730.000000	64.846181 
1729.000000	64.866065 
1728.000000	64.888334 
1727.000000	64.910912 
1726.000000	64.931249 
1725.000000	64.947962 
1724.000000	64.960527 
1723.000000	64.970111 
1722.000000	64.979195 
1721.000000	64.991188 
1720.000000	65.009498 
1719.000000	65.036654 
1718.000000	65.073370 
1717.000000	65.118312 
1716.000000	65.167880 
1715.000000	65.216994 
1714.000000	65.260171 
1713.000000	65.292334 
1712.000000	65.309786 
1711.000000	65.311193 
1710.000000	65.297651 
1709.000000	65.272116 
1708.000000	65.238976 
1707.000000	65.203309 
1706.000000	65.169954 
1705.000000	65.142989 
1704.000000	65.125083 
1703.000000	65.117597 
1702.000000	65.120339 
1701.000000	65.132141 
1700.000000	65.150713 
1699.000000	65.173244 
1698.000000	65.196681 
1697.000000	65.218234 
1696.000000	65.235614 
1695.000000	65.247225 
1694.000000	65.252208 
1693.000000	65.250349 
1692.000000	65.242195 
1691.000000	65.228700 
1690.000000	65.211224 
1689.000000	65.191650 
1688.000000	65.172123 
1687.000000	65.154814 
1686.000000	65.141963 
1685.000000	65.135717 
1684.000000	65.137457 
1683.000000	65.147638 
1682.000000	65.165781 
1681.000000	65.190267 
1680.000000	65.218329 
1679.000000	65.246486 
1678.000000	65.270996 
1677.000000	65.288329 
1676.000000	65.295982 
1675.000000	65.292620 
1674.000000	65.278363 
1673.000000	65.254831 
1672.000000	65.224909 
1671.000000	65.192270 
1670.000000	65.160679 
1669.000000	65.133452 
1668.000000	65.113139 
1667.000000	65.101051 
1666.000000	65.097284 
1665.000000	65.100765 
1664.000000	65.109300 
1663.000000	65.120315 
1662.000000	65.131068 
1661.000000	65.139269 
1660.000000	65.143251 
1659.000000	65.142273 
1658.000000	65.136599 
1657.000000	65.127444 
1656.000000	65.116643 
1655.000000	65.106153 
1654.000000	65.097594 
1653.000000	65.092015 
1652.000000	65.089607 
1651.000000	65.089845 
1650.000000	65.091633 
1649.000000	65.093564 
1648.000000	65.094780 
1647.000000	65.095090 
1646.000000	65.095281 
1645.000000	65.096545 
1644.000000	65.100479 
1643.000000	65.108275 
1642.000000	65.120220 
1641.000000	65.135216 
1640.000000	65.151143 
1639.000000	65.164947 
1638.000000	65.173816 
1637.000000	65.175461 
1636.000000	65.169239 
1635.000000	65.156364 
1634.000000	65.139746 
1633.000000	65.123271 
1632.000000	65.111184 
1631.000000	65.106749 
1630.000000	65.111804 
1629.000000	65.126156 
1628.000000	65.147948 
1627.000000	65.173959 
1626.000000	65.200614 
1625.000000	65.224575 
1624.000000	65.243053 
1623.000000	65.254282 
1622.000000	65.257573 
1621.000000	65.253257 
1620.000000	65.242385 
1619.000000	65.226531 
1618.000000	65.207624 
1617.000000	65.187311 
1616.000000	65.167069 
1615.000000	65.147399 
1614.000000	65.128397 
1613.000000	65.109515 
1612.000000	65.089941 
1611.000000	65.068936 
1610.000000	65.046095 
1609.000000	65.021681 
1608.000000	64.996981 
1607.000000	64.973831 
1606.000000	64.954400 
1605.000000	64.940953 
1604.000000	64.935350 
1603.000000	64.938592 
1602.000000	64.950585 
1601.000000	64.969992 
1600.000000	64.994788 
1599.000000	65.022230 
1598.000000	65.049600 
1597.000000	65.074586 
1596.000000	65.095520 
1595.000000	65.111541 
1594.000000	65.122556 
1593.000000	65.129041 
1592.000000	65.131831 
1591.000000	65.131974 
1590.000000	65.130352 
1589.000000	65.127849 
1588.000000	65.125155 
1587.000000	65.122985 
1586.000000	65.121603 
1585.000000	65.121340 
1584.000000	65.121912 
1583.000000	65.122938 
1582.000000	65.123629 
1581.000000	65.122961 
1580.000000	65.120053 
1579.000000	65.114283 
1578.000000	65.105676 
1577.000000	65.094780 
1576.000000	65.082645 
1575.000000	65.070581 
1574.000000	65.059614 
1573.000000	65.050435 
1572.000000	65.043067 
1571.000000	65.037322 
1570.000000	65.033054 
1569.000000	65.030407 
1568.000000	65.030074 
1567.000000	65.033149 
1566.000000	65.040802 
1565.000000	65.053629 
1564.000000	65.071249 
1563.000000	65.092015 
1562.000000	65.113067 
1561.000000	65.131044 
1560.000000	65.142607 
1559.000000	65.145516 
1558.000000	65.139460 
1557.000000	65.126085 
1556.000000	65.108609 
1555.000000	65.091180 
1554.000000	65.077757 
1553.000000	65.070986 
1552.000000	65.071702 
1551.000000	65.078997 
1550.000000	65.090656 
1549.000000	65.103769 
1548.000000	65.116000 
1547.000000	65.125799 
1546.000000	65.133213 
1545.000000	65.139102 
1544.000000	65.145230 
1543.000000	65.153312 
1542.000000	65.164732 
1541.000000	65.180039 
1540.000000	65.198922 
1539.000000	65.220451 
1538.000000	65.243077 
1537.000000	65.265345 
1536.000000	65.285587 
1535.000000	65.302276 
1534.000000	65.313816 
1533.000000	65.318989 
1532.000000	65.316891 
1531.000000	65.307092 
1530.000000	65.289950 
1529.000000	65.266633 
1528.000000	65.238952 
1527.000000	65.209007 
1526.000000	65.178728 
1525.000000	65.149736 
1524.000000	65.123009 
1523.000000	65.099024 
1522.000000	65.077805 
1521.000000	65.059185 
1520.000000	65.043020 
1519.000000	65.029525 
1518.000000	65.018868 
1517.000000	65.011453 
1516.000000	65.007472 
1515.000000	65.007185 
1514.000000	65.009951 
1513.000000	65.015411 
1512.000000	65.022897 
1511.000000	65.032148 
1510.000000	65.043139 
1509.000000	65.056109 
1508.000000	65.071487 
1507.000000	65.089631 
1506.000000	65.110349 
1505.000000	65.132951 
1504.000000	65.156340 
1503.000000	65.179014 
1502.000000	65.199232 
1501.000000	65.215229 
1500.000000	65.225410 
1499.000000	65.228700 
1498.000000	65.224575 
1497.000000	65.213418 
1496.000000	65.196347 
1495.000000	65.175247 
1494.000000	65.152597 
1493.000000	65.130949 
1492.000000	65.112709 
1491.000000	65.099692 
1490.000000	65.092802 
1489.000000	65.092015 
1488.000000	65.096545 
1487.000000	65.105175 
1486.000000	65.116620 
1485.000000	65.129613 
1484.000000	65.143203 
1483.000000	65.156817 
1482.000000	65.169858 
1481.000000	65.182089 
1480.000000	65.192890 
1479.000000	65.201282 
1478.000000	65.206146 
1477.000000	65.206575 
1476.000000	65.202021 
1475.000000	65.192604 
1474.000000	65.179276 
1473.000000	65.163588 
1472.000000	65.147376 
1471.000000	65.132164 
1470.000000	65.118646 
1469.000000	65.106534 
1468.000000	65.094470 
1467.000000	65.080904 
1466.000000	65.064382 
1465.000000	65.044593 
1464.000000	65.023016 
1463.000000	65.003180 
1462.000000	64.989781 
1461.000000	64.987707 
1460.000000	65.000987 
1459.000000	65.030813 
1458.000000	65.074682 
1457.000000	65.126419 
1456.000000	65.177106 
1455.000000	65.216803 
1454.000000	65.237164 
1453.000000	65.233063 
1452.000000	65.204119 
1451.000000	65.154600 
1450.000000	65.092325 
1449.000000	65.026617 
1448.000000	64.966201 
1447.000000	64.917302 
1446.000000	64.882874 
1445.000000	64.862346 
1444.000000	64.852595 
1443.000000	64.849162 
1442.000000	64.848184 
1441.000000	64.847111 
1440.000000	64.845728 
1439.000000	64.845371 
1438.000000	64.848804 
1437.000000	64.858579 
1436.000000	64.876437 
1435.000000	64.902281 
1434.000000	64.934086 
1433.000000	64.968490 
1432.000000	65.001368 
1431.000000	65.029025 
1430.000000	65.048813 
1429.000000	65.059852 
1428.000000	65.062999 
1427.000000	65.060424 
1426.000000	65.054845 
1425.000000	65.049004 
1424.000000	65.044450 
1423.000000	65.041375 
1422.000000	65.038514 
1421.000000	65.033698 
1420.000000	65.024375 
1419.000000	65.008664 
1418.000000	64.986181 
1417.000000	64.958620 
1416.000000	64.929461 
1415.000000	64.903473 
1414.000000	64.885854 
1413.000000	64.880824 
1412.000000	64.890646 
1411.000000	64.914774 
1410.000000	64.949750 
1409.000000	64.989876 
1408.000000	65.028381 
1407.000000	65.059018 
1406.000000	65.077114 
1405.000000	65.080904 
1404.000000	65.071845 
1403.000000	65.054106 
1402.000000	65.033388 
1401.000000	65.015554 
1400.000000	65.005230 
1399.000000	65.004777 
1398.000000	65.013909 
1397.000000	65.029978 
1396.000000	65.049028 
1395.000000	65.066695 
1394.000000	65.079760 
1393.000000	65.086126 
1392.000000	65.085363 
1391.000000	65.078091 
1390.000000	65.065741 
1389.000000	65.049934 
1388.000000	65.031957 
1387.000000	65.012884 
1386.000000	64.993286 
1385.000000	64.973616 
1384.000000	64.954257 
1383.000000	64.935779 
1382.000000	64.918756 
1381.000000	64.903497 
1380.000000	64.890050 
1379.000000	64.877843 
1378.000000	64.866065 
1377.000000	64.853930 
1376.000000	64.841175 
1375.000000	64.827775 
1374.000000	64.814901 
1373.000000	64.804387 
1372.000000	64.798760 
1371.000000	64.800333 
1370.000000	64.810895 
1369.000000	64.830899 
1368.000000	64.859533 
1367.000000	64.894533 
1366.000000	64.932727 
1365.000000	64.970541 
1364.000000	65.004563 
1363.000000	65.032219 
1362.000000	65.052103 
1361.000000	65.064072 
1360.000000	65.069246 
1359.000000	65.069532 
1358.000000	65.067386 
1357.000000	65.065026 
1356.000000	65.064454 
1355.000000	65.066719 
1354.000000	65.071821 
1353.000000	65.078330 
1352.000000	65.084362 
1351.000000	65.087461 
1350.000000	65.085434 
1349.000000	65.076923 
1348.000000	65.061783 
1347.000000	65.041542 
1346.000000	65.018868 
1345.000000	64.997172 
1344.000000	64.979863 
1343.000000	64.969444 
1342.000000	64.967083 
1341.000000	64.972090 
1340.000000	64.982271 
1339.000000	64.994740 
1338.000000	65.006566 
1337.000000	65.015745 
1336.000000	65.021371 
1335.000000	65.023851 
1334.000000	65.024518 
1333.000000	65.024781 
1332.000000	65.025782 
1331.000000	65.028023 
1330.000000	65.031552 
1329.000000	65.035891 
1328.000000	65.040349 
1327.000000	65.044641 
1326.000000	65.049004 
1325.000000	65.054082 
1324.000000	65.060853 
1323.000000	65.070223 
1322.000000	65.082597 
1321.000000	65.097665 
1320.000000	65.113997 
1319.000000	65.129518 
1318.000000	65.141582 
1317.000000	65.147709 
1316.000000	65.145945 
1315.000000	65.135359 
1314.000000	65.116286 
1313.000000	65.090537 
1312.000000	65.060925 
1311.000000	65.030717 
1310.000000	65.003347 
1309.000000	64.981579 
1308.000000	64.967036 
1307.000000	64.959931 
1306.000000	64.958882 
1305.000000	64.961433 
1304.000000	64.964580 
1303.000000	64.965653 
1302.000000	64.962458 
1301.000000	64.953994 
1300.000000	64.940118 
1299.000000	64.921832 
1298.000000	64.900541 
1297.000000	64.878010 
1296.000000	64.855670 
1295.000000	64.834928 
1294.000000	64.816856 
1293.000000	64.802384 
1292.000000	64.792466 
1291.000000	64.788055 
1290.000000	64.790058 
1289.000000	64.798974 
1288.000000	64.814782 
1287.000000	64.836621 
1286.000000	64.862799 
1285.000000	64.891052 
1284.000000	64.918804 
1283.000000	64.943766 
1282.000000	64.964079 
1281.000000	64.978337 
1280.000000	64.985585 
1279.000000	64.985537 
1278.000000	64.978408 
1277.000000	64.964938 
1276.000000	64.946365 
1275.000000	64.924693 
1274.000000	64.902234 
1273.000000	64.881539 
1272.000000	64.865064 
1271.000000	64.854669 
1270.000000	64.851403 
1269.000000	64.855122 
1268.000000	64.864897 
1267.000000	64.878892 
1266.000000	64.894890 
1265.000000	64.910697 
1264.000000	64.924645 
1263.000000	64.935708 
1262.000000	64.943671 
1261.000000	64.948868 
1260.000000	64.952135 
1259.000000	64.954400 
1258.000000	64.956736 
1257.000000	64.960384 
1256.000000	64.966344 
1255.000000	64.975309 
1254.000000	64.987063 
1253.000000	65.000510 
1252.000000	65.013647 
1251.000000	65.023851 
1250.000000	65.028333 
1249.000000	65.024733 
1248.000000	65.011978 
1247.000000	64.990687 
1246.000000	64.962887 
1245.000000	64.931941 
1244.000000	64.901757 
1243.000000	64.876127 
1242.000000	64.857840 
1241.000000	64.848423 
1240.000000	64.847803 
1239.000000	64.854502 
1238.000000	64.866232 
1237.000000	64.879989 
1236.000000	64.892935 
1235.000000	64.902544 
1234.000000	64.907002 
1233.000000	64.905261 
1232.000000	64.896845 
1231.000000	64.882683 
1230.000000	64.864802 
1229.000000	64.846372 
1228.000000	64.831137 
1227.000000	64.823102 
1226.000000	64.825439 
1225.000000	64.839911 
1224.000000	64.866542 
1223.000000	64.903306 
1222.000000	64.946317 
1221.000000	64.990782 
1220.000000	65.031456 
1219.000000	65.063524 
1218.000000	65.083360 
1217.000000	65.089201 
1216.000000	65.081310 
1215.000000	65.061497 
1214.000000	65.032935 
1213.000000	64.999723 
1212.000000	64.965796 
1211.000000	64.934515 
1210.000000	64.907908 
1209.000000	64.886760 
1208.000000	64.870357 
1207.000000	64.857077 
1206.000000	64.844989 
1205.000000	64.832019 
1204.000000	64.817285 
1203.000000	64.801311 
1202.000000	64.785838 
1201.000000	64.773440 
1200.000000	64.766883 
1199.000000	64.768338 
1198.000000	64.778590 
1197.000000	64.797091 
1196.000000	64.821910 
1195.000000	64.850449 
1194.000000	64.880228 
1193.000000	64.909577 
1192.000000	64.938020 
1191.000000	64.966177 
1190.000000	64.995193 
1189.000000	65.025734 
1188.000000	65.057969 
1187.000000	65.090250 
1186.000000	65.119767 
1185.000000	65.142393 
1184.000000	65.154147 
1183.000000	65.151715 
1182.000000	65.133929 
1181.000000	65.101408 
1180.000000	65.057063 
1179.000000	65.005254 
1178.000000	64.951205 
1177.000000	64.899897 
1176.000000	64.855408 
1175.000000	64.820647 
1174.000000	64.797139 
1173.000000	64.785408 
1172.000000	64.785051 
1171.000000	64.795470 
1170.000000	64.815592 
1169.000000	64.843869 
1168.000000	64.877843 
1167.000000	64.914250 
1166.000000	64.949083 
1165.000000	64.978051 
1164.000000	64.997076 
1163.000000	65.003013 
1162.000000	64.994144 
1161.000000	64.971113 
1160.000000	64.936375 
1159.000000	64.894032 
1158.000000	64.849066 
1157.000000	64.806652 
1156.000000	64.771032 
1155.000000	64.744782 
1154.000000	64.728498 
1153.000000	64.721035 
1152.000000	64.719843 
1151.000000	64.721751 
1150.000000	64.724230 
1149.000000	64.725971 
1148.000000	64.727735 
1147.000000	64.732003 
1146.000000	64.742779 
1145.000000	64.764308 
1144.000000	64.800000 
1143.000000	64.851045 
1142.000000	64.915490 
1141.000000	64.987921 
1140.000000	65.060448 
1139.000000	65.123867 
1138.000000	65.169835 
1137.000000	65.192508 
1136.000000	65.189886 
1135.000000	65.164041 
1134.000000	65.120768 
1133.000000	65.067720 
1132.000000	65.013122 
1131.000000	64.963531 
1130.000000	64.923381 
1129.000000	64.893794 
1128.000000	64.873647 
1127.000000	64.859986 
1126.000000	64.849972 
1125.000000	64.841198 
1124.000000	64.832830 
1123.000000	64.825224 
1122.000000	64.819383 
1121.000000	64.816284 
1120.000000	64.816355 
1119.000000	64.819312 
1118.000000	64.824104 
1117.000000	64.829611 
1116.000000	64.834809 
1115.000000	64.839100 
1114.000000	64.842438 
1113.000000	64.845275 
1112.000000	64.848399 
1111.000000	64.852809 
1110.000000	64.859223 
1109.000000	64.867854 
1108.000000	64.878082 
1107.000000	64.888548 
1106.000000	64.897060 
1105.000000	64.900946 
1104.000000	64.897584 
1103.000000	64.884734 
1102.000000	64.861464 
1101.000000	64.828538 
1100.000000	64.788532 
1099.000000	64.745593 
1098.000000	64.704895 
1097.000000	64.671659 
1096.000000	64.650058 
1095.000000	64.642357 
1094.000000	64.648580 
1093.000000	64.666390 
1092.000000	64.692544 
1091.000000	64.723801 
1090.000000	64.757418 
1089.000000	64.791727 
1088.000000	64.826154 
1087.000000	64.860510 
1086.000000	64.894318 
1085.000000	64.926457 
1084.000000	64.955139 
1083.000000	64.978194 
1082.000000	64.994001 
1081.000000	65.001893 
1080.000000	65.002822 
1079.000000	64.999055 
1078.000000	64.994001 
1077.000000	64.990878 
1076.000000	64.992237 
1075.000000	64.998722 
1074.000000	65.009164 
1073.000000	65.020585 
1072.000000	65.029335 
1071.000000	65.031743 
1070.000000	65.025448 
1069.000000	65.009331 
1068.000000	64.983773 
1067.000000	64.950084 
1066.000000	64.910364 
1065.000000	64.866614 
1064.000000	64.820575 
1063.000000	64.773845 
1062.000000	64.728069 
1061.000000	64.685344 
1060.000000	64.648365 
1059.000000	64.619970 
1058.000000	64.602899 
1057.000000	64.599633 
1056.000000	64.611172 
1055.000000	64.636564 
1054.000000	64.672589 
1053.000000	64.714002 
1052.000000	64.754676 
1051.000000	64.788007 
1050.000000	64.808988 
1049.000000	64.815092 
1048.000000	64.807057 
1047.000000	64.788269 
1046.000000	64.764189 
1045.000000	64.740896 
1044.000000	64.723777 
1043.000000	64.716482 
1042.000000	64.720225 
1041.000000	64.733815 
1040.000000	64.754366 
1039.000000	64.778161 
1038.000000	64.801335 
1037.000000	64.820551 
1036.000000	64.833307 
1035.000000	64.838242 
1034.000000	64.835047 
1033.000000	64.824414 
1032.000000	64.808130 
1031.000000	64.788603 
1030.000000	64.768862 
1029.000000	64.751458 
1028.000000	64.738941 
1027.000000	64.732050 
1026.000000	64.730191 
1025.000000	64.730477 
1024.000000	64.728879 
1023.000000	64.720749 
1022.000000	64.702010 
1021.000000	64.670920 
1020.000000	64.628481 
1019.000000	64.579534 
1018.000000	64.531970 
1017.000000	64.495277 
1016.000000	64.478039 
1015.000000	64.485716 
1014.000000	64.518904 
1013.000000	64.572501 
1012.000000	64.636731 
1011.000000	64.699244 
1010.000000	64.748024 
1009.000000	64.774131 
1008.000000	64.773654 
1007.000000	64.748525 
1006.000000	64.705538 
1005.000000	64.654254 
1004.000000	64.604806 
1003.000000	64.565396 
1002.000000	64.540696 
1001.000000	64.531898 
1000.000000	64.536929 
999.000000	 64.552235 
998.000000	 64.573836 
997.000000	 64.598941 
996.000000	 64.625859 
995.000000	 64.653801 
994.000000	 64.682221 
993.000000	 64.709758 
992.000000	 64.734339 
991.000000	 64.752864 
990.000000	 64.762067 
989.000000	 64.759516 
988.000000	 64.743924 
987.000000	 64.716029 
986.000000	 64.678335 
985.000000	 64.634823 
984.000000	 64.590072 
983.000000	 64.548540 
982.000000	 64.513778 
981.000000	 64.488291 
980.000000	 64.473271 
979.000000	 64.468932 
978.000000	 64.474391 
977.000000	 64.488053 
976.000000	 64.507532 
975.000000	 64.530491 
974.000000	 64.553904 
973.000000	 64.575242 
972.000000	 64.592361 
971.000000	 64.604210 
970.000000	 64.610910 
969.000000	 64.613556 
968.000000	 64.614057 
967.000000	 64.614391 
966.000000	 64.616179 
965.000000	 64.619994 
964.000000	 64.625430 
963.000000	 64.631175 
962.000000	 64.635777 
961.000000	 64.637875 
960.000000	 64.636993 
959.000000	 64.633607 
958.000000	 64.629149 
957.000000	 64.625453 
956.000000	 64.624357 
955.000000	 64.626979 
954.000000	 64.633560 
953.000000	 64.643526 
952.000000	 64.655447 
951.000000	 64.667963 
950.000000	 64.679574 
949.000000	 64.688801 
948.000000	 64.693880 
947.000000	 64.693355 
946.000000	 64.685821 
945.000000	 64.670181 
944.000000	 64.646410 
943.000000	 64.615464 
942.000000	 64.580106 
941.000000	 64.544439 
940.000000	 64.513850 
939.000000	 64.493751 
938.000000	 64.488816 
937.000000	 64.501929 
936.000000	 64.533066 
935.000000	 64.579415 
934.000000	 64.635491 
933.000000	 64.694380 
932.000000	 64.748692 
931.000000	 64.792037 
930.000000	 64.819979 
929.000000	 64.830970 
928.000000	 64.826011 
927.000000	 64.808487 
926.000000	 64.783167 
925.000000	 64.755415 
924.000000	 64.730143 
923.000000	 64.710950 
922.000000	 64.700579 
921.000000	 64.700174 
920.000000	 64.709448 
919.000000	 64.726996 
918.000000	 64.750766 
917.000000	 64.778351 
916.000000	 64.807009 
915.000000	 64.834475 
914.000000	 64.858770 
913.000000	 64.878654 
912.000000	 64.893770 
911.000000	 64.904093 
910.000000	 64.909529 
909.000000	 64.909791 
908.000000	 64.904546 
907.000000	 64.893269 
906.000000	 64.875626 
905.000000	 64.851808 
904.000000	 64.822912 
903.000000	 64.791321 
902.000000	 64.760279 
901.000000	 64.733099 
900.000000	 64.711952 
899.000000	 64.697670 
898.000000	 64.688968 
897.000000	 64.682054 
896.000000	 64.671778 
895.000000	 64.652729 
894.000000	 64.621281 
893.000000	 64.575982 
892.000000	 64.519309 
891.000000	 64.457106 
890.000000	 64.398241 
889.000000	 64.351940 
888.000000	 64.327096 
887.000000	 64.329981 
886.000000	 64.363217 
885.000000	 64.424920 
884.000000	 64.509057 
883.000000	 64.606690 
882.000000	 64.707088 
881.000000	 64.799571 
880.000000	 64.874577 
879.000000	 64.924836 
878.000000	 64.946103 
877.000000	 64.937257 
876.000000	 64.900016 
875.000000	 64.838266 
874.000000	 64.758205 
873.000000	 64.667201 
872.000000	 64.573073 
871.000000	 64.482665 
870.000000	 64.401912 
869.000000	 64.334440 
868.000000	 64.281845 
867.000000	 64.243125 
866.000000	 64.214658 
865.000000	 64.191865 
864.000000	 64.170122 
863.000000	 64.146327 
862.000000	 64.118123 
861.000000	 64.086031 
860.000000	 64.052343 
859.000000	 64.021396 
858.000000	 63.997459 
857.000000	 63.984465 
856.000000	 63.984537 
855.000000	 63.998198 
854.000000	 64.024233 
853.000000	 64.060521 
852.000000	 64.104247 
851.000000	 64.153385 
850.000000	 64.206671 
849.000000	 64.263725 
848.000000	 64.324307 
847.000000	 64.387726 
846.000000	 64.451527 
845.000000	 64.511561 
844.000000	 64.560961 
843.000000	 64.592170 
842.000000	 64.596486 
841.000000	 64.566874 
840.000000	 64.498186 
839.000000	 64.389920 
838.000000	 64.245653 
837.000000	 64.073419 
836.000000	 63.884806 
835.000000	 63.693857 
834.000000	 63.515520 
833.000000	 63.362908 
832.000000	 63.247275 
831.000000	 63.175749 
830.000000	 63.152265 
829.000000	 63.176465 
828.000000	 63.245153 
827.000000	 63.351821 
826.000000	 63.488221 
825.000000	 63.644123 
824.000000	 63.808465 
823.000000	 63.969182 
822.000000	 64.114761 
821.000000	 64.234709 
820.000000	 64.320659 
819.000000	 64.366745 
818.000000	 64.370274 
817.000000	 64.331603 
816.000000	 64.255118 
815.000000	 64.148259 
814.000000	 64.020895 
813.000000	 63.884282 
812.000000	 63.750696 
811.000000	 63.631820 
810.000000	 63.537645 
809.000000	 63.475584 
808.000000	 63.449525 
807.000000	 63.460087 
806.000000	 63.503980 
805.000000	 63.575458 
804.000000	 63.666534 
803.000000	 63.768649 
802.000000	 63.872623 
801.000000	 63.970589 
800.000000	 64.055943 
799.000000	 64.123797 
798.000000	 64.170861 
797.000000	 64.195513 
796.000000	 64.197826 
795.000000	 64.180827 
794.000000	 64.150381 
793.000000	 64.114308 
792.000000	 64.081740 
791.000000	 64.062619 
790.000000	 64.065718 
789.000000	 64.096665 
788.000000	 64.156341 
787.000000	 64.240837 
786.000000	 64.341282 
785.000000	 64.445734 
784.000000	 64.540624 
783.000000	 64.613056 
782.000000	 64.653396 
781.000000	 64.657330 
780.000000	 64.626145 
779.000000	 64.565539 
778.000000	 64.485311 
777.000000	 64.397454 
776.000000	 64.313769 
775.000000	 64.244580 
774.000000	 64.196252 
773.000000	 64.171099 
772.000000	 64.166188 
771.000000	 64.174723 
770.000000	 64.186549 
769.000000	 64.190530 
768.000000	 64.177107 
767.000000	 64.140534 
766.000000	 64.079761 
765.000000	 63.998985 
764.000000	 63.906717 
763.000000	 63.814496 
762.000000	 63.733577 
761.000000	 63.673543 
760.000000	 63.640546 
759.000000	 63.636946 
758.000000	 63.661289 
757.000000	 63.709545 
756.000000	 63.776230 
755.000000	 63.855576 
754.000000	 63.941788 
753.000000	 64.029288 
752.000000	 64.112067 
751.000000	 64.184141 
750.000000	 64.238929 
749.000000	 64.271259 
748.000000	 64.278125 
747.000000	 64.260268 
746.000000	 64.222550 
745.000000	 64.172911 
744.000000	 64.121246 
743.000000	 64.076733 
742.000000	 64.046001 
741.000000	 64.031195 
740.000000	 64.029502 
739.000000	 64.034032 
738.000000	 64.035820 
737.000000	 64.026069 
736.000000	 63.998842 
735.000000	 63.952469 
734.000000	 63.890719 
733.000000	 63.820862 
732.000000	 63.753271 
731.000000	 63.698124 
730.000000	 63.664245 
729.000000	 63.656973 
728.000000	 63.677453 
727.000000	 63.722968 
726.000000	 63.787007 
725.000000	 63.861155 
724.000000	 63.935399 
723.000000	 63.999938 
722.000000	 64.046144 
721.000000	 64.067649 
720.000000	 64.060902 
719.000000	 64.025497 
718.000000	 63.963794 
717.000000	 63.880681 
716.000000	 63.782978 
715.000000	 63.678646 
714.000000	 63.576292 
713.000000	 63.484406 
712.000000	 63.410472 
711.000000	 63.360142 
710.000000	 63.336539 
709.000000	 63.339781 
708.000000	 63.366818 
707.000000	 63.411998 
706.000000	 63.467907 
705.000000	 63.526511 
704.000000	 63.579678 
703.000000	 63.620734 
702.000000	 63.644337 
701.000000	 63.648247 
700.000000	 63.632655 
699.000000	 63.601160 
698.000000	 63.559508 
697.000000	 63.515400 
696.000000	 63.477611 
695.000000	 63.454079 
694.000000	 63.451290 
693.000000	 63.471770 
692.000000	 63.513755 
691.000000	 63.570785 
690.000000	 63.632941 
689.000000	 63.688230 
688.000000	 63.725113 
687.000000	 63.735461 
686.000000	 63.716268 
685.000000	 63.670635 
684.000000	 63.606762 
683.000000	 63.534951 
682.000000	 63.465332 
681.000000	 63.405370 
680.000000	 63.359022 
679.000000	 63.326597 
678.000000	 63.306069 
677.000000	 63.294768 
676.000000	 63.291049 
675.000000	 63.295125 
674.000000	 63.308835 
673.000000	 63.333868 
672.000000	 63.370966 
671.000000	 63.418626 
670.000000	 63.472366 
669.000000	 63.525295 
668.000000	 63.568806 
667.000000	 63.594293 
666.000000	 63.595199 
665.000000	 63.568806 
664.000000	 63.516449 
663.000000	 63.443303 
662.000000	 63.357615 
661.000000	 63.269305 
660.000000	 63.188481 
659.000000	 63.123822 
658.000000	 63.081741 
657.000000	 63.065075 
656.000000	 63.073277 
655.000000	 63.102006 
654.000000	 63.143730 
653.000000	 63.188815 
652.000000	 63.226675 
651.000000	 63.248300 
650.000000	 63.246655 
649.000000	 63.219285 
648.000000	 63.167619 
647.000000	 63.098311 
646.000000	 63.021063 
645.000000	 62.948250 
644.000000	 62.892580 
643.000000	 62.864780 
642.000000	 62.871575 
641.000000	 62.914395 
640.000000	 62.989306 
639.000000	 63.087320 
638.000000	 63.195991 
637.000000	 63.302063 
636.000000	 63.393878 
635.000000	 63.463211 
634.000000	 63.506484 
633.000000	 63.524651 
632.000000	 63.521933 
631.000000	 63.504743 
630.000000	 63.479542 
629.000000	 63.451504 
628.000000	 63.423061 
627.000000	 63.395237 
626.000000	 63.367176 
625.000000	 63.337373 
624.000000	 63.304400 
623.000000	 63.268160 
622.000000	 63.229942 
621.000000	 63.192272 
620.000000	 63.157939 
619.000000	 63.129162 
618.000000	 63.106536 
617.000000	 63.088464 
616.000000	 63.071823 
615.000000	 63.052272 
614.000000	 63.026237 
613.000000	 62.991952 
612.000000	 62.950611 
611.000000	 62.905859 
610.000000	 62.864041 
609.000000	 62.832546 
608.000000	 62.817454 
607.000000	 62.821769 
606.000000	 62.844467 
605.000000	 62.880611 
604.000000	 62.922000 
603.000000	 62.959265 
602.000000	 62.985420 
601.000000	 62.997221 
600.000000	 62.996125 
599.000000	 62.987399 
598.000000	 62.977313 
597.000000	 62.971758 
596.000000	 62.973737 
595.000000	 62.983202 
594.000000	 62.998032 
593.000000	 63.014197 
592.000000	 63.029384 
591.000000	 63.040876 
590.000000	 63.047003 
589.000000	 63.045215 
588.000000	 63.032770 
587.000000	 63.005590 
586.000000	 62.958955 
585.000000	 62.888956 
584.000000	 62.794113 
583.000000	 62.676811 
582.000000	 62.544035 
581.000000	 62.406229 
580.000000	 62.276005 
579.000000	 62.164783 
578.000000	 62.080740 
577.000000	 62.027239 
576.000000	 62.002897 
575.000000	 62.002205 
574.000000	 62.017703 
573.000000	 62.042498 
572.000000	 62.071681 
571.000000	 62.101721 
570.000000	 62.131595 
569.000000	 62.159848 
568.000000	 62.186336 
567.000000	 62.210559 
566.000000	 62.232899 
565.000000	 62.254261 
564.000000	 62.275934 
563.000000	 62.300515 
562.000000	 62.329316 
561.000000	 62.362337 
560.000000	 62.396526 
559.000000	 62.426567 
558.000000	 62.444806 
557.000000	 62.443137 
556.000000	 62.415885 
555.000000	 62.362074 
554.000000	 62.287259 
553.000000	 62.203407 
552.000000	 62.127304 
551.000000	 62.077283 
550.000000	 62.069678 
549.000000	 62.115144 
548.000000	 62.216234 
547.000000	 62.366557 
546.000000	 62.552595 
545.000000	 62.755036 
544.000000	 62.952756 
543.000000	 63.125061 
542.000000	 63.255357 
541.000000	 63.331961 
540.000000	 63.350033 
539.000000	 63.309764 
538.000000	 63.216948 
537.000000	 63.079571 
536.000000	 62.908196 
535.000000	 62.713170 
534.000000	 62.505888 
533.000000	 62.296485 
532.000000	 62.094950 
531.000000	 61.909842 
530.000000	 61.748886 
529.000000	 61.617970 
528.000000	 61.520862 
527.000000	 61.458396 
526.000000	 61.428284 
525.000000	 61.425375 
524.000000	 61.442470 
523.000000	 61.470818 
522.000000	 61.501836 
521.000000	 61.527967 
520.000000	 61.544251 
519.000000	 61.547708 
518.000000	 61.537933 
517.000000	 61.516618 
516.000000	 61.486792 
515.000000	 61.451649 
514.000000	 61.414289 
513.000000	 61.377143 
512.000000	 61.342263 
511.000000	 61.310577 
510.000000	 61.283540 
509.000000	 61.264300 
508.000000	 61.256384 
507.000000	 61.262750 
506.000000	 61.284947 
505.000000	 61.321735 
504.000000	 61.369705 
503.000000	 61.423492 
502.000000	 61.477112 
501.000000	 61.524438 
500.000000	 61.562347 
499.000000	 61.591124 
498.000000	 61.612010 
497.000000	 61.625814 
496.000000	 61.632156 
495.000000	 61.628866 
494.000000	 61.610674 
493.000000	 61.571931 
492.000000	 61.509418 
491.000000	 61.424446 
490.000000	 61.326074 
489.000000	 61.227488 
488.000000	 61.144351 
487.000000	 61.088180 
486.000000	 61.065649 
485.000000	 61.071920 
484.000000	 61.090230 
483.000000	 61.096405 
482.000000	 61.064910 
481.000000	 60.977506 
480.000000	 60.827302 
479.000000	 60.625696 
478.000000	 60.400629 
477.000000	 60.191106 
476.000000	 60.037112 
475.000000	 59.970235 
474.000000	 60.005211 
473.000000	 60.137271 
472.000000	 60.343670 
471.000000	 60.592126 
470.000000	 60.848951 
469.000000	 61.089539 
468.000000	 61.300969 
467.000000	 61.481332 
466.000000	 61.632752 
465.000000	 61.757254 
464.000000	 61.847591 
463.000000	 61.885738 
462.000000	 61.843228 
461.000000	 61.692905 
460.000000	 61.413860 
459.000000	 61.003828 
458.000000	 60.480165 
457.000000	 59.884166 
456.000000	 59.269976 
455.000000	 58.695888 
454.000000	 58.211445 
453.000000	 57.846260 
452.000000	 57.609415 
451.000000	 57.489252 
450.000000	 57.462239 
449.000000	 57.500505 
448.000000	 57.580208 
447.000000	 57.685041 
446.000000	 57.810187 
445.000000	 57.959198 
444.000000	 58.140993 
443.000000	 58.363413 
442.000000	 58.629584 
441.000000	 58.933782 
440.000000	 59.260797 
439.000000	 59.587812 
438.000000	 59.888339 
437.000000	 60.137677 
436.000000	 60.322546 
435.000000	 60.439443 
434.000000	 60.498452 
433.000000	 60.513019 
432.000000	 60.498881 
431.000000	 60.463142 
430.000000	 60.402607 
429.000000	 60.305190 
428.000000	 60.161375 
427.000000	 59.964990 
426.000000	 59.711623 
425.000000	 59.418630 
424.000000	 59.128046 
423.000000	 58.896780 
422.000000	 58.785057 
421.000000	 58.836984 
420.000000	 59.065198 
419.000000	 59.451293 
418.000000	 59.948587 
417.000000	 60.489654 
416.000000	 60.998058 
415.000000	 61.422181 
414.000000	 61.737370 
413.000000	 61.918687 
412.000000	 61.950683 
411.000000	 61.828875 
410.000000	 61.565542 
409.000000	 61.199712 
408.000000	 60.779643 
407.000000	 60.393881 
406.000000	 60.098147 
405.000000	 59.911537 
404.000000	 59.770631 
403.000000	 59.559631 
402.000000	 59.105134 
401.000000	 58.215928 
400.000000	 56.750130 
399.000000	 54.667711 
398.000000	 52.062749 
397.000000	 49.151182 
396.000000	 46.254062 
395.000000	 43.717384 
394.000000	 41.887640 
393.000000	 41.042876 
392.000000	 41.340017 
391.000000	 42.784237 
390.000000	 45.303249 
389.000000	 48.761987 
388.000000	 52.979016 
387.000000	 57.738709 
386.000000	 62.780356 
385.000000	 67.818546 
384.000000	 72.512435 
383.000000	 76.546835 
382.000000	 79.668784 
381.000000	 81.759047 
380.000000	 82.897377 
379.000000	 83.319258 
378.000000	 83.351182 
377.000000	 83.354926 
376.000000	 83.657026 
375.000000	 84.488010 
374.000000	 86.025595 
373.000000	 88.256883 
372.000000	 91.067647 
371.000000	 94.118118 
370.000000	 96.961212 

