PE IR       SPECTRUM    SPECTRUM    ASCII       PEDS        1.60        
  -1
C-1EE0~1.ASC
17/03/27
22:37:33.00
17/03/27
22:37:33.00
tln
$C-4040-8_t0099$<tbV0>[-13.0,7.8,8.0,0.0,27,1,0]
370.000000
64









2002,4.07    
MIRTGS : RIGHTBACK : INTERNAL 2
MIR : ON : INTERNAL 2
OPTKBR

0.200000
8
8.000000
FILLER
RATIO
SPECTRUM
UNLOCKED 256

DOUBLE
64
COMBINED
1
0
0


1.000000
RATIO


1
0
TRUE
51149
0
LEFT NOT FITTED RIGHT NOT FITTED 0
NONE
NONE
15600
12.000000
4.427000
51148
TRUE
1 0 8 72 0 0 0 0 

15798.010000






#HDR
-1
-1
#GR
CM-1
%T
0.00002384185791015625
0.0
5000.000000
-1.000000
4631
8
174.467921
49.062871
#DATA
5000.000000	65.201997  
4999.000000	65.226554  
4998.000000	65.226292  
4997.000000	65.201997  
4996.000000	65.155339  
4995.000000	65.089702  
4994.000000	65.009522  
4993.000000	64.921498  
4992.000000	64.832592  
4991.000000	64.749860  
4990.000000	64.679098  
4989.000000	64.624738  
4988.000000	64.588284  
4987.000000	64.568090  
4986.000000	64.560246  
4985.000000	64.559316  
4984.000000	64.561510  
4983.000000	64.565300  
4982.000000	64.572644  
4981.000000	64.587354  
4980.000000	64.613580  
4979.000000	64.653086  
4978.000000	64.703035  
4977.000000	64.755606  
4976.000000	64.798903  
4975.000000	64.820575  
4974.000000	64.809989  
4973.000000	64.763522  
4972.000000	64.686918  
4971.000000	64.595079  
4970.000000	64.508485  
4969.000000	64.449048  
4968.000000	64.434766  
4967.000000	64.474987  
4966.000000	64.567399  
4965.000000	64.698958  
4964.000000	64.849281  
4963.000000	64.995288  
4962.000000	65.117025  
4961.000000	65.200734  
4960.000000	65.240812  
4959.000000	65.239739  
4958.000000	65.205907  
4957.000000	65.150785  
4956.000000	65.085411  
4955.000000	65.019798  
4954.000000	64.961099  
4953.000000	64.913773  
4952.000000	64.878845  
4951.000000	64.856314  
4950.000000	64.843797  
4949.000000	64.836907  
4948.000000	64.829158  
4947.000000	64.812707  
4946.000000	64.779806  
4945.000000	64.723873  
4944.000000	64.642143  
4943.000000	64.536547  
4942.000000	64.414262  
4941.000000	64.286804  
4940.000000	64.167594  
4939.000000	64.068818  
4938.000000	63.999295  
4937.000000	63.962483  
4936.000000	63.956475  
4935.000000	63.973951  
4934.000000	64.006209  
4933.000000	64.045381  
4932.000000	64.086532  
4931.000000	64.128112  
4930.000000	64.172554  
4929.000000	64.224576  
4928.000000	64.288949  
4927.000000	64.368295  
4926.000000	64.461731  
4925.000000	64.564847  
4924.000000	64.671540  
4923.000000	64.775085  
4922.000000	64.869976  
4921.000000	64.952588  
4920.000000	65.023207  
4919.000000	65.083765  
4918.000000	65.136456  
4917.000000	65.181922  
4916.000000	65.220308  
4915.000000	65.248417  
4914.000000	65.261363  
4913.000000	65.252304  
4912.000000	65.216565  
4911.000000	65.150618  
4910.000000	65.054392  
4909.000000	64.931154  
4908.000000	64.787864  
4907.000000	64.634966  
4906.000000	64.485049  
4905.000000	64.352178  
4904.000000	64.249253  
4903.000000	64.187550  
4902.000000	64.174532  
4901.000000	64.211463  
4900.000000	64.293217  
4899.000000	64.408636  
4898.000000	64.543509  
4897.000000	64.680457  
4896.000000	64.804744  
4895.000000	64.907193  
4894.000000	64.987421  
4893.000000	65.052199  
4892.000000	65.114951  
4891.000000	65.191936  
4890.000000	65.296816  
4889.000000	65.436935  
4888.000000	65.608882  
4887.000000	65.800046  
4886.000000	65.988469  
4885.000000	66.149568  
4884.000000	66.259551  
4883.000000	66.302704  
4882.000000	66.273450  
4881.000000	66.178798  
4880.000000	66.034936  
4879.000000	65.863680  
4878.000000	65.687298  
4877.000000	65.524458  
4876.000000	65.386366  
4875.000000	65.275859  
4874.000000	65.188884  
4873.000000	65.117287  
4872.000000	65.051174  
4871.000000	64.982509  
4870.000000	64.906263  
4869.000000	64.822769  
4868.000000	64.736771  
4867.000000	64.656949  
4866.000000	64.591789  
4865.000000	64.548492  
4864.000000	64.531040  
4863.000000	64.538812  
4862.000000	64.565825  
4861.000000	64.602565  
4860.000000	64.637780  
4859.000000	64.661812  
4858.000000	64.667606  
4857.000000	64.654064  
4856.000000	64.625620  
4855.000000	64.591574  
4854.000000	64.562773  
4853.000000	64.549207  
4852.000000	64.557266  
4851.000000	64.587378  
4850.000000	64.634180  
4849.000000	64.688134  
4848.000000	64.738011  
4847.000000	64.774823  
4846.000000	64.793848  
4845.000000	64.794301  
4844.000000	64.779138  
4843.000000	64.753651  
4842.000000	64.723515  
4841.000000	64.692258  
4840.000000	64.661097  
4839.000000	64.629650  
4838.000000	64.596962  
4837.000000	64.562749  
4836.000000	64.528560  
4835.000000	64.499020  
4834.000000	64.479994  
4833.000000	64.476871  
4832.000000	64.492797  
4831.000000	64.527153  
4830.000000	64.575099  
4829.000000	64.628005  
4828.000000	64.675521  
4827.000000	64.708161  
4826.000000	64.719438  
4825.000000	64.707565  
4824.000000	64.675664  
4823.000000	64.630961  
4822.000000	64.583015  
4821.000000	64.541220  
4820.000000	64.512991  
4819.000000	64.502215  
4818.000000	64.508867  
4817.000000	64.529776  
4816.000000	64.559793  
4815.000000	64.593720  
4814.000000	64.627742  
4813.000000	64.660811  
4812.000000	64.693522  
4811.000000	64.728784  
4810.000000	64.769506  
4809.000000	64.818429  
4808.000000	64.876198  
4807.000000	64.941573  
4806.000000	65.011548  
4805.000000	65.081954  
4804.000000	65.148735  
4803.000000	65.208053  
4802.000000	65.257406  
4801.000000	65.295362  
4800.000000	65.321969  
4799.000000	65.337681  
4798.000000	65.343618  
4797.000000	65.340971  
4796.000000	65.331029  
4795.000000	65.315556  
4794.000000	65.296792  
4793.000000	65.277600  
4792.000000	65.261101  
4791.000000	65.250062  
4790.000000	65.246248  
4789.000000	65.250253  
4788.000000	65.260720  
4787.000000	65.274572  
4786.000000	65.287327  
4785.000000	65.294003  
4784.000000	65.290141  
4783.000000	65.272951  
4782.000000	65.242052  
4781.000000	65.198898  
4780.000000	65.147542  
4779.000000	65.093660  
4778.000000	65.043926  
4777.000000	65.004277  
4776.000000	64.979076  
4775.000000	64.970779  
4774.000000	64.978766  
4773.000000	64.999771  
4772.000000	65.028572  
4771.000000	65.059113  
4770.000000	65.085387  
4769.000000	65.102529  
4768.000000	65.107774  
4767.000000	65.101003  
4766.000000	65.084791  
4765.000000	65.063619  
4764.000000	65.042853  
4763.000000	65.027546  
4762.000000	65.021634  
4761.000000	65.026664  
4760.000000	65.041708  
4759.000000	65.063142  
4758.000000	65.085816  
4757.000000	65.103840  
4756.000000	65.111780  
4755.000000	65.106058  
4754.000000	65.085625  
4753.000000	65.052652  
4752.000000	65.011930  
4751.000000	64.969873  
4750.000000	64.933204  
4749.000000	64.907169  
4748.000000	64.894485  
4747.000000	64.894604  
4746.000000	64.904093  
4745.000000	64.917778  
4744.000000	64.929962  
4743.000000	64.936947  
4742.000000	64.937782  
4741.000000	64.935159  
4740.000000	64.934444  
4739.000000	64.942121  
4738.000000	64.963841  
4737.000000	65.002465  
4736.000000	65.056920  
4735.000000	65.121769  
4734.000000	65.188717  
4733.000000	65.248918  
4732.000000	65.295124  
4731.000000	65.323877  
4730.000000	65.335774  
4729.000000	65.335440  
4728.000000	65.329051  
4727.000000	65.322828  
4726.000000	65.320324  
4725.000000	65.321755  
4724.000000	65.323805  
4723.000000	65.321111  
4722.000000	65.308237  
4721.000000	65.282034  
4720.000000	65.243411  
4719.000000	65.197849  
4718.000000	65.154337  
4717.000000	65.123105  
4716.000000	65.113067  
4715.000000	65.129137  
4714.000000	65.170454  
4713.000000	65.230131  
4712.000000	65.296554  
4711.000000	65.355801  
4710.000000	65.394806  
4709.000000	65.404200  
4708.000000	65.380144  
4707.000000	65.325093  
4706.000000	65.247130  
4705.000000	65.157771  
4704.000000	65.069532  
4703.000000	64.993333  
4702.000000	64.936637  
4701.000000	64.902329  
4700.000000	64.889073  
4699.000000	64.892292  
4698.000000	64.906120  
4697.000000	64.925241  
4696.000000	64.945483  
4695.000000	64.965105  
4694.000000	64.983844  
4693.000000	65.002989  
4692.000000	65.023589  
4691.000000	65.046429  
4690.000000	65.071177  
4689.000000	65.096735  
4688.000000	65.121388  
4687.000000	65.142989  
4686.000000	65.159511  
4685.000000	65.169477  
4684.000000	65.172529  
4683.000000	65.169548  
4682.000000	65.162301  
4681.000000	65.153312  
4680.000000	65.144944  
4679.000000	65.139245  
4678.000000	65.137267  
4677.000000	65.138959  
4676.000000	65.143251  
4675.000000	65.148520  
4674.000000	65.153074  
4673.000000	65.156078  
4672.000000	65.157413  
4671.000000	65.157103  
4670.000000	65.155553  
4669.000000	65.153193  
4668.000000	65.150308  
4667.000000	65.146374  
4666.000000	65.140962  
4665.000000	65.133786  
4664.000000	65.125679  
4663.000000	65.118908  
4662.000000	65.116524  
4661.000000	65.121889  
4660.000000	65.137076  
4659.000000	65.161991  
4658.000000	65.193486  
4657.000000	65.225911  
4656.000000	65.252757  
4655.000000	65.268111  
4654.000000	65.268373  
4653.000000	65.253520  
4652.000000	65.227341  
4651.000000	65.196919  
4650.000000	65.170192  
4649.000000	65.154695  
4648.000000	65.155792  
4647.000000	65.175771  
4646.000000	65.213298  
4645.000000	65.264034  
4644.000000	65.322470  
4643.000000	65.382337  
4642.000000	65.438151  
4641.000000	65.485548  
4640.000000	65.521764  
4639.000000	65.545630  
4638.000000	65.556883  
4637.000000	65.556883  
4636.000000	65.548014  
4635.000000	65.533757  
4634.000000	65.518116  
4633.000000	65.504813  
4632.000000	65.496373  
4631.000000	65.493321  
4630.000000	65.493845  
4629.000000	65.493941  
4628.000000	65.488004  
4627.000000	65.470576  
4626.000000	65.437340  
4625.000000	65.386366  
4624.000000	65.318393  
4623.000000	65.236854  
4622.000000	65.146923  
4621.000000	65.054631  
4620.000000	64.965867  
4619.000000	64.884901  
4618.000000	64.814662  
4617.000000	64.756584  
4616.000000	64.711284  
4615.000000	64.678907  
4614.000000	64.659714  
4613.000000	64.653992  
4612.000000	64.661574  
4611.000000	64.680838  
4610.000000	64.708971  
4609.000000	64.741349  
4608.000000	64.772605  
4607.000000	64.796853  
4606.000000	64.810156  
4605.000000	64.811420  
4604.000000	64.802885  
4603.000000	64.789724  
4602.000000	64.778995  
4601.000000	64.777374  
4600.000000	64.789748  
4599.000000	64.817285  
4598.000000	64.857053  
4597.000000	64.902400  
4596.000000	64.945149  
4595.000000	64.977025  
4594.000000	64.991855  
4593.000000	64.986944  
4592.000000	64.964032  
4591.000000	64.928603  
4590.000000	64.887690  
4589.000000	64.849138  
4588.000000	64.819574  
4587.000000	64.803099  
4586.000000	64.801096  
4585.000000	64.811754  
4584.000000	64.831638  
4583.000000	64.855194  
4582.000000	64.876675  
4581.000000	64.890336  
4580.000000	64.891743  
4579.000000	64.878249  
4578.000000	64.849448  
4577.000000	64.807248  
4576.000000	64.755439  
4575.000000	64.699578  
4574.000000	64.645981  
4573.000000	64.600157  
4572.000000	64.566230  
4571.000000	64.546751  
4570.000000	64.542555  
4569.000000	64.552474  
4568.000000	64.574408  
4567.000000	64.606523  
4566.000000	64.647006  
4565.000000	64.693474  
4564.000000	64.742898  
4563.000000	64.791440  
4562.000000	64.834117  
4561.000000	64.864706  
4560.000000	64.877724  
4559.000000	64.869141  
4558.000000	64.838790  
4557.000000	64.791226  
4556.000000	64.734721  
4555.000000	64.679741  
4554.000000	64.636468  
4553.000000	64.612960  
4552.000000	64.611291  
4551.000000	64.626979  
4550.000000	64.649868  
4549.000000	64.666652  
4548.000000	64.664316  
4547.000000	64.633011  
4546.000000	64.569258  
4545.000000	64.475679  
4544.000000	64.360046  
4543.000000	64.232206  
4542.000000	64.101386  
4541.000000	63.973617  
4540.000000	63.850784  
4539.000000	63.731622  
4538.000000	63.612914  
4537.000000	63.492989  
4536.000000	63.373160  
4535.000000	63.260054  
4534.000000	63.162374  
4533.000000	63.092565  
4532.000000	63.061881  
4531.000000	63.079714  
4530.000000	63.148474  
4529.000000	63.265538  
4528.000000	63.421964  
4527.000000	63.604831  
4526.000000	63.798689  
4525.000000	63.988447  
4524.000000	64.160799  
4523.000000	64.305663  
4522.000000	64.416503  
4521.000000	64.489912  
4520.000000	64.525008  
4519.000000	64.524030  
4518.000000	64.491009  
4517.000000	64.432525  
4516.000000	64.355540  
4515.000000	64.269375  
4514.000000	64.181947  
4513.000000	64.100098  
4512.000000	64.026975  
4511.000000	63.963699  
4510.000000	63.907909  
4509.000000	63.855099  
4508.000000	63.800120  
4507.000000	63.739490  
4506.000000	63.672375  
4505.000000	63.600873  
4504.000000	63.529968  
4503.000000	63.465642  
4502.000000	63.413691  
4501.000000	63.377428  
4500.000000	63.357424  
4499.000000	63.350892  
4498.000000	63.353729  
4497.000000	63.362002  
4496.000000	63.372826  
4495.000000	63.385009  
4494.000000	63.399600  
4493.000000	63.418889  
4492.000000	63.444161  
4491.000000	63.475131  
4490.000000	63.510060  
4489.000000	63.545703  
4488.000000	63.578748  
4487.000000	63.605880  
4486.000000	63.625192  
4485.000000	63.635897  
4484.000000	63.639187  
4483.000000	63.636946  
4482.000000	63.631200  
4481.000000	63.623332  
4480.000000	63.614392  
4479.000000	63.604283  
4478.000000	63.592147  
4477.000000	63.576817  
4476.000000	63.557982  
4475.000000	63.536071  
4474.000000	63.512516  
4473.000000	63.489317  
4472.000000	63.468575  
4471.000000	63.451671  
4470.000000	63.438916  
4469.000000	63.429427  
4468.000000	63.421607  
4467.000000	63.413262  
4466.000000	63.402867  
4465.000000	63.389635  
4464.000000	63.374495  
4463.000000	63.360214  
4462.000000	63.350701  
4461.000000	63.349890  
4460.000000	63.360261  
4459.000000	63.382029  
4458.000000	63.412809  
4457.000000	63.447237  
4456.000000	63.479018  
4455.000000	63.502955  
4454.000000	63.515782  
4453.000000	63.517236  
4452.000000	63.509106  
4451.000000	63.494801  
4450.000000	63.477158  
4449.000000	63.456988  
4448.000000	63.433694  
4447.000000	63.405871  
4446.000000	63.372492  
4445.000000	63.334250  
4444.000000	63.293218  
4443.000000	63.252687  
4442.000000	63.216686  
4441.000000	63.188862  
4440.000000	63.171982  
4439.000000	63.166618  
4438.000000	63.172125  
4437.000000	63.185572  
4436.000000	63.200974  
4435.000000	63.210964  
4434.000000	63.208150  
4433.000000	63.187551  
4432.000000	63.148927  
4431.000000	63.095712  
4430.000000	63.036298  
4429.000000	62.978577  
4428.000000	62.927818  
4427.000000	62.883782  
4426.000000	62.841296  
4425.000000	62.791609  
4424.000000	62.720775  
4423.000000	62.622284  
4422.000000	62.508654  
4421.000000	62.393283  
4420.000000	62.275314  
4419.000000	62.171268  
4418.000000	62.121033  
4417.000000	62.139773  
4416.000000	62.211441  
4415.000000	62.317490  
4414.000000	62.438464  
4413.000000	62.568759  
4412.000000	62.717247  
4411.000000	62.869191  
4410.000000	63.001561  
4409.000000	63.110589  
4408.000000	63.202476  
4407.000000	63.304185  
4406.000000	63.436031  
4405.000000	63.598203  
4404.000000	63.771033  
4403.000000	63.863968  
4402.000000	63.810181  
4401.000000	63.612985  
4400.000000	63.348817  
4399.000000	63.174295  
4398.000000	63.273477  
4397.000000	63.717770  
4396.000000	64.612412  
4395.000000	65.942168  
4394.000000	67.932057  
4393.000000	71.023821  
4392.000000	75.810408  
4391.000000	82.895755  
4390.000000	92.347908  
4389.000000	103.548145 
4388.000000	115.038204 
4387.000000	124.809885 
4386.000000	130.955576 
4385.000000	132.130408 
4384.000000	128.158974 
4383.000000	119.954752 
4382.000000	109.189510 
4381.000000	97.829270  
4380.000000	87.455463  
4379.000000	79.054427  
4378.000000	72.969341  
4377.000000	68.937611  
4376.000000	66.592788  
4375.000000	65.417885  
4374.000000	65.007162  
4373.000000	65.066838  
4372.000000	65.277600  
4371.000000	65.480232  
4370.000000	65.529608  
4369.000000	65.411090  
4368.000000	65.153837  
4367.000000	64.842391  
4366.000000	64.554977  
4365.000000	64.344382  
4364.000000	64.202904  
4363.000000	64.112925  
4362.000000	64.058423  
4361.000000	64.024877  
4360.000000	64.007186  
4359.000000	64.003872  
4358.000000	64.017772  
4357.000000	64.030456  
4356.000000	64.015054  
4355.000000	63.970732  
4354.000000	63.911437  
4353.000000	63.852572  
4352.000000	63.811349  
4351.000000	63.786029  
4350.000000	63.767886  
4349.000000	63.773870  
4348.000000	63.814806  
4347.000000	63.865447  
4346.000000	63.896989  
4345.000000	63.900232  
4344.000000	63.870835  
4343.000000	63.806819  
4342.000000	63.714718  
4341.000000	63.606691  
4340.000000	63.498425  
4339.000000	63.405537  
4338.000000	63.340544  
4337.000000	63.310408  
4336.000000	63.315629  
4335.000000	63.350963  
4334.000000	63.408541  
4333.000000	63.480615  
4332.000000	63.560461  
4331.000000	63.644003  
4330.000000	63.729834  
4329.000000	63.817930  
4328.000000	63.907694  
4327.000000	63.996458  
4326.000000	64.079093  
4325.000000	64.147877  
4324.000000	64.194631  
4323.000000	64.211654  
4322.000000	64.195013  
4321.000000	64.144420  
4320.000000	64.064168  
4319.000000	63.961672  
4318.000000	63.847279  
4317.000000	63.731241  
4316.000000	63.622331  
4315.000000	63.526487  
4314.000000	63.446831  
4313.000000	63.383722  
4312.000000	63.335633  
4311.000000	63.300514  
4310.000000	63.276767  
4309.000000	63.263869  
4308.000000	63.262319  
4307.000000	63.273739  
4306.000000	63.299918  
4305.000000	63.341546  
4304.000000	63.397359  
4303.000000	63.463830  
4302.000000	63.535189  
4301.000000	63.604426  
4300.000000	63.664174  
4299.000000	63.707852  
4298.000000	63.730955  
4297.000000	63.731813  
4296.000000	63.712143  
4295.000000	63.676691  
4294.000000	63.632559  
4293.000000	63.588047  
4292.000000	63.550925  
4291.000000	63.527441  
4290.000000	63.520908  
4289.000000	63.531708  
4288.000000	63.557314  
4287.000000	63.593006  
4286.000000	63.633418  
4285.000000	63.673686  
4284.000000	63.710975  
4283.000000	63.744974  
4282.000000	63.778042  
4281.000000	63.814020  
4280.000000	63.857173  
4279.000000	63.910269  
4278.000000	63.973188  
4277.000000	64.042496  
4276.000000	64.111924  
4275.000000	64.174175  
4274.000000	64.222979  
4273.000000	64.254903  
4272.000000	64.270925  
4271.000000	64.275860  
4270.000000	64.277696  
4269.000000	64.284324  
4268.000000	64.302349  
4267.000000	64.333152  
4266.000000	64.373397  
4265.000000	64.414286  
4264.000000	64.445257  
4263.000000	64.455294  
4262.000000	64.436578  
4261.000000	64.386010  
4260.000000	64.306712  
4259.000000	64.206457  
4258.000000	64.095807  
4257.000000	63.985991  
4256.000000	63.886332  
4255.000000	63.803577  
4254.000000	63.741374  
4253.000000	63.700842  
4252.000000	63.681292  
4251.000000	63.681292  
4250.000000	63.699173  
4249.000000	63.732290  
4248.000000	63.777422  
4247.000000	63.829994  
4246.000000	63.885426  
4245.000000	63.938117  
4244.000000	63.984465  
4243.000000	64.023303  
4242.000000	64.056730  
4241.000000	64.089608  
4240.000000	64.127659  
4239.000000	64.176225  
4238.000000	64.237499  
4237.000000	64.309740  
4236.000000	64.387178  
4235.000000	64.461255  
4234.000000	64.522790  
4233.000000	64.565038  
4232.000000	64.584755  
4231.000000	64.583516  
4230.000000	64.566612  
4229.000000	64.541673  
4228.000000	64.515948  
4227.000000	64.494609  
4226.000000	64.479923  
4225.000000	64.471387  
4224.000000	64.466810  
4223.000000	64.463472  
4222.000000	64.460420  
4221.000000	64.458465  
4220.000000	64.459848  
4219.000000	64.467072  
4218.000000	64.480757  
4217.000000	64.499592  
4216.000000	64.519858  
4215.000000	64.536404  
4214.000000	64.544272  
4213.000000	64.539957  
4212.000000	64.522576  
4211.000000	64.493966  
4210.000000	64.458966  
4209.000000	64.423370  
4208.000000	64.392280  
4207.000000	64.368653  
4206.000000	64.352393  
4205.000000	64.341235  
4204.000000	64.331984  
4203.000000	64.321517  
4202.000000	64.307880  
4201.000000	64.291977  
4200.000000	64.277482  
4199.000000	64.269399  
4198.000000	64.272475  
4197.000000	64.289736  
4196.000000	64.320898  
4195.000000	64.362311  
4194.000000	64.407348  
4193.000000	64.446663  
4192.000000	64.471507  
4191.000000	64.475083  
4190.000000	64.456677  
4189.000000	64.421391  
4188.000000	64.381384  
4187.000000	64.352774  
4186.000000	64.352750  
4185.000000	64.395594  
4184.000000	64.487934  
4183.000000	64.627528  
4182.000000	64.800810  
4181.000000	64.986610  
4180.000000	65.158057  
4179.000000	65.289521  
4178.000000	65.359997  
4177.000000	65.357875  
4176.000000	65.282940  
4175.000000	65.146398  
4174.000000	64.968609  
4173.000000	64.775252  
4172.000000	64.593052  
4171.000000	64.445352  
4170.000000	64.349699  
4169.000000	64.315509  
4168.000000	64.344286  
4167.000000	64.429688  
4166.000000	64.559006  
4165.000000	64.715290  
4164.000000	64.879059  
4163.000000	65.031766  
4162.000000	65.157294  
4161.000000	65.244984  
4160.000000	65.289282  
4159.000000	65.291309  
4158.000000	65.257310  
4157.000000	65.197873  
4156.000000	65.126061  
4155.000000	65.054726  
4154.000000	64.995574  
4153.000000	64.956116  
4152.000000	64.940428  
4151.000000	64.947152  
4150.000000	64.971232  
4149.000000	65.003776  
4148.000000	65.034651  
4147.000000	65.054464  
4146.000000	65.056872  
4145.000000	65.039658  
4144.000000	65.005207  
4143.000000	64.960455  
4142.000000	64.915013  
4141.000000	64.879727  
4140.000000	64.863419  
4139.000000	64.870429  
4138.000000	64.899516  
4137.000000	64.944362  
4136.000000	64.995360  
4135.000000	65.042090  
4134.000000	65.075898  
4133.000000	65.092015  
4132.000000	65.090489  
4131.000000	65.075802  
4130.000000	65.055251  
4129.000000	65.035772  
4128.000000	65.022921  
4127.000000	65.019369  
4126.000000	65.024542  
4125.000000	65.035653  
4124.000000	65.048599  
4123.000000	65.059876  
4122.000000	65.067028  
4121.000000	65.069389  
4120.000000	65.067458  
4119.000000	65.062332  
4118.000000	65.054559  
4117.000000	65.043997  
4116.000000	65.030121  
4115.000000	65.012693  
4114.000000	64.992642  
4113.000000	64.972567  
4112.000000	64.956688  
4111.000000	64.950108  
4110.000000	64.957976  
4109.000000	64.983701  
4108.000000	65.027451  
4107.000000	65.086054  
4106.000000	65.153074  
4105.000000	65.220260  
4104.000000	65.279650  
4103.000000	65.324378  
4102.000000	65.350413  
4101.000000	65.356087  
4100.000000	65.342497  
4099.000000	65.311980  
4098.000000	65.267491  
4097.000000	65.212059  
4096.000000	65.148663  
4095.000000	65.080523  
4094.000000	65.011477  
4093.000000	64.945816  
4092.000000	64.888310  
4091.000000	64.843344  
4090.000000	64.814615  
4089.000000	64.804363  
4088.000000	64.813542  
4087.000000	64.841318  
4086.000000	64.885973  
4085.000000	64.945006  
4084.000000	65.015578  
4083.000000	65.094757  
4082.000000	65.178775  
4081.000000	65.262937  
4080.000000	65.341281  
4079.000000	65.406465  
4078.000000	65.451359  
4077.000000	65.470433  
4076.000000	65.460920  
4075.000000	65.424203  
4074.000000	65.365290  
4073.000000	65.292668  
4072.000000	65.215921  
4071.000000	65.144562  
4070.000000	65.085792  
4069.000000	65.043711  
4068.000000	65.018892  
4067.000000	65.009236  
4066.000000	65.010285  
4065.000000	65.016818  
4064.000000	65.024423  
4063.000000	65.030646  
4062.000000	65.035343  
4061.000000	65.040779  
4060.000000	65.050649  
4059.000000	65.068769  
4058.000000	65.097618  
4057.000000	65.136885  
4056.000000	65.183520  
4055.000000	65.231132  
4054.000000	65.271592  
4053.000000	65.296292  
4052.000000	65.298056  
4051.000000	65.273571  
4050.000000	65.224266  
4049.000000	65.156817  
4048.000000	65.081357  
4047.000000	65.010261  
4046.000000	64.955306  
4045.000000	64.925503  
4044.000000	64.925193  
4043.000000	64.954113  
4042.000000	65.007615  
4041.000000	65.078449  
4040.000000	65.158295  
4039.000000	65.238857  
4038.000000	65.312790  
4037.000000	65.374398  
4036.000000	65.419840  
4035.000000	65.447044  
4034.000000	65.455913  
4033.000000	65.448141  
4032.000000	65.427064  
4031.000000	65.398001  
4030.000000	65.367150  
4029.000000	65.341401  
4028.000000	65.325951  
4027.000000	65.324211  
4026.000000	65.335941  
4025.000000	65.357732  
4024.000000	65.383148  
4023.000000	65.404701  
4022.000000	65.415287  
4021.000000	65.409803  
4020.000000	65.386915  
4019.000000	65.348792  
4018.000000	65.301203  
4017.000000	65.251731  
4016.000000	65.208220  
4015.000000	65.176773  
4014.000000	65.160799  
4013.000000	65.160608  
4012.000000	65.173268  
4011.000000	65.193629  
4010.000000	65.215206  
4009.000000	65.231823  
4008.000000	65.238952  
4007.000000	65.234661  
4006.000000	65.218830  
4005.000000	65.193319  
4004.000000	65.161347  
4003.000000	65.126705  
4002.000000	65.092730  
4001.000000	65.061998  
4000.000000	65.035891  
3999.000000	65.014696  
3998.000000	64.997959  
3997.000000	64.984941  
3996.000000	64.974689  
3995.000000	64.966988  
3994.000000	64.961838  
3993.000000	64.960741  
3992.000000	64.965653  
3991.000000	64.979171  
3990.000000	65.003275  
3989.000000	65.039205  
3988.000000	65.086674  
3987.000000	65.143346  
3986.000000	65.204596  
3985.000000	65.263867  
3984.000000	65.313792  
3983.000000	65.347242  
3982.000000	65.358781  
3981.000000	65.345573  
3980.000000	65.308189  
3979.000000	65.250682  
3978.000000	65.180134  
3977.000000	65.105175  
3976.000000	65.034651  
3975.000000	64.976406  
3974.000000	64.935779  
3973.000000	64.915227  
3972.000000	64.913916  
3971.000000	64.929008  
3970.000000	64.955878  
3969.000000	64.989042  
3968.000000	65.022945  
3967.000000	65.052795  
3966.000000	65.074443  
3965.000000	65.084791  
3964.000000	65.081596  
3963.000000	65.063285  
3962.000000	65.029311  
3961.000000	64.980149  
3960.000000	64.917564  
3959.000000	64.844870  
3958.000000	64.767146  
3957.000000	64.691042  
3956.000000	64.623856  
3955.000000	64.572381  
3954.000000	64.541816  
3953.000000	64.534831  
3952.000000	64.550566  
3951.000000	64.585375  
3950.000000	64.633464  
3949.000000	64.688730  
3948.000000	64.745378  
3947.000000	64.799594  
3946.000000	64.849305  
3945.000000	64.894413  
3944.000000	64.935898  
3943.000000	64.974975  
3942.000000	65.011930  
3941.000000	65.045785  
3940.000000	65.074729  
3939.000000	65.095829  
3938.000000	65.106487  
3937.000000	65.104484  
3936.000000	65.089535  
3935.000000	65.062689  
3934.000000	65.026736  
3933.000000	64.985489  
3932.000000	64.943194  
3931.000000	64.903759  
3930.000000	64.870214  
3929.000000	64.844512  
3928.000000	64.827561  
3927.000000	64.818978  
3926.000000	64.817452  
3925.000000	64.821195  
3924.000000	64.828133  
3923.000000	64.835858  
3922.000000	64.842319  
3921.000000	64.845633  
3920.000000	64.844727  
3919.000000	64.839148  
3918.000000	64.829468  
3917.000000	64.816617  
3916.000000	64.802479  
3915.000000	64.789390  
3914.000000	64.780116  
3913.000000	64.776802  
3912.000000	64.780902  
3911.000000	64.793038  
3910.000000	64.812731  
3909.000000	64.838457  
3908.000000	64.867877  
3907.000000	64.898276  
3906.000000	64.926815  
3905.000000	64.951157  
3904.000000	64.969253  
3903.000000	64.979743  
3902.000000	64.981865  
3901.000000	64.975786  
3900.000000	64.962649  
3899.000000	64.944291  
3898.000000	64.923596  
3897.000000	64.903688  
3896.000000	64.887690  
3895.000000	64.877843  
3894.000000	64.875459  
3893.000000	64.880037  
3892.000000	64.889693  
3891.000000	64.900994  
3890.000000	64.909982  
3889.000000	64.912891  
3888.000000	64.906859  
3887.000000	64.890861  
3886.000000	64.865612  
3885.000000	64.834070  
3884.000000	64.800572  
3883.000000	64.770317  
3882.000000	64.748215  
3881.000000	64.738082  
3880.000000	64.741945  
3879.000000	64.759445  
3878.000000	64.788222  
3877.000000	64.823865  
3876.000000	64.860939  
3875.000000	64.893651  
3874.000000	64.917039  
3873.000000	64.927935  
3872.000000	64.925456  
3871.000000	64.911055  
3870.000000	64.888405  
3869.000000	64.862346  
3868.000000	64.838004  
3867.000000	64.819908  
3866.000000	64.811062  
3865.000000	64.812922  
3864.000000	64.824795  
3863.000000	64.844512  
3862.000000	64.868664  
3861.000000	64.893603  
3860.000000	64.915966  
3859.000000	64.932727  
3858.000000	64.942288  
3857.000000	64.944267  
3856.000000	64.939880  
3855.000000	64.931178  
3854.000000	64.920997  
3853.000000	64.912128  
3852.000000	64.906907  
3851.000000	64.907050  
3850.000000	64.912843  
3849.000000	64.923405  
3848.000000	64.936923  
3847.000000	64.951419  
3846.000000	64.965105  
3845.000000	64.976811  
3844.000000	64.986276  
3843.000000	64.993476  
3842.000000	64.998507  
3841.000000	65.000367  
3840.000000	64.997243  
3839.000000	64.985871  
3838.000000	64.962458  
3837.000000	64.923071  
3836.000000	64.865589  
3835.000000	64.789962  
3834.000000	64.699268  
3833.000000	64.599466  
3832.000000	64.498591  
3831.000000	64.405727  
3830.000000	64.329075  
3829.000000	64.274978  
3828.000000	64.246320  
3827.000000	64.243054  
3826.000000	64.262080  
3825.000000	64.298629  
3824.000000	64.346885  
3823.000000	64.401435  
3822.000000	64.457583  
3821.000000	64.511942  
3820.000000	64.562416  
3819.000000	64.607906  
3818.000000	64.647817  
3817.000000	64.682197  
3816.000000	64.711046  
3815.000000	64.734506  
3814.000000	64.752364  
3813.000000	64.764785  
3812.000000	64.771556  
3811.000000	64.772748  
3810.000000	64.768433  
3809.000000	64.759278  
3808.000000	64.746236  
3807.000000	64.731049  
3806.000000	64.715862  
3805.000000	64.703583  
3804.000000	64.696693  
3803.000000	64.696788  
3802.000000	64.704489  
3801.000000	64.719295  
3800.000000	64.739704  
3799.000000	64.763379  
3798.000000	64.788246  
3797.000000	64.813065  
3796.000000	64.837670  
3795.000000	64.863014  
3794.000000	64.890551  
3793.000000	64.921522  
3792.000000	64.956355  
3791.000000	64.994120  
3790.000000	65.032172  
3789.000000	65.066361  
3788.000000	65.092372  
3787.000000	65.105915  
3786.000000	65.104341  
3785.000000	65.086841  
3784.000000	65.054965  
3783.000000	65.012526  
3782.000000	64.964580  
3781.000000	64.916992  
3780.000000	64.875340  
3779.000000	64.844441  
3778.000000	64.827799  
3777.000000	64.827060  
3776.000000	64.842391  
3775.000000	64.871954  
3774.000000	64.912676  
3773.000000	64.960193  
3772.000000	65.009450  
3771.000000	65.055251  
3770.000000	65.092635  
3769.000000	65.118002  
3768.000000	65.129494  
3767.000000	65.127372  
3766.000000	65.113949  
3765.000000	65.093421  
3764.000000	65.070796  
3763.000000	65.050959  
3762.000000	65.037536  
3761.000000	65.032315  
3760.000000	65.034723  
3759.000000	65.042519  
3758.000000	65.052294  
3757.000000	65.060758  
3756.000000	65.065693  
3755.000000	65.066504  
3754.000000	65.064382  
3753.000000	65.061783  
3752.000000	65.061497  
3751.000000	65.065646  
3750.000000	65.074825  
3749.000000	65.087676  
3748.000000	65.101218  
3747.000000	65.111780  
3746.000000	65.115880  
3745.000000	65.111184  
3744.000000	65.097332  
3743.000000	65.076160  
3742.000000	65.051221  
3741.000000	65.027260  
3740.000000	65.008854  
3739.000000	64.999437  
3738.000000	65.000891  
3737.000000	65.013146  
3736.000000	65.034437  
3735.000000	65.061783  
3734.000000	65.091967  
3733.000000	65.121865  
3732.000000	65.149259  
3731.000000	65.172648  
3730.000000	65.191006  
3729.000000	65.203762  
3728.000000	65.210390  
3727.000000	65.210628  
3726.000000	65.204501  
3725.000000	65.192437  
3724.000000	65.175819  
3723.000000	65.156507  
3722.000000	65.136861  
3721.000000	65.119266  
3720.000000	65.105843  
3719.000000	65.097975  
3718.000000	65.096068  
3717.000000	65.099620  
3716.000000	65.107393  
3715.000000	65.117430  
3714.000000	65.127730  
3713.000000	65.136098  
3712.000000	65.140986  
3711.000000	65.141606  
3710.000000	65.138101  
3709.000000	65.131711  
3708.000000	65.124297  
3707.000000	65.118026  
3706.000000	65.114831  
3705.000000	65.116167  
3704.000000	65.122461  
3703.000000	65.133023  
3702.000000	65.145993  
3701.000000	65.158939  
3700.000000	65.169453  
3699.000000	65.175628  
3698.000000	65.176749  
3697.000000	65.173220  
3696.000000	65.166878  
3695.000000	65.160346  
3694.000000	65.156650  
3693.000000	65.158438  
3692.000000	65.167284  
3691.000000	65.183472  
3690.000000	65.205669  
3689.000000	65.231370  
3688.000000	65.256977  
3687.000000	65.278649  
3686.000000	65.292811  
3685.000000	65.296888  
3684.000000	65.289759  
3683.000000	65.272092  
3682.000000	65.246272  
3681.000000	65.215992  
3680.000000	65.186190  
3679.000000	65.162110  
3678.000000	65.148305  
3677.000000	65.147900  
3676.000000	65.161871  
3675.000000	65.188670  
3674.000000	65.224623  
3673.000000	65.264630  
3672.000000	65.303301  
3671.000000	65.335893  
3670.000000	65.359306  
3669.000000	65.372204  
3668.000000	65.375113  
3667.000000	65.369915  
3666.000000	65.358996  
3665.000000	65.344858  
3664.000000	65.329647  
3663.000000	65.314769  
3662.000000	65.301227  
3661.000000	65.289330  
3660.000000	65.279078  
3659.000000	65.269970  
3658.000000	65.261316  
3657.000000	65.252017  
3656.000000	65.240979  
3655.000000	65.227174  
3654.000000	65.210294  
3653.000000	65.191030  
3652.000000	65.171098  
3651.000000	65.153431  
3650.000000	65.141010  
3649.000000	65.136241  
3648.000000	65.140032  
3647.000000	65.151357  
3646.000000	65.167260  
3645.000000	65.183377  
3644.000000	65.195035  
3643.000000	65.198612  
3642.000000	65.192222  
3641.000000	65.176439  
3640.000000	65.153813  
3639.000000	65.128159  
3638.000000	65.103769  
3637.000000	65.084218  
3636.000000	65.071630  
3635.000000	65.066242  
3634.000000	65.066933  
3633.000000	65.071845  
3632.000000	65.079164  
3631.000000	65.087771  
3630.000000	65.097117  
3629.000000	65.107464  
3628.000000	65.119242  
3627.000000	65.132737  
3626.000000	65.147495  
3625.000000	65.162467  
3624.000000	65.176177  
3623.000000	65.187287  
3622.000000	65.194869  
3621.000000	65.198898  
3620.000000	65.200495  
3619.000000	65.201616  
3618.000000	65.204405  
3617.000000	65.210771  
3616.000000	65.221786  
3615.000000	65.237092  
3614.000000	65.255045  
3613.000000	65.272521  
3612.000000	65.285968  
3611.000000	65.291666  
3610.000000	65.286922  
3609.000000	65.270400  
3608.000000	65.242624  
3607.000000	65.206050  
3606.000000	65.164709  
3605.000000	65.123772  
3604.000000	65.088582  
3603.000000	65.063834  
3602.000000	65.052747  
3601.000000	65.056681  
3600.000000	65.074992  
3599.000000	65.105152  
3598.000000	65.143394  
3597.000000	65.185284  
3596.000000	65.226721  
3595.000000	65.264081  
3594.000000	65.295124  
3593.000000	65.318584  
3592.000000	65.334200  
3591.000000	65.342664  
3590.000000	65.344929  
3589.000000	65.342044  
3588.000000	65.334558  
3587.000000	65.323066  
3586.000000	65.307497  
3585.000000	65.287923  
3584.000000	65.264487  
3583.000000	65.237879  
3582.000000	65.209293  
3581.000000	65.180444  
3580.000000	65.153574  
3579.000000	65.131449  
3578.000000	65.116572  
3577.000000	65.111136  
3576.000000	65.116643  
3575.000000	65.133643  
3574.000000	65.161561  
3573.000000	65.198731  
3572.000000	65.242338  
3571.000000	65.288567  
3570.000000	65.333390  
3569.000000	65.372848  
3568.000000	65.403723  
3567.000000	65.424013  
3566.000000	65.432834  
3565.000000	65.430617  
3564.000000	65.419197  
3563.000000	65.400743  
3562.000000	65.377855  
3561.000000	65.352439  
3560.000000	65.326046  
3559.000000	65.299439  
3558.000000	65.272951  
3557.000000	65.246343  
3556.000000	65.219330  
3555.000000	65.191769  
3554.000000	65.164065  
3553.000000	65.137124  
3552.000000	65.112137  
3551.000000	65.090537  
3550.000000	65.073823  
3549.000000	65.063548  
3548.000000	65.060901  
3547.000000	65.066480  
3546.000000	65.079975  
3545.000000	65.100097  
3544.000000	65.124368  
3543.000000	65.149188  
3542.000000	65.170478  
3541.000000	65.184235  
3540.000000	65.187287  
3539.000000	65.177869  
3538.000000	65.156364  
3537.000000	65.124869  
3536.000000	65.087461  
3535.000000	65.049123  
3534.000000	65.015363  
3533.000000	64.991164  
3532.000000	64.980340  
3531.000000	64.984869  
3530.000000	65.004563  
3529.000000	65.037393  
3528.000000	65.079593  
3527.000000	65.126228  
3526.000000	65.171623  
3525.000000	65.210223  
3524.000000	65.237164  
3523.000000	65.249133  
3522.000000	65.244603  
3521.000000	65.223956  
3520.000000	65.189862  
3519.000000	65.146517  
3518.000000	65.098977  
3517.000000	65.052556  
3516.000000	65.011811  
3515.000000	64.980602  
3514.000000	64.961743  
3513.000000	64.956450  
3512.000000	64.964962  
3511.000000	64.985799  
3510.000000	65.016460  
3509.000000	65.052962  
3508.000000	65.090441  
3507.000000	65.123486  
3506.000000	65.146660  
3505.000000	65.155673  
3504.000000	65.147995  
3503.000000	65.123510  
3502.000000	65.084624  
3501.000000	65.036177  
3500.000000	64.984560  
3499.000000	64.936757  
3498.000000	64.899063  
3497.000000	64.875984  
3496.000000	64.869570  
3495.000000	64.879465  
3494.000000	64.902973  
3493.000000	64.935731  
3492.000000	64.972329  
3491.000000	65.006852  
3490.000000	65.033888  
3489.000000	65.048813  
3488.000000	65.048885  
3487.000000	65.033102  
3486.000000	65.002870  
3485.000000	64.961695  
3484.000000	64.914679  
3483.000000	64.867711  
3482.000000	64.826512  
3481.000000	64.795827  
3480.000000	64.778566  
3479.000000	64.775466  
3478.000000	64.785194  
3477.000000	64.804553  
3476.000000	64.829492  
3475.000000	64.855766  
3474.000000	64.879488  
3473.000000	64.897871  
3472.000000	64.909219  
3471.000000	64.913034  
3470.000000	64.910078  
3469.000000	64.902091  
3468.000000	64.891695  
3467.000000	64.881801  
3466.000000	64.875626  
3465.000000	64.875936  
3464.000000	64.884424  
3463.000000	64.900851  
3462.000000	64.923334  
3461.000000	64.948225  
3460.000000	64.970803  
3459.000000	64.986085  
3458.000000	64.990234  
3457.000000	64.981126  
3456.000000	64.959144  
3455.000000	64.927077  
3454.000000	64.889526  
3453.000000	64.852166  
3452.000000	64.820241  
3451.000000	64.798116  
3450.000000	64.788126  
3449.000000	64.791059  
3448.000000	64.806056  
3447.000000	64.831399  
3446.000000	64.864873  
3445.000000	64.904236  
3444.000000	64.947223  
3443.000000	64.991426  
3442.000000	65.034270  
3441.000000	65.073013  
3440.000000	65.105152  
3439.000000	65.128684  
3438.000000	65.142631  
3437.000000	65.147447  
3436.000000	65.144777  
3435.000000	65.137791  
3434.000000	65.130066  
3433.000000	65.125322  
3432.000000	65.125966  
3431.000000	65.133070  
3430.000000	65.145349  
3429.000000	65.159916  
3428.000000	65.172553  
3427.000000	65.178823  
3426.000000	65.175008  
3425.000000	65.159273  
3424.000000	65.131783  
3423.000000	65.094780  
3422.000000	65.052103  
3421.000000	65.008258  
3420.000000	64.967536  
3419.000000	64.933180  
3418.000000	64.907002  
3417.000000	64.889454  
3416.000000	64.879846  
3415.000000	64.876985  
3414.000000	64.879965  
3413.000000	64.888572  
3412.000000	64.902806  
3411.000000	64.922738  
3410.000000	64.947772  
3409.000000	64.976477  
3408.000000	65.006017  
3407.000000	65.032863  
3406.000000	65.053510  
3405.000000	65.065145  
3404.000000	65.066862  
3403.000000	65.059208  
3402.000000	65.044403  
3401.000000	65.025281  
3400.000000	65.004658  
3399.000000	64.984512  
3398.000000	64.965701  
3397.000000	64.947748  
3396.000000	64.929580  
3395.000000	64.909887  
3394.000000	64.888143  
3393.000000	64.864611  
3392.000000	64.840722  
3391.000000	64.818286  
3390.000000	64.799022  
3389.000000	64.784026  
3388.000000	64.773654  
3387.000000	64.767527  
3386.000000	64.764833  
3385.000000	64.765000  
3384.000000	64.768028  
3383.000000	64.774394  
3382.000000	64.785051  
3381.000000	64.800810  
3380.000000	64.822220  
3379.000000	64.849162  
3378.000000	64.880537  
3377.000000	64.914560  
3376.000000	64.948534  
3375.000000	64.979577  
3374.000000	65.004754  
3373.000000	65.021610  
3372.000000	65.028619  
3371.000000	65.025520  
3370.000000	65.013384  
3369.000000	64.994597  
3368.000000	64.972567  
3367.000000	64.950942  
3366.000000	64.932942  
3365.000000	64.921140  
3364.000000	64.916419  
3363.000000	64.918065  
3362.000000	64.923954  
3361.000000	64.931464  
3360.000000	64.938211  
3359.000000	64.942955  
3358.000000	64.946103  
3357.000000	64.949536  
3356.000000	64.955902  
3355.000000	64.967608  
3354.000000	64.985871  
3353.000000	65.010023  
3352.000000	65.037727  
3351.000000	65.065217  
3350.000000	65.088319  
3349.000000	65.103316  
3348.000000	65.108251  
3347.000000	65.102863  
3346.000000	65.088868  
3345.000000	65.069246  
3344.000000	65.047693  
3343.000000	65.027379  
3342.000000	65.010690  
3341.000000	64.998626  
3340.000000	64.991092  
3339.000000	64.987182  
3338.000000	64.985823  
3337.000000	64.986085  
3336.000000	64.987254  
3335.000000	64.988923  
3334.000000	64.991044  
3333.000000	64.993357  
3332.000000	64.995265  
3331.000000	64.995884  
3330.000000	64.994025  
3329.000000	64.988517  
3328.000000	64.978408  
3327.000000	64.963221  
3326.000000	64.943146  
3325.000000	64.919114  
3324.000000	64.892768  
3323.000000	64.866018  
3322.000000	64.841127  
3321.000000	64.819931  
3320.000000	64.804291  
3319.000000	64.795255  
3318.000000	64.793658  
3317.000000	64.799785  
3316.000000	64.813518  
3315.000000	64.834189  
3314.000000	64.860677  
3313.000000	64.891338  
3312.000000	64.924216  
3311.000000	64.957094  
3310.000000	64.987850  
3309.000000	65.014743  
3308.000000	65.036678  
3307.000000	65.053319  
3306.000000	65.064930  
3305.000000	65.072298  
3304.000000	65.076541  
3303.000000	65.078806  
3302.000000	65.080070  
3301.000000	65.080952  
3300.000000	65.081954  
3299.000000	65.083241  
3298.000000	65.084886  
3297.000000	65.086913  
3296.000000	65.089321  
3295.000000	65.092134  
3294.000000	65.095281  
3293.000000	65.098714  
3292.000000	65.102338  
3291.000000	65.106034  
3290.000000	65.109801  
3289.000000	65.113520  
3288.000000	65.117168  
3287.000000	65.120530  
3286.000000	65.123105  
3285.000000	65.124201  
3284.000000	65.123009  
3283.000000	65.119218  
3282.000000	65.113115  
3281.000000	65.105676  
3280.000000	65.098500  
3279.000000	65.093779  
3278.000000	65.093612  
3277.000000	65.099406  
3276.000000	65.111184  
3275.000000	65.127801  
3274.000000	65.146732  
3273.000000	65.164756  
3272.000000	65.178585  
3271.000000	65.185785  
3270.000000	65.185141  
3269.000000	65.177178  
3268.000000	65.163588  
3267.000000	65.146923  
3266.000000	65.129852  
3265.000000	65.114450  
3264.000000	65.101838  
3263.000000	65.092444  
3262.000000	65.085816  
3261.000000	65.081334  
3260.000000	65.078425  
3259.000000	65.076756  
3258.000000	65.076279  
3257.000000	65.076851  
3256.000000	65.078115  
3255.000000	65.079331  
3254.000000	65.079426  
3253.000000	65.077137  
3252.000000	65.071606  
3251.000000	65.062785  
3250.000000	65.051794  
3249.000000	65.040802  
3248.000000	65.032696  
3247.000000	65.030169  
3246.000000	65.035462  
3245.000000	65.049076  
3244.000000	65.069937  
3243.000000	65.095257  
3242.000000	65.121293  
3241.000000	65.143752  
3240.000000	65.158987  
3239.000000	65.164375  
3238.000000	65.159201  
3237.000000	65.144085  
3236.000000	65.120959  
3235.000000	65.092444  
3234.000000	65.061306  
3233.000000	65.030074  
3232.000000	65.000557  
3231.000000	64.974188  
3230.000000	64.951920  
3229.000000	64.934849  
3228.000000	64.924120  
3227.000000	64.920949  
3226.000000	64.926242  
3225.000000	64.940190  
3224.000000	64.962005  
3223.000000	64.989614  
3222.000000	65.019917  
3221.000000	65.048933  
3220.000000	65.073013  
3219.000000	65.088963  
3218.000000	65.095472  
3217.000000	65.092992  
3216.000000	65.084028  
3215.000000	65.072512  
3214.000000	65.062856  
3213.000000	65.059018  
3212.000000	65.063452  
3211.000000	65.076732  
3210.000000	65.097093  
3209.000000	65.121221  
3208.000000	65.144467  
3207.000000	65.162301  
3206.000000	65.170574  
3205.000000	65.166449  
3204.000000	65.149068  
3203.000000	65.119624  
3202.000000	65.081572  
3201.000000	65.039801  
3200.000000	65.000295  
3199.000000	64.969086  
3198.000000	64.951109  
3197.000000	64.949011  
3196.000000	64.962744  
3195.000000	64.989399  
3194.000000	65.023684  
3193.000000	65.058851  
3192.000000	65.087962  
3191.000000	65.105700  
3190.000000	65.109086  
3189.000000	65.098190  
3188.000000	65.075850  
3187.000000	65.047049  
3186.000000	65.017437  
3185.000000	64.992356  
3184.000000	64.975500  
3183.000000	64.968848  
3182.000000	64.972829  
3181.000000	64.986562  
3180.000000	65.008544  
3179.000000	65.037035  
3178.000000	65.070295  
3177.000000	65.106415  
3176.000000	65.143275  
3175.000000	65.178608  
3174.000000	65.209937  
3173.000000	65.235185  
3172.000000	65.252876  
3171.000000	65.262317  
3170.000000	65.263867  
3169.000000	65.259361  
3168.000000	65.251541  
3167.000000	65.243649  
3166.000000	65.238666  
3165.000000	65.239048  
3164.000000	65.245723  
3163.000000	65.258312  
3162.000000	65.274620  
3161.000000	65.291619  
3160.000000	65.305376  
3159.000000	65.312671  
3158.000000	65.310835  
3157.000000	65.298676  
3156.000000	65.276336  
3155.000000	65.245294  
3154.000000	65.208125  
3153.000000	65.167808  
3152.000000	65.127778  
3151.000000	65.091347  
3150.000000	65.061616  
3149.000000	65.040898  
3148.000000	65.031194  
3147.000000	65.033864  
3146.000000	65.049242  
3145.000000	65.076351  
3144.000000	65.112972  
3143.000000	65.155601  
3142.000000	65.199637  
3141.000000	65.240097  
3140.000000	65.272259  
3139.000000	65.292453  
3138.000000	65.299057  
3137.000000	65.292406  
3136.000000	65.274453  
3135.000000	65.248489  
3134.000000	65.218687  
3133.000000	65.189170  
3132.000000	65.163469  
3131.000000	65.143799  
3130.000000	65.131402  
3129.000000	65.125751  
3128.000000	65.125274  
3127.000000	65.127205  
3126.000000	65.128374  
3125.000000	65.125536  
3124.000000	65.116119  
3123.000000	65.098547  
3122.000000	65.072870  
3121.000000	65.040612  
3120.000000	65.004920  
3119.000000	64.970016  
3118.000000	64.940643  
3117.000000	64.921164  
3116.000000	64.915227  
3115.000000	64.924955  
3114.000000	64.950704  
3113.000000	64.991378  
3112.000000	65.044522  
3111.000000	65.106511  
3110.000000	65.172982  
3109.000000	65.239310  
3108.000000	65.300774  
3107.000000	65.352821  
3106.000000	65.392017  
3105.000000	65.416026  
3104.000000	65.424299  
3103.000000	65.418386  
3102.000000	65.401220  
3101.000000	65.377187  
3100.000000	65.350747  
3099.000000	65.326285  
3098.000000	65.306687  
3097.000000	65.293312  
3096.000000	65.285325  
3095.000000	65.280699  
3094.000000	65.276408  
3093.000000	65.269517  
3092.000000	65.257954  
3091.000000	65.240883  
3090.000000	65.218925  
3089.000000	65.193891  
3088.000000	65.168309  
3087.000000	65.144753  
3086.000000	65.125060  
3085.000000	65.110206  
3084.000000	65.100288  
3083.000000	65.094470  
3082.000000	65.091681  
3081.000000	65.090775  
3080.000000	65.090775  
3079.000000	65.091013  
3078.000000	65.091395  
3077.000000	65.091824  
3076.000000	65.091991  
3075.000000	65.091276  
3074.000000	65.088963  
3073.000000	65.084290  
3072.000000	65.076541  
3071.000000	65.065193  
3070.000000	65.050101  
3069.000000	65.031719  
3068.000000	65.010976  
3067.000000	64.989137  
3066.000000	64.967536  
3065.000000	64.947628  
3064.000000	64.930844  
3063.000000	64.918375  
3062.000000	64.911270  
3061.000000	64.910101  
3060.000000	64.915299  
3059.000000	64.926958  
3058.000000	64.945077  
3057.000000	64.969110  
3056.000000	64.998149  
3055.000000	65.030765  
3054.000000	65.065121  
3053.000000	65.098834  
3052.000000	65.129399  
3051.000000	65.154266  
3050.000000	65.171360  
3049.000000	65.179252  
3048.000000	65.177774  
3047.000000	65.167927  
3046.000000	65.152049  
3045.000000	65.133571  
3044.000000	65.116286  
3043.000000	65.103840  
3042.000000	65.098929  
3041.000000	65.103220  
3040.000000	65.116596  
3039.000000	65.137243  
3038.000000	65.162134  
3037.000000	65.187478  
3036.000000	65.209150  
3035.000000	65.223503  
3034.000000	65.227818  
3033.000000	65.221047  
3032.000000	65.203547  
3031.000000	65.177249  
3030.000000	65.145230  
3029.000000	65.110874  
3028.000000	65.077567  
3027.000000	65.047788  
3026.000000	65.023016  
3025.000000	65.003633  
3024.000000	64.989376  
3023.000000	64.979577  
3022.000000	64.973616  
3021.000000	64.971375  
3020.000000	64.973402  
3019.000000	64.980649  
3018.000000	64.993810  
3017.000000	65.013313  
3016.000000	65.038561  
3015.000000	65.068173  
3014.000000	65.099811  
3013.000000	65.130949  
3012.000000	65.159463  
3011.000000	65.184068  
3010.000000	65.204334  
3009.000000	65.220594  
3008.000000	65.233612  
3007.000000	65.243935  
3006.000000	65.251350  
3005.000000	65.255451  
3004.000000	65.255308  
3003.000000	65.250134  
3002.000000	65.239500  
3001.000000	65.223956  
3000.000000	65.204858  
2999.000000	65.184521  
2998.000000	65.165519  
2997.000000	65.150094  
2996.000000	65.139651  
2995.000000	65.134739  
2994.000000	65.134525  
2993.000000	65.137243  
2992.000000	65.140342  
2991.000000	65.141248  
2990.000000	65.137791  
2989.000000	65.128517  
2988.000000	65.112996  
2987.000000	65.091896  
2986.000000	65.066790  
2985.000000	65.040063  
2984.000000	65.014243  
2983.000000	64.991617  
2982.000000	64.973711  
2981.000000	64.961028  
2980.000000	64.952731  
2979.000000	64.947009  
2978.000000	64.941549  
2977.000000	64.934515  
2976.000000	64.924693  
2975.000000	64.912343  
2974.000000	64.898538  
2973.000000	64.885640  
2972.000000	64.876174  
2971.000000	64.872384  
2970.000000	64.875268  
2969.000000	64.884376  
2968.000000	64.898014  
2967.000000	64.913225  
2966.000000	64.926600  
2965.000000	64.935016  
2964.000000	64.936590  
2963.000000	64.930891  
2962.000000	64.919137  
2961.000000	64.903688  
2960.000000	64.887499  
2959.000000	64.873671  
2958.000000	64.864468  
2957.000000	64.860916  
2956.000000	64.862656  
2955.000000	64.868068  
2954.000000	64.874887  
2953.000000	64.880514  
2952.000000	64.882969  
2951.000000	64.881157  
2950.000000	64.875459  
2949.000000	64.867258  
2948.000000	64.859175  
2947.000000	64.854025  
2946.000000	64.854502  
2945.000000	64.862608  
2944.000000	64.879059  
2943.000000	64.903116  
2942.000000	64.932489  
2941.000000	64.964127  
2940.000000	64.994215  
2939.000000	65.018820  
2938.000000	65.034580  
2937.000000	65.039372  
2936.000000	65.032291  
2935.000000	65.013909  
2934.000000	64.986038  
2933.000000	64.951395  
2932.000000	64.912915  
2931.000000	64.873504  
2930.000000	64.835381  
2929.000000	64.799976  
2928.000000	64.767742  
2927.000000	64.738488  
2926.000000	64.711499  
2925.000000	64.686608  
2924.000000	64.663958  
2923.000000	64.644742  
2922.000000	64.630532  
2921.000000	64.623427  
2920.000000	64.625000  
2919.000000	64.636397  
2918.000000	64.657187  
2917.000000	64.686036  
2916.000000	64.720559  
2915.000000	64.758229  
2914.000000	64.796209  
2913.000000	64.832425  
2912.000000	64.865422  
2911.000000	64.894390  
2910.000000	64.918851  
2909.000000	64.938163  
2908.000000	64.951658  
2907.000000	64.958190  
2906.000000	64.956688  
2905.000000	64.946508  
2904.000000	64.927911  
2903.000000	64.902520  
2902.000000	64.873290  
2901.000000	64.843821  
2900.000000	64.818024  
2899.000000	64.799284  
2898.000000	64.790105  
2897.000000	64.791226  
2896.000000	64.801764  
2895.000000	64.819765  
2894.000000	64.842534  
2893.000000	64.866876  
2892.000000	64.889836  
2891.000000	64.908742  
2890.000000	64.921927  
2889.000000	64.928317  
2888.000000	64.928054  
2887.000000	64.921760  
2886.000000	64.910960  
2885.000000	64.898204  
2884.000000	64.886116  
2883.000000	64.877367  
2882.000000	64.873576  
2881.000000	64.875268  
2880.000000	64.881205  
2879.000000	64.888763  
2878.000000	64.894556  
2877.000000	64.895582  
2876.000000	64.890050  
2875.000000	64.878225  
2874.000000	64.862465  
2873.000000	64.847087  
2872.000000	64.837312  
2871.000000	64.838194  
2870.000000	64.853096  
2869.000000	64.882850  
2868.000000	64.925646  
2867.000000	64.976739  
2866.000000	65.029668  
2865.000000	65.077018  
2864.000000	65.112090  
2863.000000	65.129947  
2862.000000	65.128135  
2861.000000	65.107202  
2860.000000	65.070199  
2859.000000	65.022373  
2858.000000	64.970111  
2857.000000	64.919805  
2856.000000	64.877128  
2855.000000	64.845895  
2854.000000	64.827775  
2853.000000	64.822030  
2852.000000	64.826250  
2851.000000	64.836978  
2850.000000	64.850711  
2849.000000	64.864850  
2848.000000	64.877963  
2847.000000	64.890146  
2846.000000	64.902639  
2845.000000	64.917206  
2844.000000	64.935374  
2843.000000	64.957785  
2842.000000	64.983773  
2841.000000	65.011453  
2840.000000	65.037965  
2839.000000	65.060043  
2838.000000	65.074777  
2837.000000	65.080404  
2836.000000	65.076708  
2835.000000	65.065264  
2834.000000	65.049076  
2833.000000	65.031790  
2832.000000	65.016961  
2831.000000	65.007519  
2830.000000	65.004920  
2829.000000	65.009117  
2828.000000	65.018439  
2827.000000	65.030264  
2826.000000	65.041637  
2825.000000	65.050363  
2824.000000	65.055179  
2823.000000	65.055990  
2822.000000	65.053987  
2821.000000	65.051102  
2820.000000	65.049576  
2819.000000	65.051054  
2818.000000	65.056180  
2817.000000	65.064692  
2816.000000	65.075612  
2815.000000	65.087556  
2814.000000	65.099191  
2813.000000	65.109610  
2812.000000	65.118598  
2811.000000	65.126276  
2810.000000	65.133070  
2809.000000	65.139031  
2808.000000	65.144014  
2807.000000	65.147209  
2806.000000	65.147519  
2805.000000	65.143799  
2804.000000	65.135455  
2803.000000	65.122675  
2802.000000	65.106868  
2801.000000	65.090298  
2800.000000	65.075755  
2799.000000	65.066051  
2798.000000	65.063405  
2797.000000	65.068745  
2796.000000	65.081429  
2795.000000	65.099287  
2794.000000	65.119171  
2793.000000	65.137434  
2792.000000	65.150856  
2791.000000	65.157127  
2790.000000	65.155434  
2789.000000	65.146470  
2788.000000	65.132236  
2787.000000	65.115547  
2786.000000	65.099287  
2785.000000	65.085816  
2784.000000	65.076470  
2783.000000	65.071415  
2782.000000	65.069890  
2781.000000	65.070414  
2780.000000	65.071535  
2779.000000	65.072035  
2778.000000	65.071511  
2777.000000	65.070176  
2776.000000	65.069246  
2775.000000	65.070056  
2774.000000	65.074181  
2773.000000	65.082716  
2772.000000	65.096306  
2771.000000	65.114736  
2770.000000	65.136909  
2769.000000	65.161013  
2768.000000	65.184760  
2767.000000	65.205788  
2766.000000	65.222144  
2765.000000	65.232539  
2764.000000	65.236616  
2763.000000	65.235018  
2762.000000	65.229320  
2761.000000	65.221667  
2760.000000	65.214419  
2759.000000	65.209293  
2758.000000	65.207290  
2757.000000	65.208148  
2756.000000	65.210676  
2755.000000	65.212774  
2754.000000	65.212082  
2753.000000	65.206646  
2752.000000	65.195465  
2751.000000	65.179085  
2750.000000	65.159320  
2749.000000	65.139198  
2748.000000	65.122127  
2747.000000	65.111231  
2746.000000	65.108680  
2745.000000	65.114927  
2744.000000	65.128707  
2743.000000	65.147042  
2742.000000	65.165901  
2741.000000	65.180897  
2740.000000	65.188336  
2739.000000	65.185594  
2738.000000	65.171790  
2737.000000	65.147662  
2736.000000	65.115547  
2735.000000	65.078783  
2734.000000	65.041232  
2733.000000	65.006422  
2732.000000	64.977288  
2731.000000	64.955973  
2730.000000	64.943885  
2729.000000	64.941358  
2728.000000	64.948225  
2727.000000	64.963531  
2726.000000	64.986133  
2725.000000	65.014147  
2724.000000	65.045452  
2723.000000	65.077519  
2722.000000	65.107893  
2721.000000	65.134096  
2720.000000	65.154266  
2719.000000	65.167188  
2718.000000	65.172791  
2717.000000	65.172219  
2716.000000	65.167522  
2715.000000	65.161490  
2714.000000	65.157032  
2713.000000	65.156769  
2712.000000	65.162539  
2711.000000	65.174770  
2710.000000	65.192651  
2709.000000	65.213942  
2708.000000	65.235471  
2707.000000	65.253567  
2706.000000	65.264940  
2705.000000	65.267086  
2704.000000	65.258765  
2703.000000	65.240287  
2702.000000	65.213537  
2701.000000	65.181660  
2700.000000	65.148258  
2699.000000	65.117001  
2698.000000	65.091228  
2697.000000	65.073227  
2696.000000	65.064287  
2695.000000	65.064668  
2694.000000	65.073704  
2693.000000	65.089988  
2692.000000	65.111875  
2691.000000	65.137147  
2690.000000	65.163373  
2689.000000	65.187811  
2688.000000	65.207982  
2687.000000	65.221405  
2686.000000	65.226149  
2685.000000	65.221333  
2684.000000	65.207409  
2683.000000	65.186190  
2682.000000	65.160536  
2681.000000	65.133976  
2680.000000	65.109920  
2679.000000	65.091109  
2678.000000	65.079212  
2677.000000	65.074586  
2676.000000	65.076565  
2675.000000	65.083742  
2674.000000	65.094470  
2673.000000	65.107202  
2672.000000	65.121006  
2671.000000	65.135192  
2670.000000	65.149593  
2669.000000	65.163755  
2668.000000	65.177202  
2667.000000	65.189123  
2666.000000	65.198516  
2665.000000	65.204143  
2664.000000	65.205073  
2663.000000	65.200948  
2662.000000	65.191960  
2661.000000	65.178918  
2660.000000	65.162968  
2659.000000	65.145468  
2658.000000	65.127754  
2657.000000	65.110945  
2656.000000	65.095829  
2655.000000	65.083003  
2654.000000	65.072703  
2653.000000	65.064978  
2652.000000	65.059852  
2651.000000	65.057301  
2650.000000	65.057063  
2649.000000	65.058851  
2648.000000	65.062212  
2647.000000	65.066671  
2646.000000	65.071368  
2645.000000	65.075278  
2644.000000	65.077400  
2643.000000	65.076994  
2642.000000	65.073752  
2641.000000	65.067863  
2640.000000	65.059971  
2639.000000	65.051221  
2638.000000	65.043139  
2637.000000	65.037250  
2636.000000	65.034818  
2635.000000	65.036797  
2634.000000	65.043592  
2633.000000	65.055179  
2632.000000	65.070843  
2631.000000	65.089535  
2630.000000	65.110039  
2629.000000	65.131235  
2628.000000	65.152072  
2627.000000	65.171837  
2626.000000	65.190052  
2625.000000	65.206575  
2624.000000	65.221381  
2623.000000	65.234637  
2622.000000	65.246033  
2621.000000	65.255498  
2620.000000	65.262579  
2619.000000	65.266799  
2618.000000	65.267395  
2617.000000	65.264081  
2616.000000	65.256404  
2615.000000	65.244340  
2614.000000	65.227913  
2613.000000	65.207695  
2612.000000	65.184140  
2611.000000	65.157890  
2610.000000	65.129566  
2609.000000	65.099859  
2608.000000	65.069627  
2607.000000	65.040111  
2606.000000	65.012669  
2605.000000	64.988851  
2604.000000	64.970183  
2603.000000	64.957928  
2602.000000	64.952683  
2601.000000	64.954233  
2600.000000	64.961576  
2599.000000	64.973258  
2598.000000	64.987158  
2597.000000	65.001392  
2596.000000	65.014243  
2595.000000	65.025019  
2594.000000	65.033531  
2593.000000	65.040469  
2592.000000	65.047264  
2591.000000	65.055513  
2590.000000	65.066528  
2589.000000	65.081167  
2588.000000	65.099453  
2587.000000	65.120458  
2586.000000	65.142560  
2585.000000	65.163350  
2584.000000	65.180277  
2583.000000	65.191102  
2582.000000	65.194296  
2581.000000	65.189385  
2580.000000	65.177154  
2579.000000	65.159535  
2578.000000	65.139198  
2577.000000	65.118575  
2576.000000	65.099549  
2575.000000	65.083026  
2574.000000	65.069270  
2573.000000	65.057849  
2572.000000	65.048241  
2571.000000	65.040302  
2570.000000	65.034341  
2569.000000	65.030908  
2568.000000	65.030479  
2567.000000	65.033006  
2566.000000	65.037798  
2565.000000	65.043687  
2564.000000	65.048861  
2563.000000	65.051603  
2562.000000	65.050411  
2561.000000	65.044808  
2560.000000	65.035009  
2559.000000	65.021848  
2558.000000	65.006661  
2557.000000	64.990806  
2556.000000	64.975571  
2555.000000	64.961791  
2554.000000	64.950633  
2553.000000	64.943432  
2552.000000	64.941906  
2551.000000	64.947748  
2550.000000	64.962005  
2549.000000	64.984631  
2548.000000	65.014004  
2547.000000	65.047168  
2546.000000	65.080213  
2545.000000	65.109300  
2544.000000	65.131473  
2543.000000	65.145397  
2542.000000	65.151453  
2541.000000	65.151405  
2540.000000	65.147972  
2539.000000	65.143585  
2538.000000	65.139913  
2537.000000	65.137267  
2536.000000	65.134787  
2535.000000	65.130686  
2534.000000	65.122818  
2533.000000	65.109491  
2532.000000	65.090274  
2531.000000	65.066099  
2530.000000	65.039062  
2529.000000	65.012216  
2528.000000	64.988970  
2527.000000	64.972567  
2526.000000	64.965605  
2525.000000	64.969611  
2524.000000	64.984750  
2523.000000	65.009689  
2522.000000	65.041494  
2521.000000	65.076017  
2520.000000	65.108394  
2519.000000	65.133690  
2518.000000	65.147852  
2517.000000	65.148162  
2516.000000	65.134048  
2515.000000	65.107107  
2514.000000	65.071177  
2513.000000	65.031313  
2512.000000	64.993429  
2511.000000	64.963150  
2510.000000	64.945101  
2509.000000	64.942383  
2508.000000	64.955997  
2507.000000	64.985013  
2506.000000	65.026617  
2505.000000	65.076613  
2504.000000	65.129494  
2503.000000	65.179324  
2502.000000	65.220165  
2501.000000	65.246939  
2500.000000	65.256571  
2499.000000	65.248537  
2498.000000	65.225267  
2497.000000	65.191888  
2496.000000	65.155243  
2495.000000	65.122652  
2494.000000	65.100479  
2493.000000	65.092802  
2492.000000	65.100598  
2491.000000	65.121746  
2490.000000	65.151500  
2489.000000	65.184020  
2488.000000	65.213799  
2487.000000	65.236997  
2486.000000	65.252041  
2485.000000	65.259742  
2484.000000	65.262675  
2483.000000	65.264177  
2482.000000	65.267252  
2481.000000	65.273499  
2480.000000	65.282821  
2479.000000	65.293288  
2478.000000	65.302395  
2477.000000	65.307021  
2476.000000	65.304780  
2475.000000	65.294194  
2474.000000	65.275359  
2473.000000	65.249824  
2472.000000	65.220475  
2471.000000	65.190815  
2470.000000	65.164399  
2469.000000	65.144348  
2468.000000	65.132832  
2467.000000	65.130782  
2466.000000	65.137672  
2465.000000	65.151619  
2464.000000	65.169906  
2463.000000	65.189146  
2462.000000	65.206289  
2461.000000	65.218830  
2460.000000	65.225553  
2459.000000	65.226316  
2458.000000	65.222072  
2457.000000	65.214443  
2456.000000	65.205287  
2455.000000	65.196156  
2454.000000	65.187931  
2453.000000	65.180945  
2452.000000	65.175080  
2451.000000	65.170288  
2450.000000	65.166425  
2449.000000	65.163540  
2448.000000	65.161800  
2447.000000	65.161633  
2446.000000	65.163326  
2445.000000	65.166926  
2444.000000	65.171861  
2443.000000	65.177321  
2442.000000	65.182304  
2441.000000	65.185880  
2440.000000	65.187311  
2439.000000	65.186214  
2438.000000	65.182232  
2437.000000	65.175032  
2436.000000	65.164208  
2435.000000	65.149426  
2434.000000	65.130352  
2433.000000	65.107250  
2432.000000	65.080571  
2431.000000	65.051817  
2430.000000	65.023016  
2429.000000	64.997100  
2428.000000	64.976787  
2427.000000	64.965486  
2426.000000	64.966201  
2425.000000	64.981698  
2424.000000	65.013504  
2423.000000	65.061497  
2422.000000	65.123677  
2421.000000	65.195822  
2420.000000	65.271830  
2419.000000	65.344190  
2418.000000	65.405273  
2417.000000	65.448260  
2416.000000	65.468621  
2415.000000	65.464973  
2414.000000	65.439271  
2413.000000	65.396857  
2412.000000	65.345358  
2411.000000	65.293192  
2410.000000	65.247774  
2409.000000	65.214610  
2408.000000	65.196108  
2407.000000	65.191841  
2406.000000	65.198683  
2405.000000	65.212082  
2404.000000	65.227055  
2403.000000	65.239143  
2402.000000	65.245389  
2401.000000	65.244245  
2400.000000	65.236186  
2399.000000	65.222787  
2398.000000	65.206503  
2397.000000	65.189933  
2396.000000	65.175032  
2395.000000	65.162611  
2394.000000	65.152454  
2393.000000	65.143585  
2392.000000	65.134716  
2391.000000	65.124893  
2390.000000	65.113925  
2389.000000	65.102672  
2388.000000	65.093088  
2387.000000	65.087556  
2386.000000	65.088105  
2385.000000	65.095734  
2384.000000	65.109825  
2383.000000	65.127968  
2382.000000	65.146350  
2381.000000	65.160679  
2380.000000	65.166878  
2379.000000	65.162491  
2378.000000	65.147352  
2377.000000	65.123629  
2376.000000	65.095138  
2375.000000	65.066623  
2374.000000	65.042448  
2373.000000	65.026092  
2372.000000	65.019392  
2371.000000	65.022325  
2370.000000	65.033411  
2369.000000	65.050220  
2368.000000	65.070009  
2367.000000	65.090489  
2366.000000	65.110015  
2365.000000	65.127730  
2364.000000	65.143418  
2363.000000	65.157270  
2362.000000	65.169501  
2361.000000	65.180301  
2360.000000	65.189480  
2359.000000	65.196871  
2358.000000	65.202236  
2357.000000	65.205597  
2356.000000	65.207171  
2355.000000	65.207648  
2354.000000	65.207815  
2353.000000	65.208411  
2352.000000	65.209984  
2351.000000	65.212845  
2350.000000	65.216660  
2349.000000	65.220689  
2348.000000	65.223956  
2347.000000	65.225505  
2346.000000	65.224838  
2345.000000	65.222048  
2344.000000	65.218091  
2343.000000	65.214419  
2342.000000	65.212750  
2341.000000	65.214514  
2340.000000	65.220451  
2339.000000	65.230250  
2338.000000	65.242624  
2337.000000	65.255761  
2336.000000	65.267324  
2335.000000	65.275073  
2334.000000	65.277361  
2333.000000	65.273499  
2332.000000	65.263628  
2331.000000	65.248751  
2330.000000	65.230703  
2329.000000	65.211772  
2328.000000	65.194249  
2327.000000	65.180468  
2326.000000	65.172433  
2325.000000	65.171813  
2324.000000	65.179491  
2323.000000	65.195703  
2322.000000	65.219616  
2321.000000	65.249609  
2320.000000	65.283179  
2319.000000	65.317201  
2318.000000	65.348339  
2317.000000	65.373373  
2316.000000	65.389728  
2315.000000	65.395593  
2314.000000	65.390324  
2313.000000	65.374302  
2312.000000	65.349268  
2311.000000	65.317749  
2310.000000	65.283012  
2309.000000	65.248751  
2308.000000	65.218567  
2307.000000	65.195560  
2306.000000	65.181708  
2305.000000	65.177679  
2304.000000	65.182733  
2303.000000	65.194821  
2302.000000	65.211200  
2301.000000	65.228581  
2300.000000	65.244030  
2299.000000	65.255451  
2298.000000	65.261816  
2297.000000	65.263342  
2296.000000	65.261268  
2295.000000	65.257263  
2294.000000	65.253090  
2293.000000	65.250015  
2292.000000	65.248489  
2291.000000	65.248084  
2290.000000	65.247702  
2289.000000	65.246152  
2288.000000	65.242719  
2287.000000	65.237545  
2286.000000	65.231895  
2285.000000	65.227675  
2284.000000	65.227198  
2283.000000	65.232396  
2282.000000	65.244197  
2281.000000	65.261864  
2280.000000	65.282964  
2279.000000	65.303659  
2278.000000	65.319705  
2277.000000	65.327262  
2276.000000	65.323972  
2275.000000	65.309453  
2274.000000	65.285491  
2273.000000	65.255665  
2272.000000	65.224623  
2271.000000	65.196967  
2270.000000	65.176391  
2269.000000	65.164947  
2268.000000	65.163278  
2267.000000	65.170502  
2266.000000	65.184855  
2265.000000	65.204000  
2264.000000	65.225696  
2263.000000	65.247845  
2262.000000	65.268659  
2261.000000	65.286636  
2260.000000	65.300416  
2259.000000	65.308880  
2258.000000	65.311264  
2257.000000	65.307378  
2256.000000	65.297889  
2255.000000	65.284347  
2254.000000	65.269041  
2253.000000	65.254378  
2252.000000	65.242457  
2251.000000	65.234470  
2250.000000	65.230393  
2249.000000	65.228891  
2248.000000	65.227770  
2247.000000	65.224266  
2246.000000	65.216231  
2245.000000	65.202164  
2244.000000	65.182280  
2243.000000	65.157890  
2242.000000	65.131759  
2241.000000	65.107178  
2240.000000	65.087509  
2239.000000	65.075492  
2238.000000	65.072655  
2237.000000	65.078783  
2236.000000	65.092229  
2235.000000	65.110111  
2234.000000	65.129065  
2233.000000	65.145826  
2232.000000	65.157961  
2231.000000	65.164065  
2230.000000	65.163969  
2229.000000	65.158820  
2228.000000	65.150594  
2227.000000	65.141439  
2226.000000	65.133428  
2225.000000	65.127849  
2224.000000	65.125298  
2223.000000	65.125560  
2222.000000	65.127873  
2221.000000	65.131187  
2220.000000	65.134429  
2219.000000	65.137004  
2218.000000	65.138483  
2217.000000	65.138816  
2216.000000	65.138339  
2215.000000	65.137600  
2214.000000	65.137410  
2213.000000	65.138459  
2212.000000	65.141606  
2211.000000	65.147113  
2210.000000	65.154743  
2209.000000	65.163493  
2208.000000	65.171909  
2207.000000	65.177965  
2206.000000	65.179657  
2205.000000	65.175509  
2204.000000	65.164971  
2203.000000	65.148663  
2202.000000	65.128493  
2201.000000	65.107202  
2200.000000	65.087866  
2199.000000	65.073204  
2198.000000	65.065073  
2197.000000	65.063929  
2196.000000	65.069079  
2195.000000	65.078759  
2194.000000	65.090823  
2193.000000	65.103411  
2192.000000	65.115308  
2191.000000	65.126109  
2190.000000	65.136146  
2189.000000	65.146255  
2188.000000	65.157270  
2187.000000	65.169596  
2186.000000	65.183019  
2185.000000	65.196728  
2184.000000	65.209412  
2183.000000	65.219593  
2182.000000	65.226054  
2181.000000	65.228223  
2180.000000	65.226435  
2179.000000	65.222096  
2178.000000	65.217041  
2177.000000	65.213465  
2176.000000	65.213131  
2175.000000	65.217137  
2174.000000	65.225481  
2173.000000	65.237116  
2172.000000	65.250563  
2171.000000	65.264391  
2170.000000	65.277385  
2169.000000	65.288996  
2168.000000	65.299153  
2167.000000	65.308308  
2166.000000	65.316939  
2165.000000	65.325498  
2164.000000	65.333890  
2163.000000	65.341877  
2162.000000	65.349125  
2161.000000	65.355253  
2160.000000	65.360522  
2159.000000	65.365362  
2158.000000	65.370559  
2157.000000	65.376424  
2156.000000	65.383005  
2155.000000	65.389227  
2154.000000	65.393352  
2153.000000	65.393209  
2152.000000	65.386891  
2151.000000	65.373110  
2150.000000	65.351819  
2149.000000	65.323638  
2148.000000	65.290069  
2147.000000	65.252780  
2146.000000	65.213656  
2145.000000	65.174460  
2144.000000	65.137338  
2143.000000	65.104675  
2142.000000	65.079092  
2141.000000	65.063357  
2140.000000	65.059733  
2139.000000	65.069270  
2138.000000	65.091538  
2137.000000	65.124440  
2136.000000	65.164232  
2135.000000	65.205836  
2134.000000	65.243768  
2133.000000	65.273284  
2132.000000	65.291094  
2131.000000	65.295886  
2130.000000	65.288543  
2129.000000	65.271782  
2128.000000	65.249419  
2127.000000	65.225505  
2126.000000	65.203428  
2125.000000	65.185546  
2124.000000	65.172600  
2123.000000	65.164303  
2122.000000	65.159606  
2121.000000	65.157389  
2120.000000	65.156745  
2119.000000	65.157556  
2118.000000	65.160632  
2117.000000	65.167498  
2116.000000	65.179777  
2115.000000	65.198493  
2114.000000	65.223336  
2113.000000	65.252089  
2112.000000	65.281200  
2111.000000	65.306258  
2110.000000	65.322875  
2109.000000	65.327334  
2108.000000	65.318226  
2107.000000	65.296125  
2106.000000	65.263867  
2105.000000	65.225386  
2104.000000	65.185546  
2103.000000	65.148496  
2102.000000	65.117478  
2101.000000	65.094017  
2100.000000	65.078234  
2099.000000	65.068626  
2098.000000	65.062785  
2097.000000	65.057754  
2096.000000	65.050792  
2095.000000	65.039443  
2094.000000	65.021944  
2093.000000	64.997601  
2092.000000	64.966940  
2091.000000	64.932012  
2090.000000	64.896559  
2089.000000	64.865350  
2088.000000	64.843702  
2087.000000	64.836430  
2086.000000	64.847278  
2085.000000	64.877271  
2084.000000	64.924931  
2083.000000	64.986109  
2082.000000	65.055322  
2081.000000	65.125918  
2080.000000	65.192222  
2079.000000	65.249896  
2078.000000	65.297150  
2077.000000	65.334200  
2076.000000	65.363168  
2075.000000	65.386867  
2074.000000	65.407943  
2073.000000	65.428280  
2072.000000	65.448069  
2071.000000	65.466189  
2070.000000	65.480470  
2069.000000	65.488910  
2068.000000	65.489792  
2067.000000	65.482640  
2066.000000	65.468072  
2065.000000	65.447878  
2064.000000	65.424346  
2063.000000	65.399456  
2062.000000	65.374851  
2061.000000	65.351057  
2060.000000	65.327525  
2059.000000	65.303111  
2058.000000	65.276336  
2057.000000	65.246438  
2056.000000	65.213561  
2055.000000	65.179276  
2054.000000	65.145945  
2053.000000	65.116834  
2052.000000	65.094971  
2051.000000	65.082859  
2050.000000	65.081405  
2049.000000	65.090060  
2048.000000	65.107083  
2047.000000	65.129661  
2046.000000	65.154433  
2045.000000	65.177869  
2044.000000	65.196967  
2043.000000	65.209650  
2042.000000	65.214800  
2041.000000	65.212583  
2040.000000	65.204334  
2039.000000	65.192651  
2038.000000	65.180492  
2037.000000	65.171074  
2036.000000	65.166902  
2035.000000	65.169525  
2034.000000	65.178728  
2033.000000	65.192651  
2032.000000	65.207910  
2031.000000	65.220570  
2030.000000	65.227079  
2029.000000	65.225052  
2028.000000	65.214252  
2027.000000	65.196633  
2026.000000	65.175938  
2025.000000	65.156531  
2024.000000	65.142560  
2023.000000	65.136885  
2022.000000	65.140557  
2021.000000	65.152502  
2020.000000	65.170264  
2019.000000	65.190815  
2018.000000	65.211081  
2017.000000	65.228652  
2016.000000	65.242028  
2015.000000	65.250635  
2014.000000	65.254616  
2013.000000	65.254235  
2012.000000	65.249943  
2011.000000	65.242099  
2010.000000	65.231108  
2009.000000	65.217685  
2008.000000	65.203094  
2007.000000	65.188956  
2006.000000	65.177035  
2005.000000	65.168809  
2004.000000	65.165042  
2003.000000	65.165567  
2002.000000	65.169191  
2001.000000	65.173888  
2000.000000	65.177512  
1999.000000	65.178346  
1998.000000	65.175271  
1997.000000	65.168523  
1996.000000	65.159177  
1995.000000	65.149188  
1994.000000	65.140748  
1993.000000	65.135812  
1992.000000	65.135717  
1991.000000	65.140819  
1990.000000	65.150642  
1989.000000	65.164089  
1988.000000	65.179610  
1987.000000	65.195822  
1986.000000	65.211653  
1985.000000	65.226459  
1984.000000	65.239882  
1983.000000	65.251827  
1982.000000	65.262389  
1981.000000	65.271568  
1980.000000	65.279293  
1979.000000	65.285611  
1978.000000	65.290713  
1977.000000	65.295100  
1976.000000	65.299463  
1975.000000	65.304541  
1974.000000	65.310835  
1973.000000	65.318512  
1972.000000	65.327286  
1971.000000	65.336394  
1970.000000	65.344715  
1969.000000	65.351104  
1968.000000	65.354490  
1967.000000	65.354371  
1966.000000	65.350604  
1965.000000	65.343737  
1964.000000	65.334796  
1963.000000	65.324950  
1962.000000	65.315461  
1961.000000	65.307235  
1960.000000	65.300655  
1959.000000	65.295529  
1958.000000	65.291047  
1957.000000	65.286135  
1956.000000	65.279674  
1955.000000	65.271139  
1954.000000	65.260362  
1953.000000	65.247964  
1952.000000	65.235114  
1951.000000	65.223264  
1950.000000	65.213894  
1949.000000	65.208101  
1948.000000	65.206432  
1947.000000	65.208745  
1946.000000	65.214180  
1945.000000	65.221357  
1944.000000	65.228891  
1943.000000	65.235590  
1942.000000	65.240526  
1941.000000	65.243363  
1940.000000	65.244245  
1939.000000	65.243911  
1938.000000	65.243268  
1937.000000	65.243387  
1936.000000	65.245151  
1935.000000	65.249061  
1934.000000	65.255284  
1933.000000	65.263247  
1932.000000	65.271878  
1931.000000	65.279698  
1930.000000	65.285062  
1929.000000	65.286588  
1928.000000	65.283513  
1927.000000	65.275883  
1926.000000	65.264511  
1925.000000	65.251088  
1924.000000	65.237450  
1923.000000	65.225505  
1922.000000	65.216350  
1921.000000	65.210294  
1920.000000	65.206646  
1919.000000	65.203833  
1918.000000	65.199851  
1917.000000	65.192818  
1916.000000	65.181541  
1915.000000	65.165877  
1914.000000	65.146899  
1913.000000	65.126657  
1912.000000	65.107941  
1911.000000	65.093374  
1910.000000	65.085053  
1909.000000	65.083837  
1908.000000	65.089368  
1907.000000	65.100049  
1906.000000	65.113377  
1905.000000	65.126729  
1904.000000	65.137743  
1903.000000	65.144705  
1902.000000	65.147089  
1901.000000	65.145230  
1900.000000	65.140128  
1899.000000	65.133237  
1898.000000	65.125918  
1897.000000	65.119171  
1896.000000	65.113711  
1895.000000	65.109753  
1894.000000	65.107107  
1893.000000	65.105295  
1892.000000	65.103936  
1891.000000	65.102791  
1890.000000	65.101599  
1889.000000	65.100264  
1888.000000	65.098690  
1887.000000	65.097045  
1886.000000	65.095353  
1885.000000	65.093803  
1884.000000	65.092563  
1883.000000	65.091896  
1882.000000	65.091943  
1881.000000	65.092825  
1880.000000	65.094566  
1879.000000	65.096998  
1878.000000	65.099763  
1877.000000	65.102434  
1876.000000	65.104651  
1875.000000	65.106248  
1874.000000	65.107274  
1873.000000	65.108156  
1872.000000	65.109729  
1871.000000	65.113019  
1870.000000	65.119075  
1869.000000	65.128779  
1868.000000	65.142512  
1867.000000	65.159821  
1866.000000	65.179753  
1865.000000	65.200567  
1864.000000	65.220355  
1863.000000	65.237331  
1862.000000	65.250039  
1861.000000	65.257811  
1860.000000	65.260672  
1859.000000	65.259408  
1858.000000	65.255165  
1857.000000	65.249180  
1856.000000	65.242528  
1855.000000	65.235924  
1854.000000	65.229606  
1853.000000	65.223598  
1852.000000	65.217995  
1851.000000	65.213108  
1850.000000	65.209531  
1849.000000	65.208101  
1848.000000	65.209603  
1847.000000	65.214705  
1846.000000	65.223336  
1845.000000	65.234756  
1844.000000	65.247750  
1843.000000	65.260744  
1842.000000	65.272307  
1841.000000	65.281343  
1840.000000	65.287208  
1839.000000	65.289926  
1838.000000	65.290021  
1837.000000	65.288186  
1836.000000	65.285301  
1835.000000	65.281772  
1834.000000	65.277814  
1833.000000	65.273261  
1832.000000	65.267777  
1831.000000	65.261125  
1830.000000	65.253233  
1829.000000	65.244221  
1828.000000	65.234684  
1827.000000	65.225243  
1826.000000	65.216612  
1825.000000	65.209197  
1824.000000	65.203118  
1823.000000	65.197944  
1822.000000	65.192961  
1821.000000	65.187144  
1820.000000	65.179681  
1819.000000	65.169930  
1818.000000	65.158104  
1817.000000	65.145063  
1816.000000	65.132737  
1815.000000	65.123319  
1814.000000	65.119504  
1813.000000	65.123629  
1812.000000	65.137052  
1811.000000	65.159940  
1810.000000	65.190839  
1809.000000	65.227031  
1808.000000	65.264725  
1807.000000	65.299844  
1806.000000	65.328454  
1805.000000	65.347743  
1804.000000	65.356230  
1803.000000	65.354204  
1802.000000	65.343284  
1801.000000	65.326189  
1800.000000	65.305972  
1799.000000	65.285682  
1798.000000	65.267634  
1797.000000	65.253114  
1796.000000	65.242362  
1795.000000	65.234971  
1794.000000	65.230131  
1793.000000	65.227007  
1792.000000	65.224957  
1791.000000	65.223693  
1790.000000	65.223240  
1789.000000	65.223670  
1788.000000	65.224766  
1787.000000	65.226054  
1786.000000	65.226650  
1785.000000	65.225386  
1784.000000	65.221214  
1783.000000	65.213418  
1782.000000	65.201902  
1781.000000	65.187358  
1780.000000	65.171051  
1779.000000	65.154957  
1778.000000	65.141344  
1777.000000	65.132403  
1776.000000	65.129613  
1775.000000	65.133833  
1774.000000	65.145015  
1773.000000	65.162086  
1772.000000	65.183115  
1771.000000	65.205454  
1770.000000	65.226149  
1769.000000	65.242266  
1768.000000	65.251517  
1767.000000	65.252423  
1766.000000	65.244650  
1765.000000	65.229272  
1764.000000	65.208387  
1763.000000	65.184950  
1762.000000	65.162253  
1761.000000	65.143299  
1760.000000	65.130281  
1759.000000	65.124297  
1758.000000	65.125274  
1757.000000	65.132021  
1756.000000	65.142393  
1755.000000	65.153837  
1754.000000	65.163922  
1753.000000	65.170478  
1752.000000	65.172195  
1751.000000	65.168404  
1750.000000	65.159702  
1749.000000	65.147209  
1748.000000	65.132641  
1747.000000	65.117597  
1746.000000	65.103602  
1745.000000	65.092015  
1744.000000	65.083432  
1743.000000	65.077662  
1742.000000	65.073919  
1741.000000	65.070962  
1740.000000	65.067267  
1739.000000	65.061044  
1738.000000	65.050840  
1737.000000	65.035581  
1736.000000	65.014958  
1735.000000	64.989495  
1734.000000	64.960408  
1733.000000	64.929652  
1732.000000	64.899492  
1731.000000	64.872312  
1730.000000	64.850115  
1729.000000	64.834189  
1728.000000	64.824843  
1727.000000	64.821839  
1726.000000	64.824151  
1725.000000	64.830970  
1724.000000	64.841437  
1723.000000	64.855480  
1722.000000	64.873528  
1721.000000	64.896535  
1720.000000	64.925241  
1719.000000	64.960145  
1718.000000	65.000963  
1717.000000	65.046644  
1716.000000	65.095281  
1715.000000	65.144681  
1714.000000	65.192508  
1713.000000	65.236568  
1712.000000	65.274643  
1711.000000	65.305066  
1710.000000	65.326356  
1709.000000	65.337324  
1708.000000	65.336871  
1707.000000	65.324783  
1706.000000	65.301704  
1705.000000	65.269446  
1704.000000	65.230798  
1703.000000	65.190029  
1702.000000	65.151786  
1701.000000	65.120506  
1700.000000	65.099692  
1699.000000	65.091204  
1698.000000	65.095186  
1697.000000	65.109944  
1696.000000	65.132427  
1695.000000	65.158748  
1694.000000	65.184950  
1693.000000	65.207648  
1692.000000	65.224432  
1691.000000	65.233874  
1690.000000	65.235805  
1689.000000	65.231084  
1688.000000	65.221333  
1687.000000	65.208292  
1686.000000	65.193819  
1685.000000	65.179681  
1684.000000	65.167069  
1683.000000	65.156555  
1682.000000	65.148353  
1681.000000	65.142583  
1680.000000	65.139079  
1679.000000	65.137958  
1678.000000	65.139818  
1677.000000	65.145516  
1676.000000	65.156078  
1675.000000	65.172052  
1674.000000	65.192937  
1673.000000	65.217089  
1672.000000	65.241909  
1671.000000	65.264201  
1670.000000	65.280771  
1669.000000	65.289354  
1668.000000	65.289354  
1667.000000	65.281677  
1666.000000	65.268659  
1665.000000	65.253090  
1664.000000	65.237569  
1663.000000	65.223670  
1662.000000	65.211653  
1661.000000	65.200304  
1660.000000	65.187573  
1659.000000	65.171337  
1658.000000	65.150523  
1657.000000	65.125203  
1656.000000	65.097093  
1655.000000	65.068840  
1654.000000	65.043735  
1653.000000	65.024471  
1652.000000	65.012979  
1651.000000	65.010023  
1650.000000	65.015292  
1649.000000	65.027499  
1648.000000	65.045022  
1647.000000	65.066027  
1646.000000	65.088844  
1645.000000	65.111780  
1644.000000	65.133357  
1643.000000	65.152359  
1642.000000	65.167665  
1641.000000	65.178442  
1640.000000	65.184235  
1639.000000	65.185189  
1638.000000	65.181732  
1637.000000	65.174770  
1636.000000	65.165066  
1635.000000	65.153455  
1634.000000	65.140342  
1633.000000	65.126037  
1632.000000	65.110874  
1631.000000	65.095448  
1630.000000	65.080928  
1629.000000	65.068817  
1628.000000	65.060830  
1627.000000	65.058422  
1626.000000	65.062165  
1625.000000	65.071702  
1624.000000	65.085506  
1623.000000	65.101146  
1622.000000	65.115785  
1621.000000	65.126848  
1620.000000	65.132284  
1619.000000	65.131020  
1618.000000	65.123057  
1617.000000	65.109348  
1616.000000	65.091371  
1615.000000	65.071010  
1614.000000	65.049815  
1613.000000	65.029335  
1612.000000	65.010952  
1611.000000	64.995598  
1610.000000	64.984083  
1609.000000	64.976716  
1608.000000	64.973330  
1607.000000	64.972972  
1606.000000	64.973974  
1605.000000	64.974594  
1604.000000	64.973187  
1603.000000	64.968657  
1602.000000	64.960765  
1601.000000	64.950132  
1600.000000	64.938449  
1599.000000	64.927697  
1598.000000	64.919900  
1597.000000	64.916467  
1596.000000	64.918208  
1595.000000	64.924788  
1594.000000	64.935302  
1593.000000	64.948177  
1592.000000	64.962100  
1591.000000	64.975833  
1590.000000	64.988803  
1589.000000	65.000867  
1588.000000	65.012383  
1587.000000	65.023803  
1586.000000	65.035557  
1585.000000	65.047526  
1584.000000	65.059137  
1583.000000	65.069413  
1582.000000	65.076756  
1581.000000	65.079259  
1580.000000	65.075063  
1579.000000	65.062880  
1578.000000	65.042400  
1577.000000	65.014481  
1576.000000	64.981412  
1575.000000	64.946627  
1574.000000	64.914155  
1573.000000	64.887690  
1572.000000	64.870095  
1571.000000	64.862537  
1570.000000	64.864253  
1569.000000	64.872813  
1568.000000	64.884305  
1567.000000	64.894819  
1566.000000	64.900851  
1565.000000	64.900708  
1564.000000	64.894080  
1563.000000	64.882850  
1562.000000	64.869832  
1561.000000	64.858555  
1560.000000	64.851737  
1559.000000	64.851140  
1558.000000	64.857172  
1557.000000	64.869141  
1556.000000	64.885425  
1555.000000	64.904332  
1554.000000	64.924335  
1553.000000	64.944648  
1552.000000	64.965105  
1551.000000	64.985871  
1550.000000	65.007138  
1549.000000	65.028834  
1548.000000	65.050148  
1547.000000	65.069746  
1546.000000	65.085649  
1545.000000	65.096044  
1544.000000	65.099453  
1543.000000	65.095376  
1542.000000	65.084338  
1541.000000	65.068173  
1540.000000	65.049099  
1539.000000	65.029764  
1538.000000	65.012288  
1537.000000	64.998149  
1536.000000	64.987897  
1535.000000	64.981365  
1534.000000	64.977717  
1533.000000	64.975976  
1532.000000	64.975261  
1531.000000	64.975047  
1530.000000	64.975404  
1529.000000	64.976692  
1528.000000	64.979815  
1527.000000	64.985609  
1526.000000	64.994955  
1525.000000	65.008330  
1524.000000	65.025615  
1523.000000	65.046024  
1522.000000	65.067934  
1521.000000	65.089011  
1520.000000	65.106654  
1519.000000	65.118455  
1518.000000	65.122461  
1517.000000	65.117907  
1516.000000	65.105414  
1515.000000	65.087056  
1514.000000	65.066075  
1513.000000	65.046191  
1512.000000	65.031075  
1511.000000	65.023255  
1510.000000	65.023946  
1509.000000	65.032458  
1508.000000	65.046644  
1507.000000	65.063405  
1506.000000	65.079522  
1505.000000	65.092635  
1504.000000	65.101623  
1503.000000	65.106844  
1502.000000	65.109753  
1501.000000	65.112328  
1500.000000	65.116357  
1499.000000	65.122437  
1498.000000	65.129899  
1497.000000	65.136671  
1496.000000	65.140056  
1495.000000	65.137529  
1494.000000	65.127754  
1493.000000	65.110826  
1492.000000	65.088701  
1491.000000	65.064835  
1490.000000	65.043234  
1489.000000	65.027523  
1488.000000	65.020155  
1487.000000	65.021562  
1486.000000	65.030527  
1485.000000	65.044450  
1484.000000	65.060353  
1483.000000	65.075397  
1482.000000	65.087580  
1481.000000	65.095877  
1480.000000	65.100288  
1479.000000	65.101385  
1478.000000	65.099740  
1477.000000	65.095376  
1476.000000	65.087938  
1475.000000	65.076899  
1474.000000	65.061998  
1473.000000	65.043616  
1472.000000	65.023159  
1471.000000	65.003132  
1470.000000	64.986848  
1469.000000	64.977908  
1468.000000	64.979267  
1467.000000	64.992403  
1466.000000	65.016865  
1465.000000	65.050148  
1464.000000	65.087747  
1463.000000	65.123820  
1462.000000	65.152263  
1461.000000	65.167546  
1460.000000	65.165519  
1459.000000	65.144538  
1458.000000	65.105152  
1457.000000	65.050983  
1456.000000	64.987659  
1455.000000	64.923000  
1454.000000	64.865875  
1453.000000	64.824962  
1452.000000	64.807510  
1451.000000	64.817500  
1450.000000	64.855122  
1449.000000	64.916110  
1448.000000	64.992260  
1447.000000	65.073108  
1446.000000	65.147638  
1445.000000	65.206456  
1444.000000	65.243387  
1443.000000	65.256142  
1442.000000	65.246081  
1441.000000	65.217924  
1440.000000	65.178060  
1439.000000	65.133237  
1438.000000	65.088939  
1437.000000	65.049457  
1436.000000	65.016865  
1435.000000	64.991784  
1434.000000	64.972972  
1433.000000	64.958834  
1432.000000	64.947438  
1431.000000	64.937019  
1430.000000	64.926576  
1429.000000	64.915251  
1428.000000	64.903140  
1427.000000	64.890480  
1426.000000	64.878129  
1425.000000	64.866995  
1424.000000	64.858102  
1423.000000	64.852142  
1422.000000	64.849519  
1421.000000	64.850068  
1420.000000	64.853310  
1419.000000	64.858770  
1418.000000	64.866089  
1417.000000	64.875102  
1416.000000	64.886593  
1415.000000	64.901947  
1414.000000	64.922666  
1413.000000	64.949774  
1412.000000	64.983630  
1411.000000	65.023207  
1410.000000	65.066146  
1409.000000	65.108871  
1408.000000	65.147328  
1407.000000	65.177845  
1406.000000	65.198254  
1405.000000	65.207982  
1404.000000	65.208196  
1403.000000	65.201139  
1402.000000	65.190243  
1401.000000	65.178394  
1400.000000	65.167760  
1399.000000	65.158820  
1398.000000	65.150928  
1397.000000	65.142226  
1396.000000	65.130615  
1395.000000	65.114140  
1394.000000	65.092110  
1393.000000	65.064930  
1392.000000	65.034317  
1391.000000	65.002799  
1390.000000	64.973235  
1389.000000	64.948201  
1388.000000	64.929389  
1387.000000	64.917135  
1386.000000	64.910554  
1385.000000	64.907431  
1384.000000	64.904952  
1383.000000	64.900064  
1382.000000	64.890670  
1381.000000	64.875912  
1380.000000	64.856863  
1379.000000	64.835929  
1378.000000	64.816689  
1377.000000	64.802718  
1376.000000	64.796972  
1375.000000	64.800524  
1374.000000	64.812660  
1373.000000	64.830899  
1372.000000	64.851689  
1371.000000	64.871025  
1370.000000	64.885854  
1369.000000	64.894461  
1368.000000	64.897012  
1367.000000	64.895224  
1366.000000	64.891910  
1365.000000	64.890193  
1364.000000	64.892721  
1363.000000	64.900898  
1362.000000	64.914679  
1361.000000	64.932537  
1360.000000	64.952230  
1359.000000	64.971184  
1358.000000	64.987206  
1357.000000	64.998745  
1356.000000	65.005445  
1355.000000	65.007948  
1354.000000	65.007328  
1353.000000	65.005016  
1352.000000	65.002274  
1351.000000	65.000057  
1350.000000	64.998960  
1349.000000	64.998936  
1348.000000	64.999818  
1347.000000	65.000700  
1346.000000	65.000653  
1345.000000	64.998459  
1344.000000	64.992785  
1343.000000	64.982485  
1342.000000	64.966797  
1341.000000	64.945578  
1340.000000	64.919519  
1339.000000	64.890336  
1338.000000	64.860534  
1337.000000	64.833068  
1336.000000	64.810705  
1335.000000	64.795494  
1334.000000	64.788508  
1333.000000	64.789581  
1332.000000	64.797806  
1331.000000	64.811849  
1330.000000	64.830541  
1329.000000	64.853167  
1328.000000	64.879298  
1327.000000	64.908504  
1326.000000	64.939808  
1325.000000	64.971232  
1324.000000	65.000009  
1323.000000	65.022587  
1322.000000	65.035605  
1321.000000	65.036606  
1320.000000	65.024614  
1319.000000	65.000939  
1318.000000	64.968657  
1317.000000	64.932227  
1316.000000	64.896392  
1315.000000	64.865398  
1314.000000	64.842033  
1313.000000	64.827394  
1312.000000	64.821147  
1311.000000	64.821934  
1310.000000	64.828157  
1309.000000	64.838480  
1308.000000	64.851927  
1307.000000	64.867949  
1306.000000	64.885926  
1305.000000	64.905214  
1304.000000	64.924812  
1303.000000	64.943575  
1302.000000	64.960432  
1301.000000	64.974403  
1300.000000	64.985275  
1299.000000	64.993166  
1298.000000	64.998626  
1297.000000	65.001964  
1296.000000	65.003228  
1295.000000	65.001845  
1294.000000	64.996719  
1293.000000	64.986634  
1292.000000	64.970779  
1291.000000	64.949059  
1290.000000	64.922595  
1289.000000	64.893507  
1288.000000	64.864826  
1287.000000	64.839601  
1286.000000	64.820504  
1285.000000	64.809179  
1284.000000	64.805865  
1283.000000	64.809656  
1282.000000	64.818668  
1281.000000	64.830470  
1280.000000	64.842534  
1279.000000	64.852619  
1278.000000	64.859080  
1277.000000	64.860701  
1276.000000	64.857268  
1275.000000	64.848852  
1274.000000	64.836311  
1273.000000	64.821171  
1272.000000	64.805340  
1271.000000	64.791202  
1270.000000	64.781045  
1269.000000	64.776945  
1268.000000	64.780116  
1267.000000	64.790725  
1266.000000	64.807868  
1265.000000	64.829540  
1264.000000	64.853239  
1263.000000	64.876270  
1262.000000	64.896583  
1261.000000	64.912915  
1260.000000	64.924907  
1259.000000	64.933085  
1258.000000	64.938139  
1257.000000	64.940667  
1256.000000	64.940929  
1255.000000	64.938926  
1254.000000	64.934587  
1253.000000	64.928007  
1252.000000	64.920067  
1251.000000	64.912343  
1250.000000	64.906811  
1249.000000	64.905428  
1248.000000	64.909291  
1247.000000	64.918279  
1246.000000	64.930844  
1245.000000	64.944481  
1244.000000	64.955949  
1243.000000	64.962339  
1242.000000	64.961838  
1241.000000	64.954042  
1240.000000	64.940071  
1239.000000	64.922070  
1238.000000	64.902591  
1237.000000	64.883852  
1236.000000	64.867019  
1235.000000	64.852595  
1234.000000	64.840483  
1233.000000	64.830493  
1232.000000	64.822673  
1231.000000	64.817476  
1230.000000	64.815783  
1229.000000	64.818358  
1228.000000	64.825463  
1227.000000	64.836406  
1226.000000	64.849543  
1225.000000	64.862608  
1224.000000	64.873194  
1223.000000	64.879441  
1222.000000	64.880561  
1221.000000	64.877223  
1220.000000	64.871096  
1219.000000	64.864420  
1218.000000	64.859294  
1217.000000	64.857077  
1216.000000	64.857864  
1215.000000	64.861083  
1214.000000	64.865016  
1213.000000	64.868140  
1212.000000	64.868736  
1211.000000	64.865779  
1210.000000	64.858603  
1209.000000	64.847135  
1208.000000	64.831876  
1207.000000	64.813709  
1206.000000	64.794087  
1205.000000	64.774727  
1204.000000	64.757776  
1203.000000	64.745378  
1202.000000	64.739489  
1201.000000	64.741587  
1200.000000	64.752101  
1199.000000	64.770436  
1198.000000	64.794731  
1197.000000	64.822125  
1196.000000	64.849638  
1195.000000	64.874291  
1194.000000	64.893770  
1193.000000	64.906549  
1192.000000	64.912128  
1191.000000	64.910864  
1190.000000	64.903712  
1189.000000	64.892101  
1188.000000	64.877843  
1187.000000	64.862918  
1186.000000	64.849638  
1185.000000	64.839935  
1184.000000	64.835333  
1183.000000	64.836478  
1182.000000	64.842987  
1181.000000	64.853572  
1180.000000	64.866399  
1179.000000	64.879465  
1178.000000	64.891099  
1177.000000	64.900588  
1176.000000	64.908218  
1175.000000	64.915084  
1174.000000	64.922547  
1173.000000	64.931488  
1172.000000	64.941811  
1171.000000	64.952111  
1170.000000	64.959788  
1169.000000	64.961838  
1168.000000	64.955639  
1167.000000	64.940094  
1166.000000	64.916157  
1165.000000	64.886856  
1164.000000	64.856600  
1163.000000	64.830064  
1162.000000	64.811182  
1161.000000	64.802169  
1160.000000	64.802837  
1159.000000	64.810633  
1158.000000	64.821648  
1157.000000	64.831614  
1156.000000	64.837217  
1155.000000	64.836812  
1154.000000	64.830660  
1153.000000	64.820456  
1152.000000	64.808654  
1151.000000	64.797377  
1150.000000	64.787578  
1149.000000	64.778614  
1148.000000	64.768600  
1147.000000	64.755296  
1146.000000	64.737057  
1145.000000	64.714074  
1144.000000	64.688372  
1143.000000	64.663863  
1142.000000	64.645481  
1141.000000	64.637851  
1140.000000	64.643859  
1139.000000	64.663624  
1138.000000	64.694142  
1137.000000	64.729547  
1136.000000	64.762568  
1135.000000	64.785981  
1134.000000	64.794182  
1133.000000	64.784502  
1132.000000	64.757680  
1131.000000	64.717960  
1130.000000	64.671707  
1129.000000	64.626646  
1128.000000	64.590024  
1127.000000	64.567494  
1126.000000	64.562249  
1125.000000	64.574575  
1124.000000	64.602208  
1123.000000	64.640903  
1122.000000	64.685368  
1121.000000	64.729714  
1120.000000	64.768505  
1119.000000	64.797019  
1118.000000	64.812254  
1117.000000	64.812946  
1116.000000	64.799833  
1115.000000	64.775919  
1114.000000	64.745569  
1113.000000	64.714431  
1112.000000	64.687728  
1111.000000	64.669489  
1110.000000	64.661216  
1109.000000	64.662218  
1108.000000	64.669013  
1107.000000	64.676594  
1106.000000	64.679980  
1105.000000	64.675378  
1104.000000	64.661669  
1103.000000	64.640593  
1102.000000	64.616441  
1101.000000	64.594960  
1100.000000	64.581084  
1099.000000	64.577293  
1098.000000	64.582633  
1097.000000	64.592981  
1096.000000	64.601731  
1095.000000	64.601826  
1094.000000	64.587616  
1093.000000	64.556765  
1092.000000	64.510655  
1091.000000	64.454340  
1090.000000	64.394879  
1089.000000	64.339756  
1088.000000	64.295244  
1087.000000	64.265275  
1086.000000	64.250802  
1085.000000	64.250469  
1084.000000	64.261174  
1083.000000	64.279627  
1082.000000	64.303064  
1081.000000	64.330101  
1080.000000	64.359855  
1079.000000	64.392614  
1078.000000	64.428305  
1077.000000	64.466929  
1076.000000	64.507699  
1075.000000	64.549374  
1074.000000	64.590477  
1073.000000	64.629197  
1072.000000	64.664101  
1071.000000	64.693498  
1070.000000	64.715814  
1069.000000	64.729380  
1068.000000	64.732551  
1067.000000	64.723944  
1066.000000	64.703011  
1065.000000	64.670372  
1064.000000	64.628028  
1063.000000	64.579510  
1062.000000	64.529657  
1061.000000	64.483857  
1060.000000	64.447498  
1059.000000	64.424991  
1058.000000	64.419436  
1057.000000	64.431810  
1056.000000	64.461517  
1055.000000	64.506483  
1054.000000	64.563441  
1053.000000	64.628028  
1052.000000	64.695096  
1051.000000	64.759159  
1050.000000	64.814639  
1049.000000	64.856648  
1048.000000	64.881014  
1047.000000	64.885044  
1046.000000	64.867711  
1045.000000	64.830446  
1044.000000	64.776635  
1043.000000	64.711403  
1042.000000	64.640998  
1041.000000	64.572381  
1040.000000	64.511585  
1039.000000	64.463090  
1038.000000	64.429211  
1037.000000	64.410066  
1036.000000	64.403653  
1035.000000	64.407277  
1034.000000	64.417695  
1033.000000	64.433026  
1032.000000	64.452505  
1031.000000	64.477419  
1030.000000	64.510297  
1029.000000	64.553880  
1028.000000	64.610123  
1027.000000	64.678168  
1026.000000	64.754247  
1025.000000	64.831066  
1024.000000	64.899659  
1023.000000	64.950037  
1022.000000	64.974355  
1021.000000	64.967584  
1020.000000	64.929509  
1019.000000	64.863944  
1018.000000	64.778542  
1017.000000	64.682579  
1016.000000	64.585423  
1015.000000	64.495205  
1014.000000	64.417958  
1013.000000	64.357614  
1012.000000	64.316296  
1011.000000	64.295077  
1010.000000	64.294219  
1009.000000	64.313173  
1008.000000	64.350390  
1007.000000	64.402031  
1006.000000	64.462399  
1005.000000	64.523196  
1004.000000	64.576077  
1003.000000	64.613533  
1002.000000	64.631533  
1001.000000	64.630222  
1000.000000	64.614152  
999.000000	 64.591288  
998.000000	 64.570808  
997.000000	 64.560985  
996.000000	 64.566731  
995.000000	 64.588999  
994.000000	 64.624023  
993.000000	 64.665269  
992.000000	 64.704346  
991.000000	 64.733958  
990.000000	 64.748787  
989.000000	 64.746785  
988.000000	 64.728975  
987.000000	 64.698672  
986.000000	 64.660429  
985.000000	 64.618802  
984.000000	 64.577627  
983.000000	 64.539194  
982.000000	 64.504957  
981.000000	 64.475440  
980.000000	 64.450335  
979.000000	 64.429163  
978.000000	 64.410829  
977.000000	 64.394640  
976.000000	 64.380025  
975.000000	 64.367389  
974.000000	 64.357399  
973.000000	 64.351487  
972.000000	 64.351034  
971.000000	 64.357614  
970.000000	 64.371633  
969.000000	 64.392757  
968.000000	 64.419674  
967.000000	 64.450144  
966.000000	 64.481163  
965.000000	 64.509439  
964.000000	 64.531874  
963.000000	 64.546060  
962.000000	 64.550471  
961.000000	 64.544796  
960.000000	 64.529919  
959.000000	 64.507722  
958.000000	 64.480805  
957.000000	 64.451742  
956.000000	 64.422726  
955.000000	 64.395713  
954.000000	 64.372158  
953.000000	 64.352393  
952.000000	 64.336419  
951.000000	 64.324188  
950.000000	 64.316201  
949.000000	 64.313459  
948.000000	 64.317464  
947.000000	 64.329719  
946.000000	 64.350891  
945.000000	 64.379954  
944.000000	 64.413809  
943.000000	 64.447188  
942.000000	 64.473605  
941.000000	 64.486670  
940.000000	 64.481568  
939.000000	 64.456319  
938.000000	 64.412641  
937.000000	 64.356136  
936.000000	 64.294862  
935.000000	 64.237570  
934.000000	 64.192652  
933.000000	 64.166355  
932.000000	 64.162015  
931.000000	 64.179396  
930.000000	 64.216494  
929.000000	 64.270114  
928.000000	 64.337015  
927.000000	 64.414215  
926.000000	 64.498686  
925.000000	 64.587140  
924.000000	 64.675521  
923.000000	 64.759016  
922.000000	 64.832186  
921.000000	 64.889788  
920.000000	 64.928507  
919.000000	 64.946699  
918.000000	 64.945578  
917.000000	 64.928030  
916.000000	 64.898896  
915.000000	 64.862823  
914.000000	 64.824700  
913.000000	 64.786911  
912.000000	 64.750504  
911.000000	 64.713668  
910.000000	 64.673447  
909.000000	 64.625740  
908.000000	 64.567279  
907.000000	 64.496111  
906.000000	 64.412713  
905.000000	 64.320158  
904.000000	 64.224219  
903.000000	 64.132356  
902.000000	 64.052915  
901.000000	 63.993668  
900.000000	 63.960862  
899.000000	 63.957977  
898.000000	 63.985514  
897.000000	 64.040422  
896.000000	 64.117026  
895.000000	 64.208126  
894.000000	 64.305686  
893.000000	 64.401292  
892.000000	 64.486575  
891.000000	 64.553833  
890.000000	 64.596629  
889.000000	 64.609718  
888.000000	 64.590859  
887.000000	 64.541339  
886.000000	 64.466691  
885.000000	 64.376592  
884.000000	 64.283180  
883.000000	 64.199662  
882.000000	 64.137506  
881.000000	 64.104819  
880.000000	 64.104366  
879.000000	 64.133691  
878.000000	 64.185810  
877.000000	 64.251160  
876.000000	 64.320015  
875.000000	 64.384508  
874.000000	 64.439845  
873.000000	 64.484691  
872.000000	 64.519762  
871.000000	 64.546990  
870.000000	 64.567780  
869.000000	 64.582514  
868.000000	 64.590430  
867.000000	 64.590239  
866.000000	 64.581632  
865.000000	 64.565157  
864.000000	 64.543175  
863.000000	 64.518642  
862.000000	 64.494991  
861.000000	 64.474940  
860.000000	 64.460110  
859.000000	 64.450359  
858.000000	 64.443993  
857.000000	 64.437985  
856.000000	 64.428997  
855.000000	 64.414119  
854.000000	 64.391827  
853.000000	 64.362215  
852.000000	 64.326882  
851.000000	 64.288806  
850.000000	 64.251685  
849.000000	 64.218497  
848.000000	 64.190959  
847.000000	 64.169287  
846.000000	 64.152264  
845.000000	 64.137911  
844.000000	 64.124560  
843.000000	 64.110827  
842.000000	 64.097142  
841.000000	 64.085602  
840.000000	 64.079952  
839.000000	 64.084076  
838.000000	 64.101171  
837.000000	 64.132857  
836.000000	 64.178156  
835.000000	 64.233422  
834.000000	 64.292812  
833.000000	 64.349675  
832.000000	 64.397549  
831.000000	 64.431738  
830.000000	 64.449548  
829.000000	 64.450788  
828.000000	 64.437508  
827.000000	 64.413404  
826.000000	 64.383220  
825.000000	 64.351701  
824.000000	 64.323258  
823.000000	 64.301395  
822.000000	 64.288616  
821.000000	 64.286184  
820.000000	 64.294075  
819.000000	 64.310956  
818.000000	 64.334011  
817.000000	 64.359498  
816.000000	 64.382743  
815.000000	 64.399194  
814.000000	 64.405179  
813.000000	 64.398503  
812.000000	 64.379000  
811.000000	 64.347910  
810.000000	 64.307737  
809.000000	 64.261603  
808.000000	 64.212632  
807.000000	 64.163804  
806.000000	 64.118051  
805.000000	 64.077949  
804.000000	 64.046120  
803.000000	 64.024400  
802.000000	 64.014029  
801.000000	 64.014720  
800.000000	 64.024662  
799.000000	 64.040279  
798.000000	 64.056587  
797.000000	 64.068269  
796.000000	 64.070510  
795.000000	 64.059901  
794.000000	 64.034914  
793.000000	 63.996601  
792.000000	 63.947963  
791.000000	 63.892626  
790.000000	 63.834333  
789.000000	 63.776302  
788.000000	 63.721084  
787.000000	 63.670849  
786.000000	 63.627386  
785.000000	 63.592314  
784.000000	 63.567280  
783.000000	 63.553428  
782.000000	 63.551330  
781.000000	 63.559293  
780.000000	 63.574957  
779.000000	 63.594698  
778.000000	 63.615584  
777.000000	 63.635206  
776.000000	 63.653159  
775.000000	 63.670444  
774.000000	 63.689661  
773.000000	 63.713741  
772.000000	 63.744926  
771.000000	 63.783764  
770.000000	 63.828992  
769.000000	 63.877797  
768.000000	 63.926863  
767.000000	 63.973188  
766.000000	 64.015698  
765.000000	 64.054894  
764.000000	 64.092826  
763.000000	 64.131140  
762.000000	 64.170742  
761.000000	 64.209485  
760.000000	 64.242291  
759.000000	 64.260983  
758.000000	 64.257168  
757.000000	 64.223790  
756.000000	 64.157938  
755.000000	 64.062070  
754.000000	 63.944673  
753.000000	 63.818669  
752.000000	 63.699293  
751.000000	 63.600659  
750.000000	 63.532924  
749.000000	 63.500404  
748.000000	 63.501262  
747.000000	 63.528275  
746.000000	 63.571047  
745.000000	 63.618826  
744.000000	 63.663029  
743.000000	 63.698673  
742.000000	 63.724517  
741.000000	 63.742804  
740.000000	 63.757658  
739.000000	 63.773179  
738.000000	 63.791823  
737.000000	 63.814878  
736.000000	 63.841319  
735.000000	 63.868951  
734.000000	 63.893985  
733.000000	 63.912558  
732.000000	 63.920593  
731.000000	 63.914608  
730.000000	 63.892436  
729.000000	 63.853478  
728.000000	 63.799285  
727.000000	 63.733744  
726.000000	 63.662505  
725.000000	 63.591861  
724.000000	 63.528108  
723.000000	 63.476705  
722.000000	 63.441157  
721.000000	 63.422274  
720.000000	 63.418793  
719.000000	 63.427901  
718.000000	 63.445544  
717.000000	 63.467121  
716.000000	 63.487839  
715.000000	 63.503241  
714.000000	 63.509011  
713.000000	 63.501286  
712.000000	 63.476681  
711.000000	 63.433027  
710.000000	 63.370585  
709.000000	 63.292431  
708.000000	 63.204574  
707.000000	 63.115358  
706.000000	 63.034009  
705.000000	 62.969350  
704.000000	 62.927269  
703.000000	 62.910866  
702.000000	 62.919640  
701.000000	 62.950801  
700.000000	 62.999153  
699.000000	 63.059353  
698.000000	 63.126730  
697.000000	 63.197731  
696.000000	 63.269567  
695.000000	 63.339734  
694.000000	 63.404798  
693.000000	 63.460803  
692.000000	 63.503289  
691.000000	 63.528347  
690.000000	 63.533592  
689.000000	 63.519263  
688.000000	 63.488698  
687.000000	 63.447499  
686.000000	 63.402700  
685.000000	 63.360762  
684.000000	 63.326311  
683.000000	 63.301801  
682.000000	 63.286972  
681.000000	 63.279962  
680.000000	 63.277387  
679.000000	 63.276028  
678.000000	 63.272619  
677.000000	 63.264679  
676.000000	 63.250136  
675.000000	 63.227033  
674.000000	 63.194084  
673.000000	 63.150405  
672.000000	 63.097286  
671.000000	 63.037562  
670.000000	 62.976837  
669.000000	 62.922525  
668.000000	 62.882494  
667.000000	 62.863707  
666.000000	 62.869453  
665.000000	 62.898349  
664.000000	 62.943720  
663.000000	 62.994933  
662.000000	 63.039278  
661.000000	 63.064599  
660.000000	 63.062596  
659.000000	 63.030314  
658.000000	 62.971019  
657.000000	 62.893128  
656.000000	 62.807631  
655.000000	 62.725734  
654.000000	 62.656569  
653.000000	 62.605524  
652.000000	 62.573504  
651.000000	 62.557959  
650.000000	 62.554526  
649.000000	 62.558579  
648.000000	 62.566876  
647.000000	 62.577962  
646.000000	 62.591242  
645.000000	 62.606954  
644.000000	 62.624740  
643.000000	 62.643671  
642.000000	 62.661552  
641.000000	 62.675809  
640.000000	 62.684011  
639.000000	 62.684917  
638.000000	 62.679195  
637.000000	 62.668824  
636.000000	 62.656688  
635.000000	 62.645435  
634.000000	 62.637114  
633.000000	 62.633252  
632.000000	 62.635016  
631.000000	 62.643671  
630.000000	 62.660479  
629.000000	 62.687683  
628.000000	 62.727069  
627.000000	 62.779593  
626.000000	 62.843275  
625.000000	 62.912607  
624.000000	 62.978219  
623.000000	 63.028478  
622.000000	 63.051843  
621.000000	 63.038849  
620.000000	 62.985754  
619.000000	 62.895846  
618.000000	 62.779855  
617.000000	 62.654232  
616.000000	 62.537908  
615.000000	 62.448596  
614.000000	 62.398505  
613.000000	 62.392282  
612.000000	 62.425351  
611.000000	 62.485790  
610.000000	 62.556099  
609.000000	 62.617540  
608.000000	 62.653613  
607.000000	 62.653756  
606.000000	 62.614583  
605.000000	 62.540435  
604.000000	 62.441778  
603.000000	 62.333011  
602.000000	 62.229299  
601.000000	 62.143874  
600.000000	 62.086009  
599.000000	 62.059664  
598.000000	 62.064146  
597.000000	 62.094354  
596.000000	 62.142252  
595.000000	 62.198615  
594.000000	 62.254142  
593.000000	 62.301516  
592.000000	 62.335062  
591.000000	 62.352800  
590.000000	 62.355232  
589.000000	 62.346100  
588.000000	 62.331080  
587.000000	 62.316393  
586.000000	 62.307071  
585.000000	 62.306809  
584.000000	 62.317728  
583.000000	 62.340569  
582.000000	 62.374830  
581.000000	 62.419629  
580.000000	 62.473726  
579.000000	 62.535595  
578.000000	 62.602949  
577.000000	 62.671685  
576.000000	 62.735915  
575.000000	 62.788677  
574.000000	 62.822771  
573.000000	 62.832379  
572.000000	 62.814211  
571.000000	 62.768769  
570.000000	 62.700414  
569.000000	 62.617301  
568.000000	 62.529873  
567.000000	 62.448191  
566.000000	 62.381529  
565.000000	 62.335848  
564.000000	 62.315177  
563.000000	 62.321782  
562.000000	 62.355923  
561.000000	 62.416124  
560.000000	 62.498712  
559.000000	 62.598538  
558.000000	 62.706923  
557.000000	 62.811827  
556.000000	 62.899255  
555.000000	 62.955451  
554.000000	 62.969207  
553.000000	 62.934422  
552.000000	 62.852072  
551.000000	 62.730145  
550.000000	 62.582993  
549.000000	 62.428092  
548.000000	 62.282419  
547.000000	 62.159371  
546.000000	 62.066698  
545.000000	 62.006187  
544.000000	 61.974930  
543.000000	 61.966943  
542.000000	 61.976480  
541.000000	 61.997866  
540.000000	 62.026095  
539.000000	 62.055635  
538.000000	 62.079977  
537.000000	 62.091302  
536.000000	 62.080478  
535.000000	 62.038683  
534.000000	 61.959242  
533.000000	 61.839747  
532.000000	 61.683630  
531.000000	 61.500215  
530.000000	 61.303925  
529.000000	 61.112403  
528.000000	 60.944008  
527.000000	 60.814261  
526.000000	 60.733342  
525.000000	 60.705590  
524.000000	 60.729551  
523.000000	 60.797834  
522.000000	 60.899710  
521.000000	 61.022591  
520.000000	 61.155509  
519.000000	 61.289286  
518.000000	 61.419200  
517.000000	 61.543440  
516.000000	 61.663031  
515.000000	 61.781072  
514.000000	 61.898612  
513.000000	 62.014126  
512.000000	 62.120437  
511.000000	 62.207317  
510.000000	 62.261247  
509.000000	 62.270760  
508.000000	 62.227869  
507.000000	 62.132716  
506.000000	 61.992859  
505.000000	 61.823725  
504.000000	 61.644697  
503.000000	 61.476182  
502.000000	 61.334085  
501.000000	 61.227250  
500.000000	 61.155629  
499.000000	 61.111760  
498.000000	 61.082887  
497.000000	 61.055755  
496.000000	 61.020302  
495.000000	 60.973429  
494.000000	 60.919475  
493.000000	 60.869574  
492.000000	 60.836815  
491.000000	 60.832476  
490.000000	 60.862350  
489.000000	 60.923504  
488.000000	 61.004638  
487.000000	 61.087417  
486.000000	 61.151528  
485.000000	 61.178874  
484.000000	 61.158370  
483.000000	 61.088418  
482.000000	 60.977673  
481.000000	 60.842275  
480.000000	 60.701060  
479.000000	 60.572004  
478.000000	 60.468912  
477.000000	 60.398173  
476.000000	 60.358381  
475.000000	 60.342001  
474.000000	 60.338640  
473.000000	 60.337424  
472.000000	 60.329699  
471.000000	 60.310196  
470.000000	 60.277366  
469.000000	 60.232162  
468.000000	 60.177206  
467.000000	 60.113430  
466.000000	 60.042190  
465.000000	 59.964323  
464.000000	 59.884214  
463.000000	 59.811735  
462.000000	 59.761357  
461.000000	 59.750270  
460.000000	 59.791755  
459.000000	 59.892630  
458.000000	 60.046267  
457.000000	 60.230708  
456.000000	 60.412597  
455.000000	 60.556006  
454.000000	 60.627746  
453.000000	 60.606050  
452.000000	 60.484385  
451.000000	 60.273742  
450.000000	 59.998083  
449.000000	 59.689140  
448.000000	 59.378027  
447.000000	 59.089469  
446.000000	 58.839654  
445.000000	 58.636236  
444.000000	 58.482551  
443.000000	 58.380270  
442.000000	 58.332490  
441.000000	 58.342337  
440.000000	 58.409667  
439.000000	 58.527421  
438.000000	 58.677482  
437.000000	 58.831787  
436.000000	 58.955264  
435.000000	 59.010577  
434.000000	 58.975505  
433.000000	 58.836650  
432.000000	 58.583283  
431.000000	 58.215999  
430.000000	 57.754588  
429.000000	 57.228994  
428.000000	 56.675291  
427.000000	 56.132030  
426.000000	 55.628395  
425.000000	 55.195093  
424.000000	 54.869484  
423.000000	 54.676151  
422.000000	 54.620885  
421.000000	 54.689264  
420.000000	 54.846167  
419.000000	 55.049014  
418.000000	 55.255246  
417.000000	 55.433392  
416.000000	 55.566358  
415.000000	 55.647015  
414.000000	 55.677866  
413.000000	 55.652213  
412.000000	 55.572271  
411.000000	 55.432653  
410.000000	 55.268406  
409.000000	 55.125999  
408.000000	 55.111527  
407.000000	 55.428671  
406.000000	 56.294298  
405.000000	 57.850456  
404.000000	 60.105156  
403.000000	 63.008952  
402.000000	 66.275334  
401.000000	 69.438600  
400.000000	 71.880912  
399.000000	 72.859644  
398.000000	 71.890711  
397.000000	 68.909072  
396.000000	 64.366316  
395.000000	 59.240603  
394.000000	 54.563879  
393.000000	 51.153182  
392.000000	 49.376845  
391.000000	 49.062871  
390.000000	 49.849247  
389.000000	 51.272773  
388.000000	 53.131175  
387.000000	 55.432772  
386.000000	 57.790255  
385.000000	 59.799647  
384.000000	 60.488319  
383.000000	 59.350109  
382.000000	 57.094526  
381.000000	 55.461287  
380.000000	 57.601380  
379.000000	 66.242766  
378.000000	 82.660055  
377.000000	 105.824255 
376.000000	 131.709933 
375.000000	 154.957437 
374.000000	 170.373272 
373.000000	 174.467921 
372.000000	 167.013096 
371.000000	 150.446033 
370.000000	 129.202842 

