PE IR       SPECTRUM    SPECTRUM    ASCII       PEDS        1.60        
  -1
C-4040~3.ASC
17/03/27
14:35:34.00
17/03/27
14:35:34.00
tln
$C-4040-8_t0001$<tbV0>[13.0,-13.0,8.0,0.0,27,1,0]
370.000000
64









2002,4.07    
MIRTGS : RIGHTBACK : INTERNAL 2
MIR : ON : INTERNAL 2
OPTKBR

0.200000
8
8.000000
FILLER
RATIO
SPECTRUM
UNLOCKED 256

DOUBLE
64
COMBINED
1
0
0


1.000000
RATIO


1
0
TRUE
51149
0
LEFT NOT FITTED RIGHT NOT FITTED 0
NONE
NONE
15600
12.000000
4.427000
51148
TRUE
1 0 8 72 0 0 0 0 

15798.010000






#HDR
-1
-1
#GR
CM-1
%T
0.00002384185791015625
0.0
5000.000000
-1.000000
4631
8
70.695090
36.721873
#DATA
5000.000000	62.915992 
4999.000000	62.549638 
4998.000000	62.313199 
4997.000000	62.223672 
4996.000000	62.279772 
4995.000000	62.459874 
4994.000000	62.727904 
4993.000000	63.035678 
4992.000000	63.336968 
4991.000000	63.592338 
4990.000000	63.778710 
4989.000000	63.888263 
4988.000000	63.930416 
4987.000000	63.924288 
4986.000000	63.895392 
4985.000000	63.867664 
4984.000000	63.859200 
4983.000000	63.878369 
4982.000000	63.924503 
4981.000000	63.989472 
4980.000000	64.060163 
4979.000000	64.123058 
4978.000000	64.165925 
4977.000000	64.182949 
4976.000000	64.176821 
4975.000000	64.158606 
4974.000000	64.145135 
4973.000000	64.153313 
4972.000000	64.195990 
4971.000000	64.275813 
4970.000000	64.385986 
4969.000000	64.508080 
4968.000000	64.614892 
4967.000000	64.678692 
4966.000000	64.679408 
4965.000000	64.610505 
4964.000000	64.480352 
4963.000000	64.312911 
4962.000000	64.142370 
4961.000000	64.004302 
4960.000000	63.927030 
4959.000000	63.924479 
4958.000000	63.992810 
4957.000000	64.115500 
4956.000000	64.268398 
4955.000000	64.426565 
4954.000000	64.568734 
4953.000000	64.679050 
4952.000000	64.746975 
4951.000000	64.764213 
4950.000000	64.724135 
4949.000000	64.620804 
4948.000000	64.451193 
4947.000000	64.217615 
4946.000000	63.931560 
4945.000000	63.613557 
4944.000000	63.294935 
4943.000000	63.012504 
4942.000000	62.806200 
4941.000000	62.710022 
4940.000000	62.748003 
4939.000000	62.927412 
4938.000000	63.237500 
4937.000000	63.649845 
4936.000000	64.121961 
4935.000000	64.603734 
4934.000000	65.044045 
4933.000000	65.398025 
4932.000000	65.633511 
4931.000000	65.734601 
4930.000000	65.703964 
4929.000000	65.560412 
4928.000000	65.336561 
4927.000000	65.071487 
4926.000000	64.804673 
4925.000000	64.568781 
4924.000000	64.386034 
4923.000000	64.266252 
4922.000000	64.209222 
4921.000000	64.207410 
4920.000000	64.249682 
4919.000000	64.325809 
4918.000000	64.427018 
4917.000000	64.548397 
4916.000000	64.685273 
4915.000000	64.834499 
4914.000000	64.989018 
4913.000000	65.141081 
4912.000000	65.280675 
4911.000000	65.399265 
4910.000000	65.491414 
4909.000000	65.555906 
4908.000000	65.597391 
4907.000000	65.622639 
4906.000000	65.639472 
4905.000000	65.651607 
4904.000000	65.657639 
4903.000000	65.651345 
4902.000000	65.624356 
4901.000000	65.568184 
4900.000000	65.477824 
4899.000000	65.354752 
4898.000000	65.207767 
4897.000000	65.051555 
4896.000000	64.904069 
4895.000000	64.781308 
4894.000000	64.695358 
4893.000000	64.651942 
4892.000000	64.650535 
4891.000000	64.684963 
4890.000000	64.745450 
4889.000000	64.821505 
4888.000000	64.902973 
4887.000000	64.980912 
4886.000000	65.048170 
4885.000000	65.097308 
4884.000000	65.123033 
4883.000000	65.121841 
4882.000000	65.093660 
4881.000000	65.041470 
4880.000000	64.972949 
4879.000000	64.899802 
4878.000000	64.835143 
4877.000000	64.791202 
4876.000000	64.776253 
4875.000000	64.792823 
4874.000000	64.836883 
4873.000000	64.899086 
4872.000000	64.967560 
4871.000000	65.031003 
4870.000000	65.081715 
4869.000000	65.116882 
4868.000000	65.137600 
4867.000000	65.147876 
4866.000000	65.152406 
4865.000000	65.155196 
4864.000000	65.157628 
4863.000000	65.158963 
4862.000000	65.158367 
4861.000000	65.154266 
4860.000000	65.146303 
4859.000000	65.134310 
4858.000000	65.119194 
4857.000000	65.101575 
4856.000000	65.081810 
4855.000000	65.059232 
4854.000000	65.031909 
4853.000000	64.998197 
4852.000000	64.957809 
4851.000000	64.911842 
4850.000000	64.863252 
4849.000000	64.815855 
4848.000000	64.773797 
4847.000000	64.739942 
4846.000000	64.715743 
4845.000000	64.701581 
4844.000000	64.697527 
4843.000000	64.703845 
4842.000000	64.721250 
4841.000000	64.750933 
4840.000000	64.793872 
4839.000000	64.849328 
4838.000000	64.914774 
4837.000000	64.985847 
4836.000000	65.056514 
4835.000000	65.120458 
4834.000000	65.171265 
4833.000000	65.204310 
4832.000000	65.216207 
4831.000000	65.206575 
4830.000000	65.176272 
4829.000000	65.127491 
4828.000000	65.062928 
4827.000000	64.985895 
4826.000000	64.899802 
4825.000000	64.808344 
4824.000000	64.715528 
4823.000000	64.626073 
4822.000000	64.543843 
4821.000000	64.471673 
4820.000000	64.410734 
4819.000000	64.360666 
4818.000000	64.319729 
4817.000000	64.285707 
4816.000000	64.256691 
4815.000000	64.232063 
4814.000000	64.212012 
4813.000000	64.198184 
4812.000000	64.192056 
4811.000000	64.195322 
4810.000000	64.208436 
4809.000000	64.231228 
4808.000000	64.261865 
4807.000000	64.298129 
4806.000000	64.337396 
4805.000000	64.377117 
4804.000000	64.415168 
4803.000000	64.449954 
4802.000000	64.480328 
4801.000000	64.505887 
4800.000000	64.526414 
4799.000000	64.542579 
4798.000000	64.555549 
4797.000000	64.567375 
4796.000000	64.580678 
4795.000000	64.597821 
4794.000000	64.620351 
4793.000000	64.648270 
4792.000000	64.679884 
4791.000000	64.711499 
4790.000000	64.738464 
4789.000000	64.756298 
4788.000000	64.762234 
4787.000000	64.755797 
4786.000000	64.739370 
4785.000000	64.718198 
4784.000000	64.698815 
4783.000000	64.687705 
4782.000000	64.689421 
4781.000000	64.705491 
4780.000000	64.734339 
4779.000000	64.771771 
4778.000000	64.812302 
4777.000000	64.850473 
4776.000000	64.882326 
4775.000000	64.906167 
4774.000000	64.922046 
4773.000000	64.931321 
4772.000000	64.935183 
4771.000000	64.934110 
4770.000000	64.926791 
4769.000000	64.910197 
4768.000000	64.880943 
4767.000000	64.836502 
4766.000000	64.776468 
4765.000000	64.703536 
4764.000000	64.623928 
4763.000000	64.546561 
4762.000000	64.481186 
4761.000000	64.436435 
4760.000000	64.417862 
4759.000000	64.426684 
4758.000000	64.459300 
4757.000000	64.508295 
4756.000000	64.563608 
4755.000000	64.615178 
4754.000000	64.654588 
4753.000000	64.677119 
4752.000000	64.681720 
4751.000000	64.671063 
4750.000000	64.650416 
4749.000000	64.625644 
4748.000000	64.601612 
4747.000000	64.580702 
4746.000000	64.562606 
4745.000000	64.544200 
4744.000000	64.521503 
4743.000000	64.490079 
4742.000000	64.447331 
4741.000000	64.392566 
4740.000000	64.327836 
4739.000000	64.257478 
4738.000000	64.187526 
4737.000000	64.124369 
4736.000000	64.073967 
4735.000000	64.040946 
4734.000000	64.028000 
4733.000000	64.035463 
4732.000000	64.061832 
4731.000000	64.104008 
4730.000000	64.158391 
4729.000000	64.220738 
4728.000000	64.287590 
4727.000000	64.355802 
4726.000000	64.423036 
4725.000000	64.487600 
4724.000000	64.547896 
4723.000000	64.602208 
4722.000000	64.647936 
4721.000000	64.682197 
4720.000000	64.701628 
4719.000000	64.703893 
4718.000000	64.688014 
4717.000000	64.655232 
4716.000000	64.609193 
4715.000000	64.556145 
4714.000000	64.503002 
4713.000000	64.456248 
4712.000000	64.420795 
4711.000000	64.399290 
4710.000000	64.391565 
4709.000000	64.395523 
4708.000000	64.408159 
4707.000000	64.426398 
4706.000000	64.447665 
4705.000000	64.470267 
4704.000000	64.492940 
4703.000000	64.514803 
4702.000000	64.534330 
4701.000000	64.549970 
4700.000000	64.559340 
4699.000000	64.561009 
4698.000000	64.554929 
4697.000000	64.542841 
4696.000000	64.528632 
4695.000000	64.517211 
4694.000000	64.513707 
4693.000000	64.521527 
4692.000000	64.541506 
4691.000000	64.571285 
4690.000000	64.605951 
4689.000000	64.639425 
4688.000000	64.666104 
4687.000000	64.682340 
4686.000000	64.687418 
4685.000000	64.683794 
4684.000000	64.676308 
4683.000000	64.670586 
4682.000000	64.671230 
4681.000000	64.680647 
4680.000000	64.698076 
4679.000000	64.719915 
4678.000000	64.740777 
4677.000000	64.755153 
4676.000000	64.758992 
4675.000000	64.751482 
4674.000000	64.735150 
4673.000000	64.715003 
4672.000000	64.697337 
4671.000000	64.687919 
4670.000000	64.690852 
4669.000000	64.707040 
4668.000000	64.734864 
4667.000000	64.770221 
4666.000000	64.808702 
4665.000000	64.846539 
4664.000000	64.881944 
4663.000000	64.915204 
4662.000000	64.948391 
4661.000000	64.984154 
4660.000000	65.024495 
4659.000000	65.069675 
4658.000000	65.117907 
4657.000000	65.165138 
4656.000000	65.206408 
4655.000000	65.236473 
4654.000000	65.251684 
4653.000000	65.249848 
4652.000000	65.230798 
4651.000000	65.195679 
4650.000000	65.146899 
4649.000000	65.087699 
4648.000000	65.021681 
4647.000000	64.952969 
4646.000000	64.886283 
4645.000000	64.827036 
4644.000000	64.780759 
4643.000000	64.752793 
4642.000000	64.747285 
4641.000000	64.766311 
4640.000000	64.808797 
4639.000000	64.870667 
4638.000000	64.945077 
4637.000000	65.023636 
4636.000000	65.097737 
4635.000000	65.159940 
4634.000000	65.205001 
4633.000000	65.231227 
4632.000000	65.240502 
4631.000000	65.237212 
4630.000000	65.227127 
4629.000000	65.216875 
4628.000000	65.212106 
4627.000000	65.217041 
4626.000000	65.233373 
4625.000000	65.260386 
4624.000000	65.295100 
4623.000000	65.333056 
4622.000000	65.369272 
4621.000000	65.399122 
4620.000000	65.419936 
4619.000000	65.430760 
4618.000000	65.433692 
4617.000000	65.432691 
4616.000000	65.433359 
4615.000000	65.441823 
4614.000000	65.462660 
4613.000000	65.498113 
4612.000000	65.546464 
4611.000000	65.603065 
4610.000000	65.659570 
4609.000000	65.705943 
4608.000000	65.732121 
4607.000000	65.730333 
4606.000000	65.696573 
4605.000000	65.631699 
4604.000000	65.541243 
4603.000000	65.434551 
4602.000000	65.323543 
4601.000000	65.220522 
4600.000000	65.136098 
4599.000000	65.077233 
4598.000000	65.046644 
4597.000000	65.042519 
4596.000000	65.059280 
4595.000000	65.089392 
4594.000000	65.124869 
4593.000000	65.159106 
4592.000000	65.187096 
4591.000000	65.206742 
4590.000000	65.217638 
4589.000000	65.221929 
4588.000000	65.221881 
4587.000000	65.221142 
4586.000000	65.223503 
4585.000000	65.233016 
4584.000000	65.253448 
4583.000000	65.287470 
4582.000000	65.336394 
4581.000000	65.398859 
4580.000000	65.470838 
4579.000000	65.545368 
4578.000000	65.613770 
4577.000000	65.666913 
4576.000000	65.697240 
4575.000000	65.700650 
4574.000000	65.677165 
4573.000000	65.631675 
4572.000000	65.572142 
4571.000000	65.507984 
4570.000000	65.447759 
4569.000000	65.397524 
4568.000000	65.359854 
4567.000000	65.334248 
4566.000000	65.317988 
4565.000000	65.307664 
4564.000000	65.300488 
4563.000000	65.295529 
4562.000000	65.293192 
4561.000000	65.294265 
4560.000000	65.299248 
4559.000000	65.306901 
4558.000000	65.314769 
4557.000000	65.318703 
4556.000000	65.315318 
4555.000000	65.302562 
4554.000000	65.281391 
4553.000000	65.255951 
4552.000000	65.232133 
4551.000000	65.216183 
4550.000000	65.212416 
4549.000000	65.221905 
4548.000000	65.241670 
4547.000000	65.265107 
4546.000000	65.283560 
4545.000000	65.288257 
4544.000000	65.272951 
4543.000000	65.235042 
4542.000000	65.176129 
4541.000000	65.101313 
4540.000000	65.016841 
4539.000000	64.929485 
4538.000000	64.845108 
4537.000000	64.768648 
4536.000000	64.703559 
4535.000000	64.652633 
4534.000000	64.619016 
4533.000000	64.605093 
4532.000000	64.611601 
4531.000000	64.637899 
4530.000000	64.680409 
4529.000000	64.735102 
4528.000000	64.797043 
4527.000000	64.862680 
4526.000000	64.929699 
4525.000000	64.996767 
4524.000000	65.062808 
4523.000000	65.125513 
4522.000000	65.180969 
4521.000000	65.223860 
4520.000000	65.248656 
4519.000000	65.250945 
4518.000000	65.229439 
4517.000000	65.186524 
4516.000000	65.129256 
4515.000000	65.068364 
4514.000000	65.017151 
4513.000000	64.989113 
4512.000000	64.995288 
4511.000000	65.042114 
4510.000000	65.129375 
4509.000000	65.249323 
4508.000000	65.388584 
4507.000000	65.530824 
4506.000000	65.660190 
4505.000000	65.764427 
4504.000000	65.837025 
4503.000000	65.877866 
4502.000000	65.891933 
4501.000000	65.887427 
4500.000000	65.872597 
4499.000000	65.853643 
4498.000000	65.832114 
4497.000000	65.805077 
4496.000000	65.767359 
4495.000000	65.714120 
4494.000000	65.644383 
4493.000000	65.561962 
4492.000000	65.476322 
4491.000000	65.399765 
4490.000000	65.341615 
4489.000000	65.307545 
4488.000000	65.295577 
4487.000000	65.300464 
4486.000000	65.316224 
4485.000000	65.338873 
4484.000000	65.372157 
4483.000000	65.420985 
4482.000000	65.486764 
4481.000000	65.565872 
4480.000000	65.647792 
4479.000000	65.717220 
4478.000000	65.757942 
4477.000000	65.756773 
4476.000000	65.704226 
4475.000000	65.605783 
4474.000000	65.486383 
4473.000000	65.373516 
4472.000000	65.286755 
4471.000000	65.246558 
4470.000000	65.271568 
4469.000000	65.362691 
4468.000000	65.504598 
4467.000000	65.682268 
4466.000000	65.882110 
4465.000000	66.094231 
4464.000000	66.312336 
4463.000000	66.520810 
4462.000000	66.705012 
4461.000000	66.849207 
4460.000000	66.951870 
4459.000000	67.021942 
4458.000000	67.089319 
4457.000000	67.210221 
4456.000000	67.440962 
4455.000000	67.830443 
4454.000000	68.382477 
4453.000000	69.068670 
4452.000000	69.787001 
4451.000000	70.392417 
4450.000000	70.695090 
4449.000000	70.525956 
4448.000000	69.728183 
4447.000000	68.206715 
4446.000000	65.931415 
4445.000000	62.961173 
4444.000000	59.424066 
4443.000000	55.514240 
4442.000000	51.472425 
4441.000000	47.572398 
4440.000000	44.100880 
4439.000000	41.337299 
4438.000000	39.517974 
4437.000000	38.811421 
4436.000000	39.281845 
4435.000000	40.879964 
4434.000000	43.409156 
4433.000000	46.576452 
4432.000000	49.996876 
4431.000000	53.298735 
4430.000000	56.135249 
4429.000000	58.298492 
4428.000000	59.720945 
4427.000000	60.501122 
4426.000000	60.858082 
4425.000000	61.063647 
4424.000000	61.369156 
4423.000000	61.933970 
4422.000000	62.804007 
4421.000000	63.899374 
4420.000000	65.066432 
4419.000000	66.121602 
4418.000000	66.926908 
4417.000000	67.402195 
4416.000000	67.549538 
4415.000000	67.436432 
4414.000000	67.173171 
4413.000000	66.869688 
4412.000000	66.607356 
4411.000000	66.441154 
4410.000000	66.386151 
4409.000000	66.422677 
4408.000000	66.507172 
4407.000000	66.605639 
4406.000000	66.694092 
4405.000000	66.763401 
4404.000000	66.819190 
4403.000000	66.865181 
4402.000000	66.909122 
4401.000000	66.960811 
4400.000000	67.025208 
4399.000000	67.093634 
4398.000000	67.154049 
4397.000000	67.203736 
4396.000000	67.237186 
4395.000000	67.244935 
4394.000000	67.221093 
4393.000000	67.165637 
4392.000000	67.083764 
4391.000000	66.985177 
4390.000000	66.882705 
4389.000000	66.789793 
4388.000000	66.714453 
4387.000000	66.657614 
4386.000000	66.617441 
4385.000000	66.589736 
4384.000000	66.567707 
4383.000000	66.544818 
4382.000000	66.516304 
4381.000000	66.480731 
4380.000000	66.440176 
4379.000000	66.399288 
4378.000000	66.363072 
4377.000000	66.335415 
4376.000000	66.316986 
4375.000000	66.305661 
4374.000000	66.297411 
4373.000000	66.287136 
4372.000000	66.270089 
4371.000000	66.243386 
4370.000000	66.206717 
4369.000000	66.162967 
4368.000000	66.116738 
4367.000000	66.074633 
4366.000000	66.043376 
4365.000000	66.028904 
4364.000000	66.034746 
4363.000000	66.061615 
4362.000000	66.106986 
4361.000000	66.165590 
4360.000000	66.229867 
4359.000000	66.291213 
4358.000000	66.341137 
4357.000000	66.372680 
4356.000000	66.381025 
4355.000000	66.363501 
4354.000000	66.319704 
4353.000000	66.251754 
4352.000000	66.163897 
4351.000000	66.062116 
4350.000000	65.953922 
4349.000000	65.847682 
4348.000000	65.751814 
4347.000000	65.674066 
4346.000000	65.620040 
4345.000000	65.592408 
4344.000000	65.590095 
4343.000000	65.608334 
4342.000000	65.639472 
4341.000000	65.673923 
4340.000000	65.702342 
4339.000000	65.717005 
4338.000000	65.713524 
4337.000000	65.691065 
4336.000000	65.652060 
4335.000000	65.601015 
4334.000000	65.543580 
4333.000000	65.485167 
4332.000000	65.429782 
4331.000000	65.379738 
4330.000000	65.336346 
4329.000000	65.300059 
4328.000000	65.271306 
4327.000000	65.250515 
4326.000000	65.237998 
4325.000000	65.233397 
4324.000000	65.235042 
4323.000000	65.239858 
4322.000000	65.242958 
4321.000000	65.239262 
4320.000000	65.224146 
4319.000000	65.195369 
4318.000000	65.153908 
4317.000000	65.103697 
4316.000000	65.050601 
4315.000000	65.001392 
4314.000000	64.962172 
4313.000000	64.937043 
4312.000000	64.926910 
4311.000000	64.930176 
4310.000000	64.943408 
4309.000000	64.962768 
4308.000000	64.985442 
4307.000000	65.010070 
4306.000000	65.036940 
4305.000000	65.067911 
4304.000000	65.105175 
4303.000000	65.150308 
4302.000000	65.202784 
4301.000000	65.259814 
4300.000000	65.315961 
4299.000000	65.364789 
4298.000000	65.399336 
4297.000000	65.413951 
4296.000000	65.405154 
4295.000000	65.372633 
4294.000000	65.319824 
4293.000000	65.253257 
4292.000000	65.181875 
4291.000000	65.115499 
4290.000000	65.063571 
4289.000000	65.033721 
4288.000000	65.030193 
4287.000000	65.053582 
4286.000000	65.099596 
4285.000000	65.159988 
4284.000000	65.223479 
4283.000000	65.277862 
4282.000000	65.311717 
4281.000000	65.316438 
4280.000000	65.288066 
4279.000000	65.227890 
4278.000000	65.142440 
4277.000000	65.042018 
4276.000000	64.939045 
4275.000000	64.845418 
4274.000000	64.770960 
4273.000000	64.721131 
4272.000000	64.697170 
4271.000000	64.695596 
4270.000000	64.709830 
4269.000000	64.731335 
4268.000000	64.751267 
4267.000000	64.762687 
4266.000000	64.760994 
4265.000000	64.745426 
4264.000000	64.717674 
4263.000000	64.682698 
4262.000000	64.646553 
4261.000000	64.616179 
4260.000000	64.597821 
4259.000000	64.595818 
4258.000000	64.611816 
4257.000000	64.644289 
4256.000000	64.689350 
4255.000000	64.740967 
4254.000000	64.792203 
4253.000000	64.836430 
4252.000000	64.868545 
4251.000000	64.885902 
4250.000000	64.888691 
4249.000000	64.879751 
4248.000000	64.863729 
4247.000000	64.846348 
4246.000000	64.833021 
4245.000000	64.828062 
4244.000000	64.833402 
4243.000000	64.848303 
4242.000000	64.869427 
4241.000000	64.892482 
4240.000000	64.913010 
4239.000000	64.927291 
4238.000000	64.933967 
4237.000000	64.933872 
4236.000000	64.929986 
4235.000000	64.926457 
4234.000000	64.927458 
4233.000000	64.935731 
4232.000000	64.952278 
4231.000000	64.976000 
4230.000000	65.004372 
4229.000000	65.034079 
4228.000000	65.061759 
4227.000000	65.084815 
4226.000000	65.101909 
4225.000000	65.112733 
4224.000000	65.117335 
4223.000000	65.115618 
4222.000000	65.106725 
4221.000000	65.089249 
4220.000000	65.062069 
4219.000000	65.025234 
4218.000000	64.980077 
4217.000000	64.930033 
4216.000000	64.880728 
4215.000000	64.839029 
4214.000000	64.811491 
4213.000000	64.803075 
4212.000000	64.816188 
4211.000000	64.849591 
4210.000000	64.898467 
4209.000000	64.954924 
4208.000000	65.009140 
4207.000000	65.051913 
4206.000000	65.075850 
4205.000000	65.078282 
4204.000000	65.061140 
4203.000000	65.031647 
4202.000000	65.000152 
4201.000000	64.978146 
4200.000000	64.975142 
4199.000000	64.996576 
4198.000000	65.041804 
4197.000000	65.104293 
4196.000000	65.172386 
4195.000000	65.231990 
4194.000000	65.269160 
4193.000000	65.273189 
4192.000000	65.238475 
4191.000000	65.165662 
4190.000000	65.061235 
4189.000000	64.935851 
4188.000000	64.802742 
4187.000000	64.675045 
4186.000000	64.564800 
4185.000000	64.480972 
4184.000000	64.429235 
4183.000000	64.412045 
4182.000000	64.428114 
4181.000000	64.473032 
4180.000000	64.539861 
4179.000000	64.619350 
4178.000000	64.702153 
4177.000000	64.779567 
4176.000000	64.845013 
4175.000000	64.893865 
4174.000000	64.924454 
4173.000000	64.937376 
4172.000000	64.935088 
4171.000000	64.920949 
4170.000000	64.898538 
4169.000000	64.871096 
4168.000000	64.841723 
4167.000000	64.812755 
4166.000000	64.785909 
4165.000000	64.762425 
4164.000000	64.743304 
4163.000000	64.729404 
4162.000000	64.721202 
4161.000000	64.719057 
4160.000000	64.723134 
4159.000000	64.733171 
4158.000000	64.748382 
4157.000000	64.767193 
4156.000000	64.787697 
4155.000000	64.806985 
4154.000000	64.821267 
4153.000000	64.826369 
4152.000000	64.818668 
4151.000000	64.795994 
4150.000000	64.758324 
4149.000000	64.708232 
4148.000000	64.650702 
4147.000000	64.591908 
4146.000000	64.538121 
4145.000000	64.494180 
4144.000000	64.462709 
4143.000000	64.444112 
4142.000000	64.437294 
4141.000000	64.440178 
4140.000000	64.450979 
4139.000000	64.469051 
4138.000000	64.495110 
4137.000000	64.530491 
4136.000000	64.576530 
4135.000000	64.633226 
4134.000000	64.698576 
4133.000000	64.768123 
4132.000000	64.835596 
4131.000000	64.893960 
4130.000000	64.936733 
4129.000000	64.959669 
4128.000000	64.961218 
4127.000000	64.943313 
4126.000000	64.910578 
4125.000000	64.869666 
4124.000000	64.828228 
4123.000000	64.793539 
4122.000000	64.771628 
4121.000000	64.766454 
4120.000000	64.779210 
4119.000000	64.808320 
4118.000000	64.849805 
4117.000000	64.897990 
4116.000000	64.946150 
4115.000000	64.987540 
4114.000000	65.016746 
4113.000000	65.030503 
4112.000000	65.027642 
4111.000000	65.009427 
4110.000000	64.979338 
4109.000000	64.941883 
4108.000000	64.902210 
4107.000000	64.864420 
4106.000000	64.831447 
4105.000000	64.804196 
4104.000000	64.782333 
4103.000000	64.764165 
4102.000000	64.747524 
4101.000000	64.730548 
4100.000000	64.712524 
4099.000000	64.693808 
4098.000000	64.675402 
4097.000000	64.659452 
4096.000000	64.648199 
4095.000000	64.643740 
4094.000000	64.647245 
4093.000000	64.659166 
4092.000000	64.679145 
4091.000000	64.706563 
4090.000000	64.740562 
4089.000000	64.780426 
4088.000000	64.825654 
4087.000000	64.875650 
4086.000000	64.929461 
4085.000000	64.985656 
4084.000000	65.041708 
4083.000000	65.094494 
4082.000000	65.139985 
4081.000000	65.174436 
4080.000000	65.194654 
4079.000000	65.199112 
4078.000000	65.188121 
4077.000000	65.164017 
4076.000000	65.130448 
4075.000000	65.092563 
4074.000000	65.054941 
4073.000000	65.021228 
4072.000000	64.993143 
4071.000000	64.971017 
4070.000000	64.953660 
4069.000000	64.939236 
4068.000000	64.926290 
4067.000000	64.914464 
4066.000000	64.904570 
4065.000000	64.898228 
4064.000000	64.897584 
4063.000000	64.904189 
4062.000000	64.918637 
4061.000000	64.939951 
4060.000000	64.965558 
4059.000000	64.991712 
4058.000000	65.014600 
4057.000000	65.030884 
4056.000000	65.038347 
4055.000000	65.036034 
4054.000000	65.024566 
4053.000000	65.005826 
4052.000000	64.982104 
4051.000000	64.956164 
4050.000000	64.930343 
4049.000000	64.906835 
4048.000000	64.887309 
4047.000000	64.873266 
4046.000000	64.865827 
4045.000000	64.866471 
4044.000000	64.876127 
4043.000000	64.896011 
4042.000000	64.926576 
4041.000000	64.967966 
4040.000000	65.019297 
4039.000000	65.078425 
4038.000000	65.141677 
4037.000000	65.204262 
4036.000000	65.260648 
4035.000000	65.305209 
4034.000000	65.333271 
4033.000000	65.341901 
4032.000000	65.330719 
4031.000000	65.302109 
4030.000000	65.261173 
4029.000000	65.215039 
4028.000000	65.171337 
4027.000000	65.137481 
4026.000000	65.118479 
4025.000000	65.116643 
4024.000000	65.130639 
4023.000000	65.156054 
4022.000000	65.186119 
4021.000000	65.213418 
4020.000000	65.231418 
4019.000000	65.235733 
4018.000000	65.225625 
4017.000000	65.203523 
4016.000000	65.174937 
4015.000000	65.146636 
4014.000000	65.125298 
4013.000000	65.115642 
4012.000000	65.119504 
4011.000000	65.135526 
4010.000000	65.159177 
4009.000000	65.184187 
4008.000000	65.204024 
4007.000000	65.213847 
4006.000000	65.211105 
4005.000000	65.196347 
4004.000000	65.172982 
4003.000000	65.146493 
4002.000000	65.122509 
4001.000000	65.105843 
4000.000000	65.099000 
3999.000000	65.101933 
3998.000000	65.112376 
3997.000000	65.126514 
3996.000000	65.140032 
3995.000000	65.149760 
3994.000000	65.154361 
3993.000000	65.154743 
3992.000000	65.153646 
3991.000000	65.154361 
3990.000000	65.159535 
3989.000000	65.170097 
3988.000000	65.184831 
3987.000000	65.199971 
3986.000000	65.210294 
3985.000000	65.210390 
3984.000000	65.196466 
3983.000000	65.167188 
3982.000000	65.124607 
3981.000000	65.073966 
3980.000000	65.022444 
3979.000000	64.977955 
3978.000000	64.947104 
3977.000000	64.933705 
3976.000000	64.938497 
3975.000000	64.959049 
3974.000000	64.991021 
3973.000000	65.029239 
3972.000000	65.069222 
3971.000000	65.108084 
3970.000000	65.144443 
3969.000000	65.177869 
3968.000000	65.208005 
3967.000000	65.233945 
3966.000000	65.253543 
3965.000000	65.263676 
3964.000000	65.260624 
3963.000000	65.241861 
3962.000000	65.206313 
3961.000000	65.155315 
3960.000000	65.092158 
3959.000000	65.021944 
3958.000000	64.949965 
3957.000000	64.881062 
3956.000000	64.818763 
3955.000000	64.765429 
3954.000000	64.722752 
3953.000000	64.692521 
3952.000000	64.677047 
3951.000000	64.679217 
3950.000000	64.701271 
3949.000000	64.744257 
3948.000000	64.806532 
3947.000000	64.883971 
3946.000000	64.969205 
3945.000000	65.053844 
3944.000000	65.129351 
3943.000000	65.189313 
3942.000000	65.230488 
3941.000000	65.253233 
3940.000000	65.261340 
3939.000000	65.260434 
3938.000000	65.256690 
3937.000000	65.254855 
3936.000000	65.257382 
3935.000000	65.263891 
3934.000000	65.272331 
3933.000000	65.279412 
3932.000000	65.282583 
3931.000000	65.280437 
3930.000000	65.273571 
3929.000000	65.264058 
3928.000000	65.255093 
3927.000000	65.250277 
3926.000000	65.252828 
3925.000000	65.264868 
3924.000000	65.287232 
3923.000000	65.319395 
3922.000000	65.359497 
3921.000000	65.405058 
3920.000000	65.452957 
3919.000000	65.500330 
3918.000000	65.544414 
3917.000000	65.582561 
3916.000000	65.612387 
3915.000000	65.632057 
3914.000000	65.640091 
3913.000000	65.635299 
3912.000000	65.617346 
3911.000000	65.587186 
3910.000000	65.546703 
3909.000000	65.499162 
3908.000000	65.448474 
3907.000000	65.398764 
3906.000000	65.353703 
3905.000000	65.316152 
3904.000000	65.286946 
3903.000000	65.264940 
3902.000000	65.247321 
3901.000000	65.230488 
3900.000000	65.210819 
3899.000000	65.185832 
3898.000000	65.154814 
3897.000000	65.119051 
3896.000000	65.081119 
3895.000000	65.044593 
3894.000000	65.012359 
3893.000000	64.986062 
3892.000000	64.965415 
3891.000000	64.948606 
3890.000000	64.932107 
3889.000000	64.912629 
3888.000000	64.887785 
3887.000000	64.857530 
3886.000000	64.823532 
3885.000000	64.790058 
3884.000000	64.762377 
3883.000000	64.746284 
3882.000000	64.746046 
3881.000000	64.764428 
3880.000000	64.801669 
3879.000000	64.856004 
3878.000000	64.923882 
3877.000000	65.000581 
3876.000000	65.080857 
3875.000000	65.159916 
3874.000000	65.233731 
3873.000000	65.299344 
3872.000000	65.354633 
3871.000000	65.398693 
3870.000000	65.431070 
3869.000000	65.451812 
3868.000000	65.460729 
3867.000000	65.458178 
3866.000000	65.444397 
3865.000000	65.420055 
3864.000000	65.386056 
3863.000000	65.344476 
3862.000000	65.297913 
3861.000000	65.249872 
3860.000000	65.204095 
3859.000000	65.164303 
3858.000000	65.133476 
3857.000000	65.113067 
3856.000000	65.103006 
3855.000000	65.101599 
3854.000000	65.106511 
3853.000000	65.115237 
3852.000000	65.125846 
3851.000000	65.137100 
3850.000000	65.148234 
3849.000000	65.158915 
3848.000000	65.168261 
3847.000000	65.174913 
3846.000000	65.177440 
3845.000000	65.174579 
3844.000000	65.165686 
3843.000000	65.150952 
3842.000000	65.131735 
3841.000000	65.110111 
3840.000000	65.088462 
3839.000000	65.068626 
3838.000000	65.051460 
3837.000000	65.036702 
3836.000000	65.023422 
3835.000000	65.010380 
3834.000000	64.996886 
3833.000000	64.982914 
3832.000000	64.969730 
3831.000000	64.958667 
3830.000000	64.950752 
3829.000000	64.945960 
3828.000000	64.942908 
3827.000000	64.939546 
3826.000000	64.933848 
3825.000000	64.924788 
3824.000000	64.912843 
3823.000000	64.900040 
3822.000000	64.889454 
3821.000000	64.884185 
3820.000000	64.886283 
3819.000000	64.896440 
3818.000000	64.913702 
3817.000000	64.935922 
3816.000000	64.960622 
3815.000000	64.986205 
3814.000000	65.012741 
3813.000000	65.041756 
3812.000000	65.075707 
3811.000000	65.117168 
3810.000000	65.167498 
3809.000000	65.225791 
3808.000000	65.288615 
3807.000000	65.350556 
3806.000000	65.404582 
3805.000000	65.444731 
3804.000000	65.465831 
3803.000000	65.465044 
3802.000000	65.442085 
3801.000000	65.399384 
3800.000000	65.341711 
3799.000000	65.275192 
3798.000000	65.206575 
3797.000000	65.142583 
3796.000000	65.088796 
3795.000000	65.048933 
3794.000000	65.024542 
3793.000000	65.014863 
3792.000000	65.016818 
3791.000000	65.025496 
3790.000000	65.034937 
3789.000000	65.039300 
3788.000000	65.033674 
3787.000000	65.015244 
3786.000000	64.983439 
3785.000000	64.940524 
3784.000000	64.890456 
3783.000000	64.839005 
3782.000000	64.791917 
3781.000000	64.754915 
3780.000000	64.732718 
3779.000000	64.728665 
3778.000000	64.743995 
3777.000000	64.778161 
3776.000000	64.828634 
3775.000000	64.891219 
3774.000000	64.960122 
3773.000000	65.029215 
3772.000000	65.092682 
3771.000000	65.146040 
3770.000000	65.186309 
3769.000000	65.212631 
3768.000000	65.226078 
3767.000000	65.229296 
3766.000000	65.225982 
3765.000000	65.219759 
3764.000000	65.213537 
3763.000000	65.209603 
3762.000000	65.209341 
3761.000000	65.213871 
3760.000000	65.223884 
3759.000000	65.240192 
3758.000000	65.263009 
3757.000000	65.292048 
3756.000000	65.325760 
3755.000000	65.361189 
3754.000000	65.394377 
3753.000000	65.420603 
3752.000000	65.435671 
3751.000000	65.437006 
3750.000000	65.423917 
3749.000000	65.398073 
3748.000000	65.363001 
3747.000000	65.323615 
3746.000000	65.285038 
3745.000000	65.251588 
3744.000000	65.226078 
3743.000000	65.209460 
3742.000000	65.201282 
3741.000000	65.200304 
3740.000000	65.204524 
3739.000000	65.211820 
3738.000000	65.220117 
3737.000000	65.227651 
3736.000000	65.232324 
3735.000000	65.232229 
3734.000000	65.225696 
3733.000000	65.211892 
3732.000000	65.190982 
3731.000000	65.164756 
3730.000000	65.136408 
3729.000000	65.110254 
3728.000000	65.090823 
3727.000000	65.082097 
3726.000000	65.086650 
3725.000000	65.105199 
3724.000000	65.136170 
3723.000000	65.176224 
3722.000000	65.220880 
3721.000000	65.265369 
3720.000000	65.305304 
3719.000000	65.337371 
3718.000000	65.359592 
3717.000000	65.371227 
3716.000000	65.372323 
3715.000000	65.363597 
3714.000000	65.346050 
3713.000000	65.321135 
3712.000000	65.290832 
3711.000000	65.257811 
3710.000000	65.225148 
3709.000000	65.196466 
3708.000000	65.175151 
3707.000000	65.163755 
3706.000000	65.163302 
3705.000000	65.172958 
3704.000000	65.190148 
3703.000000	65.211153 
3702.000000	65.232014 
3701.000000	65.249300 
3700.000000	65.261006 
3699.000000	65.267014 
3698.000000	65.268754 
3697.000000	65.268659 
3696.000000	65.268945 
3695.000000	65.271139 
3694.000000	65.275025 
3693.000000	65.279054 
3692.000000	65.280485 
3691.000000	65.276694 
3690.000000	65.265822 
3689.000000	65.247559 
3688.000000	65.223407 
3687.000000	65.196537 
3686.000000	65.170836 
3685.000000	65.150070 
3684.000000	65.137171 
3683.000000	65.133619 
3682.000000	65.139317 
3681.000000	65.152645 
3680.000000	65.170955 
3679.000000	65.191102 
3678.000000	65.209865 
3677.000000	65.224480 
3676.000000	65.232849 
3675.000000	65.233778 
3674.000000	65.226697 
3673.000000	65.212130 
3672.000000	65.191221 
3671.000000	65.165829 
3670.000000	65.138268 
3669.000000	65.110874 
3668.000000	65.085744 
3667.000000	65.064358 
3666.000000	65.047359 
3665.000000	65.034770 
3664.000000	65.025901 
3663.000000	65.019845 
3662.000000	65.015888 
3661.000000	65.013694 
3660.000000	65.013456 
3659.000000	65.015602 
3658.000000	65.020513 
3657.000000	65.028142 
3656.000000	65.037703 
3655.000000	65.047621 
3654.000000	65.055584 
3653.000000	65.058994 
3652.000000	65.055584 
3651.000000	65.044116 
3650.000000	65.024709 
3649.000000	64.998841 
3648.000000	64.969086 
3647.000000	64.938640 
3646.000000	64.910769 
3645.000000	64.888048 
3644.000000	64.872169 
3643.000000	64.863705 
3642.000000	64.862275 
3641.000000	64.866948 
3640.000000	64.876675 
3639.000000	64.890456 
3638.000000	64.907693 
3637.000000	64.927840 
3636.000000	64.950346 
3635.000000	64.974117 
3634.000000	64.997172 
3633.000000	65.016889 
3632.000000	65.030145 
3631.000000	65.034317 
3630.000000	65.027880 
3629.000000	65.011239 
3628.000000	64.986848 
3627.000000	64.958977 
3626.000000	64.932775 
3625.000000	64.913225 
3624.000000	64.903950 
3623.000000	64.906501 
3622.000000	64.919924 
3621.000000	64.941048 
3620.000000	64.965677 
3619.000000	64.989447 
3618.000000	65.008664 
3617.000000	65.021228 
3616.000000	65.026831 
3615.000000	65.026664 
3614.000000	65.022468 
3613.000000	65.016198 
3612.000000	65.009212 
3611.000000	65.002346 
3610.000000	64.995598 
3609.000000	64.988923 
3608.000000	64.982438 
3607.000000	64.976739 
3606.000000	64.972972 
3605.000000	64.972233 
3604.000000	64.975404 
3603.000000	64.982604 
3602.000000	64.993119 
3601.000000	65.005087 
3600.000000	65.016388 
3599.000000	65.024805 
3598.000000	65.029168 
3597.000000	65.029358 
3596.000000	65.027046 
3595.000000	65.025043 
3594.000000	65.026831 
3593.000000	65.035700 
3592.000000	65.053749 
3591.000000	65.081024 
3590.000000	65.115618 
3589.000000	65.153956 
3588.000000	65.191507 
3587.000000	65.224194 
3586.000000	65.248894 
3585.000000	65.264415 
3584.000000	65.271186 
3583.000000	65.271210 
3582.000000	65.267157 
3581.000000	65.261435 
3580.000000	65.256023 
3579.000000	65.252017 
3578.000000	65.249538 
3577.000000	65.248203 
3576.000000	65.247488 
3575.000000	65.246891 
3574.000000	65.246152 
3573.000000	65.245056 
3572.000000	65.243077 
3571.000000	65.239763 
3570.000000	65.234112 
3569.000000	65.225720 
3568.000000	65.214776 
3567.000000	65.202450 
3566.000000	65.191102 
3565.000000	65.183687 
3564.000000	65.183162 
3563.000000	65.191555 
3562.000000	65.209102 
3561.000000	65.233993 
3560.000000	65.262579 
3559.000000	65.289902 
3558.000000	65.310883 
3557.000000	65.321135 
3556.000000	65.317893 
3555.000000	65.300512 
3554.000000	65.270328 
3553.000000	65.230202 
3552.000000	65.183854 
3551.000000	65.135145 
3550.000000	65.087580 
3549.000000	65.043902 
3548.000000	65.006208 
3547.000000	64.976096 
3546.000000	64.954710 
3545.000000	64.943099 
3544.000000	64.942312 
3543.000000	64.952445 
3542.000000	64.972901 
3541.000000	65.002274 
3540.000000	65.038180 
3539.000000	65.077161 
3538.000000	65.115308 
3537.000000	65.148472 
3536.000000	65.173220 
3535.000000	65.187168 
3534.000000	65.189933 
3533.000000	65.182805 
3532.000000	65.168929 
3531.000000	65.152812 
3530.000000	65.139269 
3529.000000	65.132498 
3528.000000	65.135216 
3527.000000	65.147995 
3526.000000	65.169310 
3525.000000	65.195679 
3524.000000	65.222454 
3523.000000	65.244817 
3522.000000	65.258264 
3521.000000	65.259456 
3520.000000	65.246868 
3519.000000	65.220451 
3518.000000	65.181517 
3517.000000	65.132355 
3516.000000	65.076017 
3515.000000	65.016245 
3514.000000	64.957094 
3513.000000	64.902853 
3512.000000	64.857792 
3511.000000	64.825987 
3510.000000	64.810729 
3509.000000	64.813923 
3508.000000	64.835286 
3507.000000	64.872360 
3506.000000	64.920353 
3505.000000	64.973163 
3504.000000	65.023589 
3503.000000	65.065360 
3502.000000	65.093898 
3501.000000	65.107226 
3500.000000	65.106177 
3499.000000	65.094041 
3498.000000	65.075373 
3497.000000	65.055298 
3496.000000	65.038132 
3495.000000	65.026950 
3494.000000	65.022969 
3493.000000	65.026021 
3492.000000	65.034747 
3491.000000	65.047454 
3490.000000	65.062093 
3489.000000	65.077161 
3488.000000	65.091013 
3487.000000	65.102243 
3486.000000	65.109348 
3485.000000	65.110898 
3484.000000	65.105891 
3483.000000	65.093684 
3482.000000	65.074515 
3481.000000	65.050053 
3480.000000	65.022897 
3479.000000	64.996314 
3478.000000	64.973807 
3477.000000	64.958357 
3476.000000	64.952063 
3475.000000	64.955735 
3474.000000	64.968800 
3473.000000	64.989590 
3472.000000	65.015530 
3471.000000	65.043926 
3470.000000	65.072131 
3469.000000	65.097928 
3468.000000	65.119647 
3467.000000	65.136528 
3466.000000	65.148234 
3465.000000	65.154957 
3464.000000	65.157318 
3463.000000	65.156245 
3462.000000	65.152812 
3461.000000	65.148138 
3460.000000	65.143465 
3459.000000	65.139842 
3458.000000	65.138101 
3457.000000	65.138959 
3456.000000	65.142893 
3455.000000	65.150165 
3454.000000	65.160489 
3453.000000	65.173316 
3452.000000	65.187525 
3451.000000	65.201854 
3450.000000	65.214896 
3449.000000	65.225505 
3448.000000	65.233111 
3447.000000	65.237927 
3446.000000	65.241098 
3445.000000	65.244245 
3444.000000	65.248918 
3443.000000	65.256118 
3442.000000	65.265560 
3441.000000	65.275287 
3440.000000	65.282011 
3439.000000	65.281414 
3438.000000	65.269446 
3437.000000	65.243506 
3436.000000	65.203380 
3435.000000	65.151643 
3434.000000	65.093207 
3433.000000	65.034389 
3432.000000	64.981245 
3431.000000	64.938521 
3430.000000	64.908480 
3429.000000	64.890432 
3428.000000	64.881539 
3427.000000	64.877557 
3426.000000	64.874577 
3425.000000	64.869856 
3424.000000	64.862990 
3423.000000	64.855408 
3422.000000	64.850091 
3421.000000	64.850115 
3420.000000	64.857745 
3419.000000	64.873290 
3418.000000	64.895319 
3417.000000	64.920735 
3416.000000	64.945626 
3415.000000	64.966082 
3414.000000	64.978981 
3413.000000	64.982676 
3412.000000	64.977002 
3411.000000	64.963436 
3410.000000	64.944577 
3409.000000	64.923858 
3408.000000	64.905142 
3407.000000	64.891958 
3406.000000	64.887189 
3405.000000	64.892125 
3404.000000	64.906859 
3403.000000	64.929771 
3402.000000	64.957904 
3401.000000	64.987778 
3400.000000	65.015792 
3399.000000	65.039706 
3398.000000	65.058588 
3397.000000	65.073442 
3396.000000	65.086746 
3395.000000	65.101337 
3394.000000	65.119433 
3393.000000	65.141487 
3392.000000	65.165877 
3391.000000	65.188884 
3390.000000	65.205931 
3389.000000	65.212583 
3388.000000	65.206241 
3387.000000	65.186738 
3386.000000	65.156960 
3385.000000	65.122199 
3384.000000	65.088796 
3383.000000	65.062856 
3382.000000	65.048527 
3381.000000	65.047144 
3380.000000	65.056800 
3379.000000	65.073180 
3378.000000	65.090417 
3377.000000	65.102863 
3376.000000	65.106368 
3375.000000	65.098953 
3374.000000	65.081429 
3373.000000	65.056586 
3372.000000	65.028977 
3371.000000	65.003514 
3370.000000	64.984631 
3369.000000	64.975166 
3368.000000	64.975905 
3367.000000	64.985728 
3366.000000	65.001511 
3365.000000	65.019226 
3364.000000	65.034747 
3363.000000	65.044784 
3362.000000	65.047430 
3361.000000	65.042519 
3360.000000	65.031647 
3359.000000	65.017628 
3358.000000	65.003824 
3357.000000	64.993262 
3356.000000	64.987874 
3355.000000	64.988136 
3354.000000	64.993047 
3353.000000	65.000391 
3352.000000	65.007591 
3351.000000	65.012145 
3350.000000	65.012645 
3349.000000	65.008974 
3348.000000	65.002179 
3347.000000	64.994502 
3346.000000	64.988231 
3345.000000	64.985680 
3344.000000	64.988255 
3343.000000	64.996480 
3342.000000	65.009856 
3341.000000	65.026712 
3340.000000	65.044546 
3339.000000	65.060687 
3338.000000	65.072894 
3337.000000	65.079736 
3336.000000	65.080809 
3335.000000	65.077042 
3334.000000	65.070343 
3333.000000	65.063333 
3332.000000	65.058636 
3331.000000	65.058326 
3330.000000	65.063118 
3329.000000	65.072441 
3328.000000	65.084171 
3327.000000	65.095376 
3326.000000	65.102624 
3325.000000	65.102982 
3324.000000	65.094685 
3323.000000	65.077519 
3322.000000	65.053057 
3321.000000	65.024304 
3320.000000	64.995265 
3319.000000	64.969992 
3318.000000	64.952135 
3317.000000	64.944458 
3316.000000	64.948177 
3315.000000	64.962959 
3314.000000	64.987015 
3313.000000	65.017318 
3312.000000	65.050339 
3311.000000	65.082311 
3310.000000	65.109848 
3309.000000	65.130281 
3308.000000	65.142107 
3307.000000	65.144944 
3306.000000	65.139675 
3305.000000	65.127921 
3304.000000	65.112018 
3303.000000	65.094351 
3302.000000	65.077090 
3301.000000	65.061974 
3300.000000	65.050148 
3299.000000	65.042138 
3298.000000	65.038299 
3297.000000	65.038442 
3296.000000	65.042352 
3295.000000	65.049219 
3294.000000	65.057945 
3293.000000	65.066719 
3292.000000	65.073347 
3291.000000	65.075564 
3290.000000	65.071296 
3289.000000	65.059614 
3288.000000	65.040707 
3287.000000	65.016555 
3286.000000	64.990401 
3285.000000	64.966487 
3284.000000	64.949059 
3283.000000	64.941668 
3282.000000	64.946341 
3281.000000	64.963054 
3280.000000	64.989829 
3279.000000	65.023064 
3278.000000	65.058279 
3277.000000	65.090799 
3276.000000	65.116620 
3275.000000	65.132927 
3274.000000	65.138602 
3273.000000	65.133810 
3272.000000	65.120196 
3271.000000	65.100169 
3270.000000	65.076637 
3269.000000	65.052890 
3268.000000	65.031743 
3267.000000	65.015649 
3266.000000	65.005946 
3265.000000	65.003228 
3264.000000	65.006661 
3263.000000	65.014219 
3262.000000	65.022993 
3261.000000	65.029668 
3260.000000	65.031385 
3259.000000	65.026283 
3258.000000	65.014386 
3257.000000	64.997100 
3256.000000	64.977407 
3255.000000	64.958977 
3254.000000	64.945244 
3253.000000	64.938497 
3252.000000	64.939284 
3251.000000	64.946508 
3250.000000	64.957642 
3249.000000	64.969563 
3248.000000	64.979219 
3247.000000	64.984750 
3246.000000	64.985442 
3245.000000	64.982271 
3244.000000	64.977264 
3243.000000	64.973020 
3242.000000	64.971947 
3241.000000	64.975643 
3240.000000	64.984631 
3239.000000	64.998292 
3238.000000	65.015482 
3237.000000	65.034413 
3236.000000	65.053224 
3235.000000	65.070199 
3234.000000	65.084052 
3233.000000	65.093779 
3232.000000	65.098834 
3231.000000	65.098810 
3230.000000	65.093517 
3229.000000	65.083169 
3228.000000	65.068650 
3227.000000	65.051317 
3226.000000	65.033221 
3225.000000	65.016913 
3224.000000	65.005254 
3223.000000	65.000700 
3222.000000	65.004849 
3221.000000	65.017986 
3220.000000	65.038895 
3219.000000	65.064930 
3218.000000	65.092802 
3217.000000	65.119075 
3216.000000	65.141057 
3215.000000	65.157175 
3214.000000	65.167379 
3213.000000	65.172743 
3212.000000	65.175223 
3211.000000	65.176868 
3210.000000	65.179109 
3209.000000	65.182375 
3208.000000	65.185761 
3207.000000	65.187692 
3206.000000	65.185904 
3205.000000	65.178632 
3204.000000	65.164422 
3203.000000	65.142869 
3202.000000	65.114164 
3201.000000	65.079236 
3200.000000	65.039372 
3199.000000	64.996147 
3198.000000	64.951372 
3197.000000	64.907145 
3196.000000	64.866113 
3195.000000	64.831233 
3194.000000	64.805340 
3193.000000	64.790725 
3192.000000	64.788389 
3191.000000	64.797925 
3190.000000	64.817261 
3189.000000	64.843249 
3188.000000	64.871788 
3187.000000	64.899396 
3186.000000	64.923739 
3185.000000	64.943861 
3184.000000	64.960312 
3183.000000	64.974236 
3182.000000	64.986824 
3181.000000	64.998102 
3180.000000	65.006756 
3179.000000	65.010070 
3178.000000	65.004706 
3177.000000	64.987969 
3176.000000	64.958930 
3175.000000	64.919447 
3174.000000	64.874172 
3173.000000	64.829993 
3172.000000	64.794611 
3171.000000	64.774680 
3170.000000	64.774250 
3169.000000	64.793872 
3168.000000	64.830350 
3167.000000	64.877367 
3166.000000	64.926838 
3165.000000	64.971041 
3164.000000	65.004134 
3163.000000	65.023016 
3162.000000	65.027904 
3161.000000	65.021395 
3160.000000	65.007829 
3159.000000	64.991998 
3158.000000	64.978003 
3157.000000	64.968442 
3156.000000	64.964175 
3155.000000	64.964771 
3154.000000	64.968395 
3153.000000	64.973449 
3152.000000	64.978003 
3151.000000	64.980459 
3150.000000	64.979600 
3149.000000	64.974689 
3148.000000	64.965462 
3147.000000	64.951992 
3146.000000	64.935255 
3145.000000	64.917111 
3144.000000	64.900422 
3143.000000	64.888572 
3142.000000	64.885234 
3141.000000	64.893221 
3140.000000	64.913821 
3139.000000	64.945840 
3138.000000	64.985537 
3137.000000	65.026807 
3136.000000	65.062284 
3135.000000	65.084886 
3134.000000	65.088987 
3133.000000	65.072321 
3132.000000	65.036606 
3131.000000	64.987850 
3130.000000	64.934778 
3129.000000	64.887714 
3128.000000	64.856219 
3127.000000	64.847230 
3126.000000	64.863848 
3125.000000	64.904475 
3124.000000	64.963626 
3123.000000	65.033125 
3122.000000	65.103936 
3121.000000	65.168380 
3120.000000	65.221333 
3119.000000	65.260791 
3118.000000	65.287733 
3117.000000	65.304970 
3116.000000	65.315675 
3115.000000	65.322637 
3114.000000	65.326905 
3113.000000	65.328192 
3112.000000	65.324902 
3111.000000	65.315604 
3110.000000	65.299248 
3109.000000	65.276217 
3108.000000	65.247941 
3107.000000	65.217065 
3106.000000	65.186572 
3105.000000	65.159249 
3104.000000	65.137267 
3103.000000	65.121483 
3102.000000	65.111899 
3101.000000	65.107750 
3100.000000	65.107870 
3099.000000	65.111136 
3098.000000	65.116238 
3097.000000	65.121865 
3096.000000	65.126585 
3095.000000	65.129017 
3094.000000	65.128278 
3093.000000	65.123844 
3092.000000	65.116024 
3091.000000	65.105819 
3090.000000	65.095162 
3089.000000	65.086221 
3088.000000	65.080738 
3087.000000	65.079689 
3086.000000	65.082907 
3085.000000	65.089321 
3084.000000	65.097022 
3083.000000	65.104007 
3082.000000	65.108585 
3081.000000	65.109920 
3080.000000	65.108227 
3079.000000	65.104556 
3078.000000	65.100359 
3077.000000	65.097069 
3076.000000	65.095543 
3075.000000	65.096163 
3074.000000	65.098714 
3073.000000	65.102791 
3072.000000	65.108108 
3071.000000	65.114593 
3070.000000	65.122461 
3069.000000	65.132188 
3068.000000	65.144133 
3067.000000	65.158414 
3066.000000	65.174794 
3065.000000	65.192627 
3064.000000	65.210962 
3063.000000	65.228629 
3062.000000	65.244293 
3061.000000	65.256881 
3060.000000	65.265464 
3059.000000	65.269327 
3058.000000	65.267992 
3057.000000	65.261268 
3056.000000	65.249443 
3055.000000	65.233325 
3054.000000	65.214037 
3053.000000	65.193295 
3052.000000	65.172839 
3051.000000	65.154218 
3050.000000	65.138292 
3049.000000	65.125203 
3048.000000	65.114378 
3047.000000	65.104722 
3046.000000	65.095043 
3045.000000	65.084457 
3044.000000	65.072679 
3043.000000	65.060257 
3042.000000	65.048527 
3041.000000	65.039110 
3040.000000	65.033721 
3039.000000	65.033602 
3038.000000	65.039277 
3037.000000	65.050292 
3036.000000	65.065526 
3035.000000	65.083265 
3034.000000	65.101647 
3033.000000	65.118908 
3032.000000	65.133690 
3031.000000	65.145182 
3030.000000	65.153145 
3029.000000	65.157842 
3028.000000	65.160155 
3027.000000	65.161085 
3026.000000	65.161967 
3025.000000	65.163612 
3024.000000	65.166497 
3023.000000	65.170192 
3022.000000	65.173768 
3021.000000	65.175771 
3020.000000	65.174770 
3019.000000	65.169858 
3018.000000	65.160965 
3017.000000	65.148973 
3016.000000	65.135645 
3015.000000	65.123271 
3014.000000	65.113973 
3013.000000	65.109181 
3012.000000	65.109252 
3011.000000	65.113306 
3010.000000	65.119552 
3009.000000	65.125775 
3008.000000	65.129971 
3007.000000	65.131115 
3006.000000	65.129184 
3005.000000	65.125322 
3004.000000	65.121197 
3003.000000	65.118503 
3002.000000	65.118241 
3001.000000	65.120697 
3000.000000	65.124893 
2999.000000	65.129280 
2998.000000	65.131759 
2997.000000	65.130639 
2996.000000	65.124773 
2995.000000	65.114068 
2994.000000	65.099477 
2993.000000	65.082716 
2992.000000	65.065765 
2991.000000	65.050578 
2990.000000	65.038561 
2989.000000	65.030360 
2988.000000	65.025854 
2987.000000	65.024280 
2986.000000	65.024447 
2985.000000	65.025210 
2984.000000	65.025544 
2983.000000	65.024805 
2982.000000	65.022635 
2981.000000	65.019178 
2980.000000	65.014767 
2979.000000	65.009808 
2978.000000	65.004730 
2977.000000	64.999890 
2976.000000	64.995479 
2975.000000	64.991545 
2974.000000	64.987921 
2973.000000	64.984321 
2972.000000	64.980459 
2971.000000	64.976167 
2970.000000	64.971280 
2969.000000	64.965987 
2968.000000	64.960789 
2967.000000	64.956355 
2966.000000	64.953374 
2965.000000	64.952421 
2964.000000	64.953756 
2963.000000	64.957237 
2962.000000	64.962148 
2961.000000	64.967322 
2960.000000	64.971566 
2959.000000	64.973759 
2958.000000	64.973139 
2957.000000	64.969682 
2956.000000	64.963865 
2955.000000	64.956569 
2954.000000	64.948892 
2953.000000	64.941716 
2952.000000	64.935684 
2951.000000	64.931082 
2950.000000	64.928174 
2949.000000	64.927148 
2948.000000	64.928150 
2947.000000	64.931631 
2946.000000	64.938139 
2945.000000	64.947986 
2944.000000	64.961409 
2943.000000	64.978170 
2942.000000	64.997625 
2941.000000	65.018534 
2940.000000	65.039110 
2939.000000	65.057730 
2938.000000	65.072655 
2937.000000	65.082645 
2936.000000	65.086984 
2935.000000	65.085697 
2934.000000	65.079450 
2933.000000	65.069460 
2932.000000	65.057158 
2931.000000	65.043997 
2930.000000	65.031147 
2929.000000	65.019392 
2928.000000	65.008974 
2927.000000	64.999651 
2926.000000	64.990973 
2925.000000	64.982533 
2924.000000	64.974069 
2923.000000	64.965558 
2922.000000	64.957475 
2921.000000	64.950203 
2920.000000	64.943981 
2919.000000	64.938497 
2918.000000	64.932751 
2917.000000	64.925098 
2916.000000	64.913678 
2915.000000	64.896869 
2914.000000	64.873766 
2913.000000	64.844822 
2912.000000	64.811825 
2911.000000	64.778137 
2910.000000	64.747548 
2909.000000	64.724373 
2908.000000	64.712262 
2907.000000	64.713621 
2906.000000	64.728879 
2905.000000	64.756846 
2904.000000	64.794659 
2903.000000	64.838552 
2902.000000	64.884424 
2901.000000	64.928650 
2900.000000	64.968514 
2899.000000	65.002441 
2898.000000	65.029811 
2897.000000	65.050625 
2896.000000	65.064978 
2895.000000	65.073060 
2894.000000	65.074849 
2893.000000	65.070462 
2892.000000	65.060162 
2891.000000	65.045070 
2890.000000	65.027213 
2889.000000	65.009593 
2888.000000	64.995312 
2887.000000	64.987635 
2886.000000	64.988398 
2885.000000	64.997649 
2884.000000	65.013289 
2883.000000	65.031599 
2882.000000	65.047979 
2881.000000	65.058064 
2880.000000	65.058946 
2879.000000	65.049910 
2878.000000	65.032505 
2877.000000	65.009975 
2876.000000	64.986491 
2875.000000	64.966034 
2874.000000	64.951443 
2873.000000	64.943790 
2872.000000	64.942526 
2871.000000	64.945864 
2870.000000	64.951562 
2869.000000	64.957737 
2868.000000	64.963102 
2867.000000	64.967226 
2866.000000	64.970135 
2865.000000	64.972066 
2864.000000	64.972853 
2863.000000	64.972066 
2862.000000	64.969420 
2861.000000	64.964818 
2860.000000	64.958834 
2859.000000	64.952516 
2858.000000	64.947295 
2857.000000	64.944577 
2856.000000	64.945268 
2855.000000	64.949512 
2854.000000	64.956593 
2853.000000	64.965391 
2852.000000	64.974427 
2851.000000	64.982867 
2850.000000	64.990520 
2849.000000	64.998102 
2848.000000	65.007042 
2847.000000	65.019202 
2846.000000	65.036177 
2845.000000	65.058970 
2844.000000	65.087366 
2843.000000	65.120077 
2842.000000	65.154647 
2841.000000	65.188145 
2840.000000	65.217113 
2839.000000	65.238451 
2838.000000	65.249252 
2837.000000	65.247678 
2836.000000	65.232920 
2835.000000	65.205836 
2834.000000	65.168547 
2833.000000	65.124726 
2832.000000	65.078783 
2831.000000	65.035605 
2830.000000	64.999604 
2829.000000	64.974188 
2828.000000	64.961409 
2827.000000	64.961814 
2826.000000	64.974355 
2825.000000	64.996743 
2824.000000	65.025734 
2823.000000	65.057921 
2822.000000	65.089774 
2821.000000	65.118384 
2820.000000	65.141320 
2819.000000	65.157055 
2818.000000	65.164995 
2817.000000	65.165328 
2816.000000	65.159273 
2815.000000	65.148377 
2814.000000	65.134882 
2813.000000	65.120959 
2812.000000	65.108609 
2811.000000	65.099191 
2810.000000	65.093302 
2809.000000	65.090608 
2808.000000	65.090298 
2807.000000	65.090894 
2806.000000	65.090823 
2805.000000	65.088415 
2804.000000	65.082383 
2803.000000	65.071892 
2802.000000	65.056610 
2801.000000	65.037107 
2800.000000	65.014457 
2799.000000	64.990687 
2798.000000	64.968323 
2797.000000	64.950275 
2796.000000	64.939212 
2795.000000	64.937257 
2794.000000	64.945626 
2793.000000	64.964270 
2792.000000	64.991927 
2791.000000	65.025997 
2790.000000	65.063071 
2789.000000	65.099477 
2788.000000	65.131807 
2787.000000	65.157437 
2786.000000	65.174746 
2785.000000	65.183186 
2784.000000	65.183138 
2783.000000	65.176010 
2782.000000	65.163373 
2781.000000	65.147113 
2780.000000	65.128588 
2779.000000	65.109252 
2778.000000	65.089893 
2777.000000	65.071058 
2776.000000	65.053033 
2775.000000	65.036034 
2774.000000	65.020680 
2773.000000	65.007996 
2772.000000	64.999532 
2771.000000	64.996790 
2770.000000	65.001296 
2769.000000	65.013837 
2768.000000	65.034294 
2767.000000	65.061378 
2766.000000	65.092897 
2765.000000	65.125989 
2764.000000	65.157580 
2763.000000	65.185236 
2762.000000	65.207505 
2761.000000	65.224123 
2760.000000	65.235972 
2759.000000	65.244650 
2758.000000	65.251922 
2757.000000	65.259122 
2756.000000	65.266847 
2755.000000	65.274596 
2754.000000	65.281319 
2753.000000	65.285325 
2752.000000	65.285325 
2751.000000	65.280222 
2750.000000	65.269827 
2749.000000	65.254664 
2748.000000	65.235972 
2747.000000	65.215563 
2746.000000	65.195393 
2745.000000	65.177440 
2744.000000	65.163397 
2743.000000	65.154218 
2742.000000	65.150260 
2741.000000	65.150976 
2740.000000	65.155172 
2739.000000	65.161108 
2738.000000	65.166926 
2737.000000	65.170812 
2736.000000	65.171527 
2735.000000	65.168619 
2734.000000	65.162682 
2733.000000	65.155076 
2732.000000	65.147495 
2731.000000	65.141844 
2730.000000	65.139412 
2729.000000	65.140843 
2728.000000	65.145874 
2727.000000	65.153336 
2726.000000	65.161466 
2725.000000	65.168666 
2724.000000	65.173554 
2723.000000	65.175414 
2722.000000	65.174174 
2721.000000	65.170407 
2720.000000	65.165019 
2719.000000	65.158915 
2718.000000	65.152764 
2717.000000	65.146803 
2716.000000	65.141034 
2715.000000	65.135073 
2714.000000	65.128564 
2713.000000	65.121221 
2712.000000	65.112996 
2711.000000	65.104126 
2710.000000	65.094685 
2709.000000	65.085077 
2708.000000	65.075612 
2707.000000	65.067052 
2706.000000	65.060091 
2705.000000	65.055966 
2704.000000	65.056204 
2703.000000	65.062665 
2702.000000	65.077042 
2701.000000	65.100502 
2700.000000	65.133142 
2699.000000	65.173888 
2698.000000	65.220141 
2697.000000	65.268135 
2696.000000	65.313434 
2695.000000	65.351629 
2694.000000	65.379261 
2693.000000	65.394306 
2692.000000	65.396475 
2691.000000	65.387225 
2690.000000	65.369367 
2689.000000	65.346217 
2688.000000	65.320968 
2687.000000	65.296101 
2686.000000	65.272951 
2685.000000	65.251684 
2684.000000	65.231490 
2683.000000	65.211272 
2682.000000	65.190148 
2681.000000	65.167880 
2680.000000	65.145182 
2679.000000	65.123343 
2678.000000	65.104222 
2677.000000	65.089201 
2676.000000	65.079426 
2675.000000	65.075016 
2674.000000	65.075492 
2673.000000	65.079903 
2672.000000	65.087342 
2671.000000	65.097093 
2670.000000	65.108776 
2669.000000	65.122318 
2668.000000	65.137624 
2667.000000	65.154075 
2666.000000	65.170526 
2665.000000	65.185356 
2664.000000	65.196704 
2663.000000	65.202975 
2662.000000	65.203237 
2661.000000	65.197801 
2660.000000	65.188241 
2659.000000	65.176939 
2658.000000	65.166521 
2657.000000	65.158891 
2656.000000	65.155148 
2655.000000	65.155196 
2654.000000	65.157890 
2653.000000	65.161585 
2652.000000	65.164780 
2651.000000	65.166711 
2650.000000	65.167093 
2649.000000	65.166592 
2648.000000	65.166163 
2647.000000	65.166807 
2646.000000	65.169143 
2645.000000	65.173530 
2644.000000	65.179729 
2643.000000	65.187168 
2642.000000	65.195417 
2641.000000	65.204048 
2640.000000	65.212917 
2639.000000	65.222072 
2638.000000	65.231823 
2637.000000	65.242457 
2636.000000	65.253925 
2635.000000	65.266108 
2634.000000	65.278649 
2633.000000	65.291237 
2632.000000	65.303444 
2631.000000	65.314960 
2630.000000	65.325427 
2629.000000	65.334606 
2628.000000	65.342044 
2627.000000	65.347456 
2626.000000	65.350317 
2625.000000	65.350437 
2624.000000	65.347647 
2623.000000	65.341997 
2622.000000	65.333557 
2621.000000	65.322661 
2620.000000	65.309596 
2619.000000	65.294814 
2618.000000	65.278792 
2617.000000	65.262007 
2616.000000	65.244793 
2615.000000	65.227413 
2614.000000	65.209984 
2613.000000	65.192604 
2612.000000	65.175509 
2611.000000	65.159010 
2610.000000	65.143656 
2609.000000	65.129923 
2608.000000	65.118432 
2607.000000	65.109705 
2606.000000	65.104079 
2605.000000	65.101599 
2604.000000	65.102410 
2603.000000	65.106773 
2602.000000	65.114998 
2601.000000	65.127515 
2600.000000	65.144586 
2599.000000	65.166163 
2598.000000	65.191459 
2597.000000	65.218901 
2596.000000	65.246009 
2595.000000	65.269851 
2594.000000	65.287423 
2593.000000	65.296339 
2592.000000	65.295433 
2591.000000	65.285062 
2590.000000	65.267395 
2589.000000	65.245652 
2588.000000	65.223908 
2587.000000	65.205740 
2586.000000	65.193915 
2585.000000	65.189456 
2584.000000	65.191721 
2583.000000	65.198588 
2582.000000	65.207052 
2581.000000	65.214014 
2580.000000	65.217041 
2579.000000	65.214943 
2578.000000	65.207958 
2577.000000	65.197348 
2576.000000	65.185117 
2575.000000	65.173387 
2574.000000	65.163898 
2573.000000	65.157866 
2572.000000	65.155935 
2571.000000	65.158128 
2570.000000	65.164017 
2569.000000	65.172815 
2568.000000	65.183687 
2567.000000	65.195536 
2566.000000	65.207552 
2565.000000	65.219426 
2564.000000	65.231156 
2563.000000	65.243005 
2562.000000	65.254902 
2561.000000	65.266466 
2560.000000	65.276455 
2559.000000	65.283083 
2558.000000	65.284562 
2557.000000	65.279746 
2556.000000	65.268540 
2555.000000	65.252470 
2554.000000	65.234279 
2553.000000	65.217375 
2552.000000	65.205121 
2551.000000	65.199947 
2550.000000	65.202927 
2549.000000	65.213513 
2548.000000	65.229868 
2547.000000	65.249204 
2546.000000	65.268468 
2545.000000	65.285086 
2544.000000	65.297365 
2543.000000	65.304660 
2542.000000	65.307068 
2541.000000	65.305280 
2540.000000	65.300083 
2539.000000	65.292239 
2538.000000	65.282464 
2537.000000	65.271282 
2536.000000	65.259242 
2535.000000	65.246891 
2534.000000	65.234971 
2533.000000	65.224289 
2532.000000	65.215444 
2531.000000	65.208935 
2530.000000	65.205121 
2529.000000	65.204024 
2528.000000	65.205478 
2527.000000	65.208959 
2526.000000	65.213894 
2525.000000	65.219688 
2524.000000	65.225911 
2523.000000	65.232157 
2522.000000	65.238332 
2521.000000	65.244483 
2520.000000	65.250849 
2519.000000	65.257740 
2518.000000	65.265130 
2517.000000	65.272831 
2516.000000	65.279984 
2515.000000	65.285325 
2514.000000	65.287017 
2513.000000	65.283203 
2512.000000	65.272402 
2511.000000	65.254044 
2510.000000	65.228748 
2509.000000	65.198397 
2508.000000	65.165472 
2507.000000	65.132761 
2506.000000	65.102458 
2505.000000	65.075826 
2504.000000	65.053296 
2503.000000	65.034294 
2502.000000	65.018153 
2501.000000	65.004467 
2500.000000	64.993596 
2499.000000	64.986753 
2498.000000	64.985728 
2497.000000	64.992260 
2496.000000	65.007233 
2495.000000	65.029907 
2494.000000	65.057921 
2493.000000	65.087509 
2492.000000	65.114021 
2491.000000	65.133166 
2490.000000	65.141820 
2489.000000	65.138912 
2488.000000	65.125393 
2487.000000	65.104174 
2486.000000	65.079236 
2485.000000	65.054869 
2484.000000	65.034937 
2483.000000	65.021991 
2482.000000	65.017414 
2481.000000	65.020799 
2480.000000	65.030717 
2479.000000	65.044713 
2478.000000	65.060448 
2477.000000	65.075778 
2476.000000	65.089035 
2475.000000	65.099477 
2474.000000	65.107202 
2473.000000	65.112972 
2472.000000	65.117907 
2471.000000	65.123391 
2470.000000	65.130615 
2469.000000	65.140414 
2468.000000	65.153002 
2467.000000	65.167999 
2466.000000	65.184378 
2465.000000	65.200567 
2464.000000	65.214705 
2463.000000	65.225052 
2462.000000	65.229940 
2461.000000	65.228271 
2460.000000	65.219640 
2459.000000	65.204405 
2458.000000	65.184116 
2457.000000	65.161180 
2456.000000	65.138936 
2455.000000	65.120983 
2454.000000	65.110635 
2453.000000	65.110516 
2452.000000	65.121698 
2451.000000	65.143632 
2450.000000	65.173912 
2449.000000	65.208792 
2448.000000	65.243554 
2447.000000	65.273332 
2446.000000	65.293931 
2445.000000	65.302824 
2444.000000	65.298914 
2443.000000	65.282773 
2442.000000	65.256381 
2441.000000	65.222716 
2440.000000	65.185236 
2439.000000	65.147852 
2438.000000	65.114498 
2437.000000	65.088677 
2436.000000	65.073919 
2435.000000	65.072512 
2434.000000	65.085411 
2433.000000	65.111279 
2432.000000	65.146827 
2431.000000	65.186572 
2430.000000	65.223455 
2429.000000	65.250325 
2428.000000	65.261149 
2427.000000	65.252184 
2426.000000	65.223026 
2425.000000	65.176415 
2424.000000	65.118074 
2423.000000	65.054702 
2422.000000	64.992618 
2421.000000	64.936375 
2420.000000	64.888167 
2419.000000	64.847993 
2418.000000	64.814400 
2417.000000	64.785695 
2416.000000	64.760994 
2415.000000	64.740991 
2414.000000	64.728093 
2413.000000	64.725303 
2412.000000	64.735627 
2411.000000	64.760923 
2410.000000	64.801573 
2409.000000	64.855504 
2408.000000	64.918971 
2407.000000	64.986944 
2406.000000	65.053939 
2405.000000	65.115189 
2404.000000	65.167069 
2403.000000	65.207481 
2402.000000	65.235757 
2401.000000	65.252614 
2400.000000	65.259695 
2399.000000	65.259313 
2398.000000	65.253877 
2397.000000	65.245914 
2396.000000	65.237355 
2395.000000	65.229630 
2394.000000	65.223479 
2393.000000	65.219330 
2392.000000	65.217041 
2391.000000	65.216255 
2390.000000	65.216708 
2389.000000	65.218424 
2388.000000	65.221548 
2387.000000	65.226173 
2386.000000	65.232324 
2385.000000	65.239787 
2384.000000	65.247964 
2383.000000	65.256190 
2382.000000	65.263462 
2381.000000	65.269112 
2380.000000	65.272736 
2379.000000	65.274620 
2378.000000	65.275335 
2377.000000	65.275859 
2376.000000	65.277385 
2375.000000	65.280961 
2374.000000	65.286803 
2373.000000	65.294575 
2372.000000	65.303659 
2371.000000	65.313220 
2370.000000	65.322351 
2369.000000	65.330266 
2368.000000	65.336656 
2367.000000	65.341496 
2366.000000	65.345120 
2365.000000	65.347862 
2364.000000	65.349817 
2363.000000	65.350985 
2362.000000	65.351009 
2361.000000	65.349435 
2360.000000	65.345668 
2359.000000	65.339231 
2358.000000	65.329837 
2357.000000	65.317606 
2356.000000	65.302824 
2355.000000	65.286016 
2354.000000	65.267634 
2353.000000	65.248036 
2352.000000	65.227127 
2351.000000	65.204715 
2350.000000	65.180563 
2349.000000	65.154576 
2348.000000	65.127348 
2347.000000	65.099930 
2346.000000	65.074133 
2345.000000	65.052151 
2344.000000	65.036416 
2343.000000	65.028882 
2342.000000	65.031027 
2341.000000	65.043258 
2340.000000	65.065002 
2339.000000	65.094423 
2338.000000	65.129017 
2337.000000	65.165710 
2336.000000	65.201282 
2335.000000	65.232896 
2334.000000	65.258264 
2333.000000	65.275835 
2332.000000	65.284967 
2331.000000	65.285968 
2330.000000	65.279912 
2329.000000	65.268540 
2328.000000	65.253996 
2327.000000	65.238380 
2326.000000	65.223622 
2325.000000	65.211129 
2324.000000	65.201687 
2323.000000	65.195727 
2322.000000	65.193176 
2321.000000	65.193796 
2320.000000	65.197253 
2319.000000	65.203261 
2318.000000	65.211296 
2317.000000	65.220856 
2316.000000	65.231156 
2315.000000	65.241456 
2314.000000	65.250897 
2313.000000	65.258979 
2312.000000	65.265488 
2311.000000	65.270829 
2310.000000	65.275597 
2309.000000	65.280652 
2308.000000	65.286707 
2307.000000	65.293908 
2306.000000	65.301728 
2305.000000	65.308785 
2304.000000	65.313220 
2303.000000	65.313053 
2302.000000	65.306735 
2301.000000	65.293741 
2300.000000	65.274453 
2299.000000	65.250349 
2298.000000	65.223813 
2297.000000	65.197515 
2296.000000	65.174221 
2295.000000	65.155935 
2294.000000	65.143966 
2293.000000	65.138649 
2292.000000	65.139579 
2291.000000	65.145754 
2290.000000	65.155863 
2289.000000	65.168285 
2288.000000	65.181922 
2287.000000	65.195894 
2286.000000	65.209770 
2285.000000	65.223240 
2284.000000	65.236353 
2283.000000	65.249109 
2282.000000	65.261435 
2281.000000	65.272998 
2280.000000	65.283274 
2279.000000	65.291547 
2278.000000	65.297102 
2277.000000	65.299391 
2276.000000	65.298366 
2275.000000	65.294504 
2274.000000	65.288901 
2273.000000	65.282964 
2272.000000	65.278458 
2271.000000	65.276741 
2270.000000	65.278744 
2269.000000	65.284609 
2268.000000	65.293717 
2267.000000	65.304517 
2266.000000	65.315127 
2265.000000	65.323281 
2264.000000	65.327095 
2263.000000	65.325140 
2262.000000	65.316772 
2261.000000	65.302491 
2260.000000	65.283513 
2259.000000	65.262103 
2258.000000	65.240812 
2257.000000	65.222430 
2256.000000	65.209531 
2255.000000	65.204000 
2254.000000	65.206789 
2253.000000	65.217757 
2252.000000	65.235638 
2251.000000	65.258240 
2250.000000	65.282845 
2249.000000	65.306687 
2248.000000	65.327024 
2247.000000	65.341973 
2246.000000	65.350151 
2245.000000	65.350818 
2244.000000	65.343570 
2243.000000	65.328454 
2242.000000	65.305900 
2241.000000	65.276360 
2240.000000	65.240859 
2239.000000	65.201067 
2238.000000	65.159296 
2237.000000	65.118575 
2236.000000	65.082144 
2235.000000	65.053153 
2234.000000	65.034198 
2233.000000	65.026760 
2232.000000	65.030908 
2231.000000	65.045166 
2230.000000	65.066838 
2229.000000	65.092539 
2228.000000	65.118861 
2227.000000	65.143013 
2226.000000	65.163302 
2225.000000	65.179252 
2224.000000	65.191507 
2223.000000	65.201520 
2222.000000	65.211200 
2221.000000	65.222215 
2220.000000	65.235757 
2219.000000	65.252017 
2218.000000	65.270471 
2217.000000	65.289926 
2216.000000	65.308856 
2215.000000	65.325713 
2214.000000	65.339350 
2213.000000	65.349173 
2212.000000	65.355134 
2211.000000	65.357565 
2210.000000	65.357065 
2209.000000	65.354204 
2208.000000	65.349483 
2207.000000	65.343284 
2206.000000	65.335988 
2205.000000	65.327930 
2204.000000	65.319919 
2203.000000	65.312767 
2202.000000	65.307188 
2201.000000	65.303683 
2200.000000	65.302395 
2199.000000	65.302777 
2198.000000	65.303921 
2197.000000	65.304470 
2196.000000	65.302920 
2195.000000	65.298151 
2194.000000	65.289783 
2193.000000	65.278124 
2192.000000	65.264177 
2191.000000	65.249514 
2190.000000	65.235972 
2189.000000	65.225195 
2188.000000	65.218257 
2187.000000	65.215611 
2186.000000	65.216946 
2185.000000	65.221381 
2184.000000	65.227746 
2183.000000	65.235018 
2182.000000	65.242338 
2181.000000	65.249156 
2180.000000	65.255188 
2179.000000	65.260267 
2178.000000	65.264439 
2177.000000	65.267610 
2176.000000	65.269517 
2175.000000	65.269708 
2174.000000	65.267729 
2173.000000	65.263390 
2172.000000	65.256714 
2171.000000	65.248084 
2170.000000	65.238308 
2169.000000	65.228700 
2168.000000	65.220642 
2167.000000	65.215682 
2166.000000	65.214991 
2165.000000	65.219521 
2164.000000	65.229630 
2163.000000	65.244936 
2162.000000	65.264534 
2161.000000	65.286397 
2160.000000	65.307736 
2159.000000	65.325403 
2158.000000	65.336203 
2157.000000	65.337729 
2156.000000	65.328741 
2155.000000	65.310049 
2154.000000	65.284156 
2153.000000	65.255165 
2152.000000	65.227890 
2151.000000	65.206980 
2150.000000	65.195989 
2149.000000	65.196967 
2148.000000	65.209960 
2147.000000	65.233325 
2146.000000	65.264058 
2145.000000	65.298509 
2144.000000	65.333008 
2143.000000	65.364146 
2142.000000	65.389204 
2141.000000	65.406250 
2140.000000	65.414094 
2139.000000	65.412235 
2138.000000	65.400743 
2137.000000	65.380835 
2136.000000	65.354275 
2135.000000	65.323925 
2134.000000	65.292906 
2133.000000	65.264582 
2132.000000	65.241765 
2131.000000	65.226411 
2130.000000	65.219449 
2129.000000	65.220665 
2128.000000	65.229082 
2127.000000	65.243005 
2126.000000	65.260624 
2125.000000	65.280175 
2124.000000	65.300107 
2123.000000	65.319156 
2122.000000	65.336227 
2121.000000	65.350246 
2120.000000	65.360331 
2119.000000	65.365719 
2118.000000	65.365791 
2117.000000	65.359950 
2116.000000	65.348100 
2115.000000	65.330529 
2114.000000	65.308213 
2113.000000	65.282440 
2112.000000	65.254688 
2111.000000	65.226554 
2110.000000	65.199780 
2109.000000	65.176105 
2108.000000	65.156650 
2107.000000	65.142321 
2106.000000	65.133404 
2105.000000	65.129780 
2104.000000	65.130639 
2103.000000	65.134882 
2102.000000	65.141010 
2101.000000	65.147757 
2100.000000	65.153837 
2099.000000	65.158534 
2098.000000	65.161514 
2097.000000	65.163397 
2096.000000	65.165328 
2095.000000	65.169215 
2094.000000	65.177059 
2093.000000	65.190815 
2092.000000	65.211677 
2091.000000	65.239715 
2090.000000	65.273284 
2089.000000	65.309238 
2088.000000	65.342926 
2087.000000	65.369033 
2086.000000	65.382313 
2085.000000	65.378761 
2084.000000	65.356349 
2083.000000	65.315580 
2082.000000	65.259337 
2081.000000	65.192914 
2080.000000	65.122556 
2079.000000	65.054488 
2078.000000	64.993786 
2077.000000	64.943981 
2076.000000	64.906764 
2075.000000	64.881992 
2074.000000	64.868879 
2073.000000	64.866089 
2072.000000	64.872789 
2071.000000	64.888215 
2070.000000	64.912104 
2069.000000	64.943599 
2068.000000	64.981412 
2067.000000	65.023064 
2066.000000	65.065240 
2065.000000	65.103888 
2064.000000	65.135073 
2063.000000	65.155792 
2062.000000	65.164589 
2061.000000	65.161991 
2060.000000	65.150284 
2059.000000	65.133142 
2058.000000	65.114951 
2057.000000	65.099596 
2056.000000	65.090274 
2055.000000	65.088629 
2054.000000	65.094947 
2053.000000	65.108013 
2052.000000	65.125799 
2051.000000	65.145707 
2050.000000	65.165305 
2049.000000	65.182709 
2048.000000	65.196537 
2047.000000	65.206551 
2046.000000	65.213108 
2045.000000	65.217375 
2044.000000	65.220475 
2043.000000	65.223789 
2042.000000	65.228462 
2041.000000	65.235352 
2040.000000	65.245008 
2039.000000	65.257453 
2038.000000	65.272307 
2037.000000	65.288710 
2036.000000	65.305542 
2035.000000	65.321350 
2034.000000	65.334534 
2033.000000	65.343809 
2032.000000	65.348339 
2031.000000	65.347862 
2030.000000	65.342688 
2029.000000	65.333771 
2028.000000	65.322256 
2027.000000	65.309476 
2026.000000	65.296316 
2025.000000	65.283465 
2024.000000	65.270924 
2023.000000	65.258383 
2022.000000	65.245532 
2021.000000	65.232372 
2020.000000	65.219378 
2019.000000	65.207314 
2018.000000	65.197372 
2017.000000	65.190768 
2016.000000	65.188407 
2015.000000	65.190434 
2014.000000	65.196204 
2013.000000	65.204429 
2012.000000	65.213370 
2011.000000	65.221095 
2010.000000	65.226101 
2009.000000	65.227508 
2008.000000	65.225219 
2007.000000	65.219998 
2006.000000	65.213394 
2005.000000	65.207290 
2004.000000	65.203595 
2003.000000	65.203666 
2002.000000	65.208196 
2001.000000	65.216469 
2000.000000	65.227103 
1999.000000	65.237784 
1998.000000	65.245842 
1997.000000	65.248966 
1996.000000	65.245723 
1995.000000	65.235924 
1994.000000	65.220928 
1993.000000	65.203332 
1992.000000	65.186643 
1991.000000	65.174293 
1990.000000	65.168833 
1989.000000	65.171337 
1988.000000	65.181326 
1987.000000	65.196728 
1986.000000	65.214490 
1985.000000	65.231394 
1984.000000	65.244746 
1983.000000	65.252971 
1982.000000	65.255904 
1981.000000	65.254640 
1980.000000	65.251088 
1979.000000	65.247392 
1978.000000	65.245485 
1977.000000	65.246772 
1976.000000	65.251708 
1975.000000	65.260076 
1974.000000	65.270829 
1973.000000	65.282821 
1972.000000	65.294599 
1971.000000	65.304756 
1970.000000	65.312027 
1969.000000	65.315341 
1968.000000	65.314340 
1967.000000	65.309286 
1966.000000	65.301275 
1965.000000	65.292000 
1964.000000	65.283346 
1963.000000	65.277028 
1962.000000	65.274071 
1961.000000	65.274548 
1960.000000	65.277552 
1959.000000	65.281391 
1958.000000	65.284132 
1957.000000	65.284228 
1956.000000	65.281033 
1955.000000	65.275239 
1954.000000	65.268588 
1953.000000	65.263509 
1952.000000	65.262532 
1951.000000	65.267372 
1950.000000	65.278601 
1949.000000	65.295267 
1948.000000	65.315341 
1947.000000	65.335774 
1946.000000	65.353584 
1945.000000	65.366125 
1944.000000	65.371561 
1943.000000	65.369033 
1942.000000	65.358757 
1941.000000	65.341711 
1940.000000	65.319752 
1939.000000	65.294885 
1938.000000	65.269374 
1937.000000	65.245199 
1936.000000	65.224075 
1935.000000	65.207004 
1934.000000	65.194320 
1933.000000	65.185618 
1932.000000	65.179991 
1931.000000	65.176200 
1930.000000	65.173172 
1929.000000	65.170073 
1928.000000	65.166878 
1927.000000	65.164184 
1926.000000	65.163016 
1925.000000	65.164518 
1924.000000	65.169572 
1923.000000	65.178275 
1922.000000	65.190148 
1921.000000	65.204071 
1920.000000	65.218782 
1919.000000	65.233111 
1918.000000	65.246200 
1917.000000	65.257811 
1916.000000	65.268063 
1915.000000	65.277171 
1914.000000	65.285158 
1913.000000	65.291810 
1912.000000	65.296316 
1911.000000	65.297770 
1910.000000	65.295171 
1909.000000	65.287876 
1908.000000	65.275979 
1907.000000	65.260505 
1906.000000	65.243291 
1905.000000	65.226602 
1904.000000	65.212774 
1903.000000	65.203666 
1902.000000	65.200400 
1901.000000	65.203094 
1900.000000	65.210914 
1899.000000	65.222311 
1898.000000	65.235376 
1897.000000	65.248179 
1896.000000	65.259075 
1895.000000	65.266847 
1894.000000	65.270829 
1893.000000	65.270924 
1892.000000	65.267348 
1891.000000	65.260910 
1890.000000	65.252518 
1889.000000	65.243387 
1888.000000	65.234851 
1887.000000	65.228390 
1886.000000	65.225481 
1885.000000	65.227174 
1884.000000	65.233969 
1883.000000	65.245366 
1882.000000	65.259861 
1881.000000	65.274858 
1880.000000	65.287303 
1879.000000	65.294098 
1878.000000	65.292835 
1877.000000	65.282297 
1876.000000	65.262913 
1875.000000	65.236520 
1874.000000	65.206289 
1873.000000	65.175938 
1872.000000	65.148925 
1871.000000	65.127944 
1870.000000	65.114641 
1869.000000	65.109133 
1868.000000	65.110468 
1867.000000	65.117096 
1866.000000	65.127325 
1865.000000	65.139460 
1864.000000	65.152478 
1863.000000	65.165424 
1862.000000	65.177989 
1861.000000	65.189671 
1860.000000	65.200519 
1859.000000	65.210270 
1858.000000	65.218973 
1857.000000	65.226864 
1856.000000	65.234208 
1855.000000	65.241146 
1854.000000	65.247583 
1853.000000	65.253186 
1852.000000	65.257120 
1851.000000	65.258193 
1850.000000	65.255188 
1849.000000	65.247058 
1848.000000	65.233302 
1847.000000	65.214180 
1846.000000	65.190601 
1845.000000	65.164303 
1844.000000	65.137124 
1843.000000	65.111136 
1842.000000	65.088152 
1841.000000	65.069675 
1840.000000	65.056896 
1839.000000	65.050840 
1838.000000	65.052318 
1837.000000	65.061807 
1836.000000	65.079259 
1835.000000	65.104055 
1834.000000	65.134620 
1833.000000	65.168714 
1832.000000	65.203619 
1831.000000	65.236496 
1830.000000	65.264749 
1829.000000	65.286850 
1828.000000	65.302205 
1827.000000	65.311384 
1826.000000	65.316009 
1825.000000	65.318012 
1824.000000	65.319299 
1823.000000	65.321063 
1822.000000	65.323758 
1821.000000	65.327000 
1820.000000	65.329599 
1819.000000	65.330171 
1818.000000	65.327382 
1817.000000	65.320467 
1816.000000	65.309214 
1815.000000	65.294122 
1814.000000	65.276551 
1813.000000	65.258073 
1812.000000	65.240597 
1811.000000	65.225934 
1810.000000	65.215778 
1809.000000	65.211105 
1808.000000	65.212512 
1807.000000	65.219831 
1806.000000	65.232610 
1805.000000	65.250015 
1804.000000	65.271139 
1803.000000	65.294933 
1802.000000	65.320754 
1801.000000	65.348172 
1800.000000	65.376806 
1799.000000	65.406012 
1798.000000	65.434861 
1797.000000	65.461945 
1796.000000	65.485358 
1795.000000	65.502905 
1794.000000	65.512537 
1793.000000	65.512895 
1792.000000	65.503740 
1791.000000	65.486359 
1790.000000	65.463161 
1789.000000	65.437412 
1788.000000	65.412640 
1787.000000	65.391850 
1786.000000	65.376925 
1785.000000	65.368413 
1784.000000	65.365386 
1783.000000	65.365910 
1782.000000	65.367889 
1781.000000	65.369415 
1780.000000	65.369200 
1779.000000	65.366792 
1778.000000	65.362548 
1777.000000	65.357041 
1776.000000	65.350675 
1775.000000	65.343499 
1774.000000	65.335154 
1773.000000	65.324974 
1772.000000	65.312457 
1771.000000	65.297770 
1770.000000	65.281963 
1769.000000	65.266871 
1768.000000	65.254712 
1767.000000	65.247774 
1766.000000	65.247845 
1765.000000	65.255355 
1764.000000	65.269398 
1763.000000	65.288066 
1762.000000	65.308713 
1761.000000	65.328645 
1760.000000	65.345430 
1759.000000	65.357303 
1758.000000	65.363359 
1757.000000	65.363454 
1756.000000	65.357923 
1755.000000	65.347266 
1754.000000	65.332055 
1753.000000	65.313267 
1752.000000	65.291833 
1751.000000	65.268993 
1750.000000	65.245938 
1749.000000	65.224337 
1748.000000	65.205740 
1747.000000	65.191578 
1746.000000	65.182709 
1745.000000	65.179276 
1744.000000	65.180635 
1743.000000	65.185523 
1742.000000	65.192151 
1741.000000	65.198540 
1740.000000	65.202689 
1739.000000	65.202927 
1738.000000	65.198206 
1737.000000	65.188479 
1736.000000	65.174317 
1735.000000	65.157246 
1734.000000	65.139555 
1733.000000	65.123915 
1732.000000	65.112590 
1731.000000	65.107607 
1730.000000	65.109968 
1729.000000	65.120124 
1728.000000	65.137696 
1727.000000	65.161919 
1726.000000	65.191531 
1725.000000	65.224790 
1724.000000	65.259766 
1723.000000	65.293836 
1722.000000	65.324378 
1721.000000	65.348219 
1720.000000	65.362524 
1719.000000	65.364813 
1718.000000	65.353822 
1717.000000	65.329647 
1716.000000	65.294051 
1715.000000	65.250563 
1714.000000	65.203905 
1713.000000	65.159416 
1712.000000	65.122485 
1711.000000	65.097594 
1710.000000	65.087771 
1709.000000	65.094566 
1708.000000	65.117716 
1707.000000	65.155386 
1706.000000	65.204024 
1705.000000	65.258789 
1704.000000	65.314126 
1703.000000	65.363979 
1702.000000	65.403413 
1701.000000	65.428662 
1700.000000	65.438222 
1699.000000	65.433192 
1698.000000	65.416479 
1697.000000	65.392565 
1696.000000	65.366196 
1695.000000	65.341734 
1694.000000	65.321993 
1693.000000	65.308356 
1692.000000	65.300273 
1691.000000	65.296268 
1690.000000	65.294146 
1689.000000	65.291976 
1688.000000	65.288138 
1687.000000	65.281939 
1686.000000	65.273237 
1685.000000	65.262365 
1684.000000	65.249967 
1683.000000	65.236926 
1682.000000	65.224242 
1681.000000	65.213155 
1680.000000	65.205240 
1679.000000	65.202116 
1678.000000	65.205025 
1677.000000	65.214776 
1676.000000	65.230703 
1675.000000	65.251278 
1674.000000	65.274071 
1673.000000	65.296387 
1672.000000	65.315318 
1671.000000	65.328788 
1670.000000	65.335917 
1669.000000	65.337133 
1668.000000	65.333819 
1667.000000	65.328097 
1666.000000	65.322327 
1665.000000	65.318584 
1664.000000	65.318346 
1663.000000	65.322542 
1662.000000	65.331578 
1661.000000	65.345478 
1660.000000	65.363883 
1659.000000	65.386152 
1658.000000	65.411281 
1657.000000	65.437793 
1656.000000	65.463709 
1655.000000	65.486764 
1654.000000	65.504574 
1653.000000	65.515375 
1652.000000	65.517807 
1651.000000	65.511417 
1650.000000	65.496492 
1649.000000	65.474128 
1648.000000	65.446162 
1647.000000	65.414857 
1646.000000	65.382623 
1645.000000	65.351843 
1644.000000	65.324640 
1643.000000	65.302991 
1642.000000	65.287971 
1641.000000	65.280127 
1640.000000	65.278840 
1639.000000	65.282392 
1638.000000	65.288162 
1637.000000	65.292882 
1636.000000	65.293073 
1635.000000	65.286087 
1634.000000	65.270447 
1633.000000	65.246200 
1632.000000	65.215301 
1631.000000	65.181183 
1630.000000	65.148067 
1629.000000	65.120196 
1628.000000	65.101122 
1627.000000	65.093016 
1626.000000	65.096306 
1625.000000	65.109515 
1624.000000	65.129923 
1623.000000	65.154027 
1622.000000	65.177989 
1621.000000	65.198612 
1620.000000	65.213394 
1619.000000	65.221095 
1618.000000	65.221714 
1617.000000	65.216445 
1616.000000	65.207266 
1615.000000	65.196537 
1614.000000	65.187048 
1613.000000	65.180659 
1612.000000	65.178155 
1611.000000	65.179061 
1610.000000	65.181922 
1609.000000	65.184378 
1608.000000	65.183782 
1607.000000	65.177798 
1606.000000	65.165281 
1605.000000	65.146398 
1604.000000	65.122628 
1603.000000	65.096426 
1602.000000	65.070748 
1601.000000	65.048241 
1600.000000	65.030956 
1599.000000	65.019845 
1598.000000	65.014886 
1597.000000	65.015244 
1596.000000	65.019798 
1595.000000	65.027403 
1594.000000	65.037369 
1593.000000	65.049028 
1592.000000	65.062141 
1591.000000	65.076255 
1590.000000	65.091180 
1589.000000	65.106487 
1588.000000	65.122056 
1587.000000	65.137791 
1586.000000	65.154075 
1585.000000	65.171718 
1584.000000	65.191459 
1583.000000	65.213894 
1582.000000	65.238690 
1581.000000	65.264534 
1580.000000	65.288925 
1579.000000	65.308809 
1578.000000	65.320944 
1577.000000	65.322923 
1576.000000	65.313625 
1575.000000	65.293836 
1574.000000	65.265846 
1573.000000	65.233230 
1572.000000	65.200114 
1571.000000	65.170621 
1570.000000	65.148568 
1569.000000	65.136671 
1568.000000	65.136623 
1567.000000	65.148711 
1566.000000	65.172028 
1565.000000	65.204429 
1564.000000	65.242505 
1563.000000	65.282106 
1562.000000	65.318775 
1561.000000	65.348219 
1560.000000	65.367031 
1559.000000	65.373253 
1558.000000	65.366697 
1557.000000	65.349197 
1556.000000	65.324068 
1555.000000	65.295505 
1554.000000	65.267729 
1553.000000	65.244293 
1552.000000	65.227413 
1551.000000	65.218114 
1550.000000	65.216231 
1549.000000	65.220618 
1548.000000	65.229606 
1547.000000	65.241074 
1546.000000	65.252733 
1545.000000	65.262150 
1544.000000	65.267086 
1543.000000	65.265774 
1542.000000	65.257072 
1541.000000	65.241050 
1540.000000	65.218806 
1539.000000	65.192270 
1538.000000	65.163993 
1537.000000	65.136861 
1536.000000	65.113735 
1535.000000	65.096974 
1534.000000	65.088081 
1533.000000	65.087652 
1532.000000	65.095210 
1531.000000	65.109372 
1530.000000	65.127992 
1529.000000	65.148305 
1528.000000	65.167498 
1527.000000	65.183043 
1526.000000	65.192914 
1525.000000	65.195941 
1524.000000	65.192008 
1523.000000	65.181946 
1522.000000	65.167546 
1521.000000	65.151190 
1520.000000	65.135192 
1519.000000	65.121817 
1518.000000	65.112566 
1517.000000	65.108799 
1516.000000	65.111470 
1515.000000	65.121388 
1514.000000	65.138983 
1513.000000	65.164232 
1512.000000	65.196490 
1511.000000	65.234112 
1510.000000	65.274405 
1509.000000	65.313982 
1508.000000	65.349411 
1507.000000	65.377545 
1506.000000	65.396356 
1505.000000	65.404891 
1504.000000	65.403342 
1503.000000	65.392923 
1502.000000	65.375423 
1501.000000	65.352964 
1500.000000	65.327692 
1499.000000	65.301656 
1498.000000	65.276813 
1497.000000	65.255212 
1496.000000	65.238881 
1495.000000	65.229535 
1494.000000	65.228080 
1493.000000	65.233922 
1492.000000	65.245008 
1491.000000	65.257787 
1490.000000	65.268015 
1489.000000	65.271449 
1488.000000	65.265178 
1487.000000	65.248346 
1486.000000	65.222501 
1485.000000	65.191125 
1484.000000	65.158677 
1483.000000	65.129518 
1482.000000	65.107131 
1481.000000	65.093564 
1480.000000	65.088987 
1479.000000	65.091943 
1478.000000	65.099859 
1477.000000	65.109682 
1476.000000	65.118432 
1475.000000	65.123510 
1474.000000	65.123176 
1473.000000	65.116786 
1472.000000	65.104675 
1471.000000	65.088105 
1470.000000	65.069103 
1469.000000	65.050172 
1468.000000	65.034389 
1467.000000	65.024924 
1466.000000	65.024828 
1465.000000	65.036296 
1464.000000	65.060448 
1463.000000	65.096735 
1462.000000	65.142798 
1461.000000	65.194582 
1460.000000	65.246891 
1459.000000	65.294051 
1458.000000	65.331315 
1457.000000	65.355396 
1456.000000	65.365195 
1455.000000	65.361571 
1454.000000	65.347051 
1453.000000	65.325140 
1452.000000	65.299749 
1451.000000	65.273976 
1450.000000	65.249776 
1449.000000	65.228104 
1448.000000	65.209293 
1447.000000	65.193605 
1446.000000	65.181708 
1445.000000	65.174818 
1444.000000	65.174484 
1443.000000	65.182185 
1442.000000	65.198659 
1441.000000	65.223145 
1440.000000	65.253257 
1439.000000	65.285301 
1438.000000	65.314698 
1437.000000	65.336894 
1436.000000	65.348076 
1435.000000	65.345740 
1434.000000	65.329194 
1433.000000	65.299367 
1432.000000	65.259027 
1431.000000	65.212130 
1430.000000	65.163755 
1429.000000	65.118861 
1428.000000	65.082120 
1427.000000	65.057301 
1426.000000	65.046548 
1425.000000	65.050101 
1424.000000	65.066409 
1423.000000	65.092158 
1422.000000	65.123033 
1421.000000	65.154337 
1420.000000	65.181779 
1419.000000	65.202069 
1418.000000	65.213370 
1417.000000	65.215325 
1416.000000	65.208625 
1415.000000	65.194559 
1414.000000	65.174579 
1413.000000	65.150213 
1412.000000	65.122890 
1411.000000	65.094184 
1410.000000	65.066075 
1409.000000	65.040612 
1408.000000	65.019917 
1407.000000	65.005493 
1406.000000	64.998054 
1405.000000	64.997005 
1404.000000	65.000867 
1403.000000	65.007400 
1402.000000	65.014100 
1401.000000	65.019035 
1400.000000	65.021324 
1399.000000	65.021538 
1398.000000	65.021347 
1397.000000	65.023255 
1396.000000	65.029573 
1395.000000	65.042042 
1394.000000	65.060949 
1393.000000	65.085029 
1392.000000	65.111804 
1391.000000	65.137982 
1390.000000	65.160250 
1389.000000	65.175771 
1388.000000	65.183067 
1387.000000	65.181756 
1386.000000	65.172934 
1385.000000	65.158820 
1384.000000	65.142226 
1383.000000	65.126323 
1382.000000	65.113663 
1381.000000	65.106058 
1380.000000	65.103816 
1379.000000	65.106368 
1378.000000	65.111970 
1377.000000	65.118169 
1376.000000	65.122199 
1375.000000	65.121769 
1374.000000	65.115237 
1373.000000	65.102028 
1372.000000	65.082812 
1371.000000	65.058970 
1370.000000	65.032935 
1369.000000	65.007424 
1368.000000	64.985108 
1367.000000	64.968037 
1366.000000	64.957499 
1365.000000	64.953923 
1364.000000	64.956760 
1363.000000	64.964795 
1362.000000	64.976334 
1361.000000	64.989805 
1360.000000	65.003609 
1359.000000	65.016770 
1358.000000	65.028738 
1357.000000	65.039587 
1356.000000	65.049743 
1355.000000	65.059590 
1354.000000	65.069556 
1353.000000	65.079760 
1352.000000	65.089988 
1351.000000	65.099549 
1350.000000	65.107440 
1349.000000	65.112280 
1348.000000	65.112924 
1347.000000	65.108394 
1346.000000	65.098381 
1345.000000	65.083050 
1344.000000	65.063285 
1343.000000	65.040612 
1342.000000	65.016841 
1341.000000	64.994096 
1340.000000	64.974260 
1339.000000	64.958715 
1338.000000	64.948368 
1337.000000	64.943480 
1336.000000	64.943766 
1335.000000	64.948511 
1334.000000	64.956903 
1333.000000	64.967799 
1332.000000	64.980292 
1331.000000	64.993405 
1330.000000	65.006303 
1329.000000	65.018200 
1328.000000	65.028619 
1327.000000	65.037512 
1326.000000	65.045189 
1325.000000	65.052270 
1324.000000	65.059447 
1323.000000	65.067100 
1322.000000	65.074992 
1321.000000	65.082359 
1320.000000	65.087652 
1319.000000	65.089035 
1318.000000	65.084743 
1317.000000	65.073871 
1316.000000	65.056514 
1315.000000	65.033888 
1314.000000	65.008354 
1313.000000	64.982676 
1312.000000	64.959764 
1311.000000	64.941644 
1310.000000	64.929461 
1309.000000	64.923095 
1308.000000	64.921545 
1307.000000	64.923405 
1306.000000	64.927244 
1305.000000	64.932060 
1304.000000	64.937305 
1303.000000	64.942932 
1302.000000	64.948797 
1301.000000	64.954924 
1300.000000	64.961099 
1299.000000	64.966940 
1298.000000	64.972162 
1297.000000	64.976572 
1296.000000	64.980435 
1295.000000	64.984178 
1294.000000	64.988470 
1293.000000	64.993882 
1292.000000	65.000867 
1291.000000	65.009069 
1290.000000	65.017580 
1289.000000	65.024709 
1288.000000	65.028595 
1287.000000	65.027284 
1286.000000	65.019512 
1285.000000	65.004920 
1284.000000	64.984178 
1283.000000	64.959096 
1282.000000	64.932107 
1281.000000	64.905858 
1280.000000	64.882707 
1279.000000	64.864277 
1278.000000	64.851379 
1277.000000	64.843726 
1276.000000	64.840531 
1275.000000	64.840507 
1274.000000	64.842820 
1273.000000	64.846968 
1272.000000	64.853239 
1271.000000	64.862251 
1270.000000	64.874696 
1269.000000	64.890766 
1268.000000	64.909934 
1267.000000	64.930701 
1266.000000	64.950847 
1265.000000	64.967918 
1264.000000	64.979791 
1263.000000	64.985418 
1262.000000	64.984703 
1261.000000	64.978694 
1260.000000	64.969253 
1259.000000	64.958715 
1258.000000	64.949297 
1257.000000	64.942383 
1256.000000	64.938783 
1255.000000	64.938473 
1254.000000	64.940905 
1253.000000	64.945149 
1252.000000	64.950251 
1251.000000	64.955615 
1250.000000	64.960885 
1249.000000	64.965939 
1248.000000	64.970803 
1247.000000	64.975333 
1246.000000	64.979290 
1245.000000	64.982295 
1244.000000	64.983797 
1243.000000	64.983320 
1242.000000	64.980578 
1241.000000	64.975643 
1240.000000	64.968991 
1239.000000	64.961624 
1238.000000	64.954924 
1237.000000	64.950728 
1236.000000	64.950585 
1235.000000	64.955735 
1234.000000	64.966750 
1233.000000	64.983391 
1232.000000	65.004563 
1231.000000	65.028738 
1230.000000	65.054082 
1229.000000	65.078806 
1228.000000	65.101289 
1227.000000	65.120172 
1226.000000	65.134310 
1225.000000	65.142679 
1224.000000	65.144371 
1223.000000	65.138745 
1222.000000	65.125441 
1221.000000	65.104913 
1220.000000	65.078306 
1219.000000	65.047836 
1218.000000	65.016508 
1217.000000	64.987587 
1216.000000	64.964222 
1215.000000	64.948725 
1214.000000	64.942097 
1213.000000	64.944005 
1212.000000	64.952778 
1211.000000	64.966130 
1210.000000	64.981532 
1209.000000	64.996767 
1208.000000	65.010547 
1207.000000	65.022397 
1206.000000	65.032553 
1205.000000	65.041565 
1204.000000	65.049862 
1203.000000	65.057396 
1202.000000	65.063619 
1201.000000	65.067458 
1200.000000	65.067696 
1199.000000	65.063476 
1198.000000	65.054440 
1197.000000	65.040922 
1196.000000	65.023875 
1195.000000	65.004730 
1194.000000	64.985013 
1193.000000	64.966177 
1192.000000	64.949488 
1191.000000	64.935779 
1190.000000	64.925813 
1189.000000	64.919924 
1188.000000	64.918136 
1187.000000	64.920163 
1186.000000	64.925384 
1185.000000	64.932823 
1184.000000	64.941096 
1183.000000	64.948844 
1182.000000	64.954686 
1181.000000	64.957833 
1180.000000	64.957880 
1179.000000	64.955139 
1178.000000	64.950394 
1177.000000	64.944672 
1176.000000	64.939093 
1175.000000	64.934515 
1174.000000	64.931273 
1173.000000	64.929461 
1172.000000	64.929056 
1171.000000	64.930081 
1170.000000	64.932680 
1169.000000	64.937019 
1168.000000	64.943194 
1167.000000	64.951038 
1166.000000	64.960122 
1165.000000	64.969539 
1164.000000	64.978075 
1163.000000	64.984440 
1162.000000	64.987397 
1161.000000	64.986014 
1160.000000	64.979672 
1159.000000	64.968514 
1158.000000	64.953327 
1157.000000	64.935517 
1156.000000	64.917182 
1155.000000	64.900517 
1154.000000	64.887619 
1153.000000	64.880061 
1152.000000	64.878582 
1151.000000	64.882946 
1150.000000	64.891886 
1149.000000	64.903378 
1148.000000	64.915204 
1147.000000	64.925312 
1146.000000	64.932107 
1145.000000	64.934873 
1144.000000	64.933609 
1143.000000	64.928960 
1142.000000	64.921832 
1141.000000	64.913010 
1140.000000	64.902925 
1139.000000	64.891529 
1138.000000	64.878487 
1137.000000	64.863252 
1136.000000	64.845609 
1135.000000	64.825844 
1134.000000	64.804959 
1133.000000	64.784264 
1132.000000	64.765405 
1131.000000	64.749741 
1130.000000	64.737963 
1129.000000	64.730119 
1128.000000	64.725422 
1127.000000	64.722967 
1126.000000	64.722299 
1125.000000	64.723610 
1124.000000	64.727854 
1123.000000	64.736199 
1122.000000	64.749503 
1121.000000	64.767575 
1120.000000	64.788913 
1119.000000	64.810633 
1118.000000	64.829063 
1117.000000	64.840459 
1116.000000	64.842224 
1115.000000	64.833474 
1114.000000	64.815545 
1113.000000	64.791917 
1112.000000	64.767313 
1111.000000	64.746999 
1110.000000	64.735150 
1109.000000	64.734315 
1108.000000	64.744305 
1107.000000	64.762687 
1106.000000	64.784669 
1105.000000	64.804673 
1104.000000	64.817214 
1103.000000	64.818024 
1102.000000	64.805316 
1101.000000	64.779782 
1100.000000	64.744734 
1099.000000	64.705276 
1098.000000	64.667391 
1097.000000	64.636707 
1096.000000	64.617466 
1095.000000	64.611554 
1094.000000	64.618563 
1093.000000	64.635896 
1092.000000	64.659667 
1091.000000	64.685678 
1090.000000	64.710283 
1089.000000	64.731001 
1088.000000	64.746665 
1087.000000	64.757132 
1086.000000	64.762926 
1085.000000	64.764666 
1084.000000	64.762425 
1083.000000	64.755821 
1082.000000	64.744114 
1081.000000	64.726686 
1080.000000	64.703464 
1079.000000	64.675331 
1078.000000	64.644575 
1077.000000	64.614415 
1076.000000	64.588427 
1075.000000	64.569997 
1074.000000	64.561414 
1073.000000	64.563632 
1072.000000	64.575982 
1071.000000	64.596462 
1070.000000	64.622068 
1069.000000	64.649462 
1068.000000	64.675784 
1067.000000	64.698934 
1066.000000	64.718008 
1065.000000	64.733266 
1064.000000	64.745926 
1063.000000	64.757680 
1062.000000	64.770054 
1061.000000	64.783978 
1060.000000	64.799380 
1059.000000	64.815258 
1058.000000	64.829945 
1057.000000	64.841437 
1056.000000	64.848089 
1055.000000	64.849090 
1054.000000	64.844679 
1053.000000	64.836120 
1052.000000	64.825582 
1051.000000	64.815425 
1050.000000	64.807844 
1049.000000	64.803981 
1048.000000	64.803814 
1047.000000	64.806318 
1046.000000	64.809727 
1045.000000	64.812326 
1044.000000	64.812517 
1043.000000	64.809632 
1042.000000	64.803147 
1041.000000	64.792799 
1040.000000	64.778327 
1039.000000	64.759564 
1038.000000	64.736628 
1037.000000	64.710354 
1036.000000	64.682292 
1035.000000	64.654779 
1034.000000	64.630627 
1033.000000	64.612674 
1032.000000	64.602756 
1031.000000	64.601659 
1030.000000	64.608621 
1029.000000	64.621901 
1028.000000	64.638924 
1027.000000	64.656996 
1026.000000	64.674210 
1025.000000	64.689183 
1024.000000	64.701199 
1023.000000	64.709901 
1022.000000	64.714694 
1021.000000	64.714884 
1020.000000	64.709472 
1019.000000	64.698481 
1018.000000	64.683032 
1017.000000	64.666318 
1016.000000	64.653158 
1015.000000	64.649248 
1014.000000	64.659619 
1013.000000	64.687037 
1012.000000	64.731121 
1011.000000	64.787769 
1010.000000	64.849734 
1009.000000	64.908266 
1008.000000	64.954996 
1007.000000	64.983844 
1006.000000	64.992260 
1005.000000	64.981842 
1004.000000	64.957308 
1003.000000	64.925146 
1002.000000	64.891815 
1001.000000	64.862298 
1000.000000	64.838981 
999.000000	 64.821934 
998.000000	 64.809179 
997.000000	 64.798474 
996.000000	 64.787578 
995.000000	 64.775753 
994.000000	 64.763450 
993.000000	 64.752078 
992.000000	 64.743804 
991.000000	 64.740490 
990.000000	 64.743232 
989.000000	 64.751839 
988.000000	 64.764928 
987.000000	 64.780211 
986.000000	 64.794778 
985.000000	 64.805746 
984.000000	 64.810419 
983.000000	 64.807009 
982.000000	 64.794468 
981.000000	 64.772725 
980.000000	 64.742755 
979.000000	 64.706277 
978.000000	 64.665675 
977.000000	 64.623570 
976.000000	 64.582633 
975.000000	 64.545464 
974.000000	 64.513802 
973.000000	 64.489126 
972.000000	 64.472007 
971.000000	 64.462828 
970.000000	 64.461493 
969.000000	 64.467859 
968.000000	 64.481377 
967.000000	 64.501214 
966.000000	 64.525938 
965.000000	 64.553499 
964.000000	 64.581394 
963.000000	 64.606595 
962.000000	 64.626073 
961.000000	 64.637374 
960.000000	 64.639019 
959.000000	 64.630937 
958.000000	 64.614391 
957.000000	 64.591670 
956.000000	 64.565777 
955.000000	 64.539766 
954.000000	 64.516282 
953.000000	 64.497399 
952.000000	 64.484405 
951.000000	 64.477920 
950.000000	 64.478015 
949.000000	 64.484405 
948.000000	 64.496469 
947.000000	 64.513373 
946.000000	 64.533948 
945.000000	 64.556598 
944.000000	 64.579248 
943.000000	 64.599752 
942.000000	 64.616227 
941.000000	 64.627075 
940.000000	 64.631438 
939.000000	 64.629316 
938.000000	 64.621257 
937.000000	 64.608192 
936.000000	 64.591121 
935.000000	 64.570879 
934.000000	 64.548397 
933.000000	 64.524888 
932.000000	 64.501762 
931.000000	 64.480686 
930.000000	 64.463448 
929.000000	 64.451599 
928.000000	 64.445948 
927.000000	 64.446425 
926.000000	 64.451766 
925.000000	 64.460086 
924.000000	 64.469146 
923.000000	 64.477109 
922.000000	 64.482665 
921.000000	 64.485692 
920.000000	 64.486789 
919.000000	 64.487385 
918.000000	 64.488959 
917.000000	 64.492368 
916.000000	 64.497685 
915.000000	 64.503741 
914.000000	 64.508771 
913.000000	 64.510631 
912.000000	 64.507532 
911.000000	 64.498353 
910.000000	 64.482975 
909.000000	 64.462304 
908.000000	 64.437937 
907.000000	 64.411878 
906.000000	 64.386153 
905.000000	 64.362430 
904.000000	 64.341998 
903.000000	 64.325761 
902.000000	 64.314270 
901.000000	 64.308238 
900.000000	 64.308166 
899.000000	 64.314532 
898.000000	 64.327430 
897.000000	 64.346480 
896.000000	 64.370346 
895.000000	 64.396882 
894.000000	 64.423108 
893.000000	 64.445543 
892.000000	 64.460849 
891.000000	 64.466333 
890.000000	 64.460682 
889.000000	 64.444422 
888.000000	 64.420056 
887.000000	 64.391660 
886.000000	 64.364528 
885.000000	 64.344143 
884.000000	 64.334630 
883.000000	 64.338040 
882.000000	 64.353728 
881.000000	 64.378643 
880.000000	 64.407825 
879.000000	 64.435791 
878.000000	 64.457654 
877.000000	 64.470338 
876.000000	 64.473295 
875.000000	 64.468431 
874.000000	 64.459395 
873.000000	 64.450430 
872.000000	 64.445281 
871.000000	 64.446067 
870.000000	 64.452886 
869.000000	 64.463877 
868.000000	 64.476251 
867.000000	 64.487028 
866.000000	 64.493799 
865.000000	 64.495587 
864.000000	 64.492940 
863.000000	 64.488053 
862.000000	 64.483308 
861.000000	 64.481663 
860.000000	 64.485669 
859.000000	 64.497137 
858.000000	 64.516973 
857.000000	 64.544415 
856.000000	 64.577627 
855.000000	 64.613246 
854.000000	 64.647364 
853.000000	 64.675116 
852.000000	 64.691853 
851.000000	 64.693665 
850.000000	 64.678549 
849.000000	 64.646363 
848.000000	 64.599156 
847.000000	 64.541053 
846.000000	 64.477419 
845.000000	 64.413905 
844.000000	 64.355278 
843.000000	 64.304494 
842.000000	 64.262223 
841.000000	 64.227199 
840.000000	 64.196681 
839.000000	 64.167237 
838.000000	 64.136147 
837.000000	 64.102053 
836.000000	 64.065551 
835.000000	 64.028429 
834.000000	 63.993668 
833.000000	 63.964128 
832.000000	 63.942408 
831.000000	 63.929319 
830.000000	 63.924908 
829.000000	 63.927984 
828.000000	 63.937449 
827.000000	 63.952398 
826.000000	 63.973069 
825.000000	 64.000439 
824.000000	 64.036059 
823.000000	 64.080953 
822.000000	 64.134883 
821.000000	 64.195585 
820.000000	 64.258694 
819.000000	 64.318013 
818.000000	 64.366579 
817.000000	 64.397549 
816.000000	 64.406514 
815.000000	 64.391732 
814.000000	 64.354467 
813.000000	 64.298868 
812.000000	 64.231562 
811.000000	 64.160037 
810.000000	 64.091587 
809.000000	 64.031910 
808.000000	 63.985085 
807.000000	 63.952517 
806.000000	 63.933348 
805.000000	 63.925027 
804.000000	 63.923931 
803.000000	 63.926744 
802.000000	 63.930892 
801.000000	 63.935351 
800.000000	 63.940048 
799.000000	 63.946032 
798.000000	 63.954496 
797.000000	 63.966464 
796.000000	 63.982057 
795.000000	 64.001178 
794.000000	 64.023208 
793.000000	 64.047479 
792.000000	 64.073276 
791.000000	 64.099812 
790.000000	 64.126086 
789.000000	 64.150714 
788.000000	 64.171957 
787.000000	 64.188146 
786.000000	 64.197897 
785.000000	 64.200639 
784.000000	 64.196562 
783.000000	 64.186978 
782.000000	 64.173722 
781.000000	 64.159440 
780.000000	 64.146089 
779.000000	 64.134740 
778.000000	 64.125204 
777.000000	 64.116454 
776.000000	 64.106655 
775.000000	 64.094018 
774.000000	 64.077043 
773.000000	 64.055323 
772.000000	 64.029455 
771.000000	 64.001417 
770.000000	 63.973522 
769.000000	 63.947796 
768.000000	 63.926315 
767.000000	 63.910746 
766.000000	 63.902068 
765.000000	 63.900399 
764.000000	 63.905000 
763.000000	 63.914656 
762.000000	 63.927626 
761.000000	 63.942074 
760.000000	 63.956499 
759.000000	 63.970088 
758.000000	 63.982677 
757.000000	 63.994741 
756.000000	 64.007139 
755.000000	 64.020419 
754.000000	 64.034867 
753.000000	 64.049625 
752.000000	 64.063453 
751.000000	 64.073681 
750.000000	 64.077711 
749.000000	 64.072084 
748.000000	 64.053535 
747.000000	 64.018893 
746.000000	 63.966202 
745.000000	 63.894557 
744.000000	 63.804793 
743.000000	 63.699889 
742.000000	 63.585019 
741.000000	 63.467454 
740.000000	 63.356018 
739.000000	 63.259840 
738.000000	 63.187384 
737.000000	 63.144850 
736.000000	 63.135409 
735.000000	 63.157677 
734.000000	 63.206672 
733.000000	 63.274192 
732.000000	 63.350820 
731.000000	 63.426494 
730.000000	 63.492989 
729.000000	 63.544201 
728.000000	 63.577628 
727.000000	 63.593411 
726.000000	 63.594365 
725.000000	 63.584899 
724.000000	 63.569641 
723.000000	 63.553023 
722.000000	 63.537883 
721.000000	 63.525485 
720.000000	 63.515496 
719.000000	 63.506698 
718.000000	 63.497662 
717.000000	 63.487458 
716.000000	 63.475942 
715.000000	 63.463711 
714.000000	 63.451433 
713.000000	 63.439106 
712.000000	 63.425755 
711.000000	 63.409280 
710.000000	 63.386559 
709.000000	 63.354516 
708.000000	 63.311243 
707.000000	 63.257265 
706.000000	 63.195776 
705.000000	 63.133025 
704.000000	 63.076901 
703.000000	 63.035678 
702.000000	 63.016128 
701.000000	 63.021588 
700.000000	 63.051247 
699.000000	 63.099741 
698.000000	 63.158559 
697.000000	 63.217234 
696.000000	 63.265752 
695.000000	 63.296175 
694.000000	 63.303804 
693.000000	 63.287949 
692.000000	 63.251399 
691.000000	 63.199615 
690.000000	 63.139033 
689.000000	 63.076019 
688.000000	 63.015890 
687.000000	 62.961578 
686.000000	 62.913632 
685.000000	 62.870979 
684.000000	 62.831497 
683.000000	 62.792873 
682.000000	 62.753558 
681.000000	 62.713241 
680.000000	 62.673401 
679.000000	 62.635993 
678.000000	 62.604427 
677.000000	 62.581610 
676.000000	 62.570905 
675.000000	 62.574529 
674.000000	 62.594008 
673.000000	 62.629365 
672.000000	 62.679123 
671.000000	 62.740278 
670.000000	 62.808322 
669.000000	 62.877321 
668.000000	 62.941241 
667.000000	 62.994384 
666.000000	 63.032913 
665.000000	 63.055300 
664.000000	 63.063311 
663.000000	 63.061499 
662.000000	 63.056349 
661.000000	 63.054633 
660.000000	 63.061499 
659.000000	 63.079428 
658.000000	 63.107776 
657.000000	 63.143301 
656.000000	 63.181042 
655.000000	 63.216090 
654.000000	 63.245749 
653.000000	 63.269782 
652.000000	 63.290548 
651.000000	 63.311290 
650.000000	 63.334798 
649.000000	 63.361310 
648.000000	 63.387846 
647.000000	 63.408279 
646.000000	 63.414597 
645.000000	 63.399744 
644.000000	 63.360548 
643.000000	 63.298797 
642.000000	 63.222050 
641.000000	 63.141512 
640.000000	 63.069844 
639.000000	 63.017272 
638.000000	 62.988853 
637.000000	 62.983489 
636.000000	 62.994527 
635.000000	 63.011932 
634.000000	 63.025379 
633.000000	 63.027882 
632.000000	 63.017940 
631.000000	 62.999510 
630.000000	 62.980675 
629.000000	 62.970614 
628.000000	 62.976241 
627.000000	 62.999868 
626.000000	 63.037633 
625.000000	 63.080573 
624.000000	 63.116073 
623.000000	 63.132023 
622.000000	 63.118720 
621.000000	 63.071942 
620.000000	 62.993311 
619.000000	 62.889671 
618.000000	 62.772154 
617.000000	 62.653517 
616.000000	 62.546086 
615.000000	 62.459206 
614.000000	 62.398886 
613.000000	 62.367868 
612.000000	 62.364792 
611.000000	 62.384963 
610.000000	 62.421035 
609.000000	 62.464404 
608.000000	 62.506365 
607.000000	 62.539720 
606.000000	 62.560009 
605.000000	 62.566256 
604.000000	 62.561941 
603.000000	 62.553668 
602.000000	 62.549376 
601.000000	 62.555909 
600.000000	 62.577247 
599.000000	 62.613129 
598.000000	 62.659621 
597.000000	 62.709617 
596.000000	 62.755656 
595.000000	 62.790608 
594.000000	 62.810349 
593.000000	 62.812399 
592.000000	 62.798118 
591.000000	 62.768125 
590.000000	 62.722086 
589.000000	 62.656831 
588.000000	 62.567710 
587.000000	 62.450098 
586.000000	 62.301898 
585.000000	 62.126755 
584.000000	 61.935138 
583.000000	 61.744427 
582.000000	 61.576318 
581.000000	 61.453557 
580.000000	 61.394786 
579.000000	 61.411404 
578.000000	 61.504292 
577.000000	 61.663126 
576.000000	 61.867427 
575.000000	 62.089347 
574.000000	 62.298893 
573.000000	 62.467265 
572.000000	 62.574005 
571.000000	 62.609267 
570.000000	 62.577724 
569.000000	 62.495231 
568.000000	 62.387275 
567.000000	 62.284135 
566.000000	 62.212967 
565.000000	 62.194633 
564.000000	 62.236118 
563.000000	 62.332367 
562.000000	 62.464213 
561.000000	 62.605309 
560.000000	 62.726116 
559.000000	 62.801265 
558.000000	 62.815141 
557.000000	 62.764525 
556.000000	 62.660646 
555.000000	 62.525677 
554.000000	 62.387824 
553.000000	 62.274050 
552.000000	 62.204623 
551.000000	 62.188100 
550.000000	 62.221312 
549.000000	 62.290072 
548.000000	 62.373447 
547.000000	 62.448287 
546.000000	 62.495398 
545.000000	 62.502431 
544.000000	 62.464761 
543.000000	 62.385702 
542.000000	 62.272596 
541.000000	 62.136244 
540.000000	 61.988401 
539.000000	 61.840438 
538.000000	 61.702156 
537.000000	 61.581563 
536.000000	 61.487174 
535.000000	 61.423826 
534.000000	 61.394000 
533.000000	 61.393189 
532.000000	 61.410284 
531.000000	 61.427855 
530.000000	 61.425113 
529.000000	 61.382770 
528.000000	 61.287522 
527.000000	 61.137509 
526.000000	 60.943627 
525.000000	 60.727953 
524.000000	 60.519719 
523.000000	 60.348916 
522.000000	 60.240960 
521.000000	 60.211014 
520.000000	 60.261797 
519.000000	 60.384607 
518.000000	 60.560297 
517.000000	 60.765290 
516.000000	 60.972785 
515.000000	 61.158347 
514.000000	 61.299777 
513.000000	 61.378002 
512.000000	 61.379408 
511.000000	 61.295819 
510.000000	 61.128401 
509.000000	 60.886764 
508.000000	 60.593008 
507.000000	 60.279870 
506.000000	 59.987592 
505.000000	 59.757471 
504.000000	 59.624838 
503.000000	 59.611511 
502.000000	 59.722852 
501.000000	 59.946775 
500.000000	 60.254263 
499.000000	 60.604476 
498.000000	 60.953021 
497.000000	 61.259651 
496.000000	 61.493229 
495.000000	 61.636066 
494.000000	 61.684298 
493.000000	 61.647248 
492.000000	 61.543226 
491.000000	 61.396312 
490.000000	 61.233043 
489.000000	 61.078333 
488.000000	 60.954952 
487.000000	 60.879349 
486.000000	 60.863399 
485.000000	 60.910487 
484.000000	 61.016774 
483.000000	 61.169981 
482.000000	 61.354494 
481.000000	 61.547660 
480.000000	 61.725020 
479.000000	 61.858057 
478.000000	 61.918950 
477.000000	 61.882972 
476.000000	 61.734318 
475.000000	 61.468243 
474.000000	 61.093592 
473.000000	 60.634827 
472.000000	 60.129570 
471.000000	 59.623956 
470.000000	 59.164619 
469.000000	 58.789706 
468.000000	 58.521890 
467.000000	 58.365535 
466.000000	 58.307456 
465.000000	 58.318424 
464.000000	 58.363080 
463.000000	 58.408880 
462.000000	 58.433055 
461.000000	 58.424973 
460.000000	 58.385729 
459.000000	 58.320069 
458.000000	 58.235573 
457.000000	 58.135104 
456.000000	 58.019995 
455.000000	 57.886552 
454.000000	 57.736039 
453.000000	 57.578396 
452.000000	 57.432699 
451.000000	 57.324576 
450.000000	 57.280325 
449.000000	 57.320666 
448.000000	 57.448601 
447.000000	 57.645773 
446.000000	 57.873129 
445.000000	 58.078694 
444.000000	 58.211207 
443.000000	 58.232975 
442.000000	 58.128476 
441.000000	 57.908940 
440.000000	 57.609248 
439.000000	 57.280087 
438.000000	 56.973981 
437.000000	 56.736183 
436.000000	 56.590747 
435.000000	 56.543827 
434.000000	 56.590676 
433.000000	 56.719255 
432.000000	 56.913852 
431.000000	 57.163310 
430.000000	 57.450675 
429.000000	 57.769608 
428.000000	 58.127188 
427.000000	 58.532547 
426.000000	 58.976721 
425.000000	 59.449219 
424.000000	 59.937882 
423.000000	 60.427951 
422.000000	 60.905814 
421.000000	 61.350560 
420.000000	 61.737036 
419.000000	 62.024188 
418.000000	 62.160921 
417.000000	 62.094569 
416.000000	 61.784887 
415.000000	 61.212921 
414.000000	 60.399246 
413.000000	 59.391260 
412.000000	 58.284425 
411.000000	 57.211804 
410.000000	 56.337714 
409.000000	 55.863571 
408.000000	 55.940771 
407.000000	 56.689977 
406.000000	 58.059120 
405.000000	 59.812402 
404.000000	 61.531019 
403.000000	 62.665367 
402.000000	 62.702822 
401.000000	 61.300206 
400.000000	 58.409047 
399.000000	 54.334378 
398.000000	 49.641036 
397.000000	 45.027160 
396.000000	 41.138291 
395.000000	 38.396143 
394.000000	 36.960220 
393.000000	 36.721873 
392.000000	 37.359070 
391.000000	 38.453173 
390.000000	 39.587140 
389.000000	 40.465450 
388.000000	 40.934681 
387.000000	 41.025757 
386.000000	 40.928721 
385.000000	 40.931606 
384.000000	 41.313338 
383.000000	 42.257738 
382.000000	 43.809151 
381.000000	 45.835733 
380.000000	 48.044395 
379.000000	 50.069475 
378.000000	 51.585030 
377.000000	 52.389216 
376.000000	 52.459168 
375.000000	 51.953434 
374.000000	 51.198315 
373.000000	 50.530481 
372.000000	 50.240492 
371.000000	 50.384330 
370.000000	 50.775194

