PE IR       SPECTRUM    SPECTRUM    ASCII       PEDS        1.60        
  -1
BZABF1~1.ASC
17/04/10
09:00:58.00
17/04/10
09:00:58.00
tln
$BZ12041010-4_t0002$<tbV0>[2.6,-12.4,9.0,0.0,22,1,0]
370.000000
64









2002,4.07    
MIRTGS : RIGHTBACK : INTERNAL 2
MIR : ON : INTERNAL 2
OPTKBR

0.200000
8
8.000000
FILLER
RATIO
SPECTRUM
UNLOCKED 256

DOUBLE
64
COMBINED
1
0
0


1.000000
RATIO


1
0
TRUE
51149
0
LEFT NOT FITTED RIGHT NOT FITTED 0
NONE
NONE
15600
12.000000
4.427000
51148
TRUE
1 0 8 72 0 0 0 0 

15798.010000






#HDR
-1
-1
#GR
CM-1
%T
0.00002384185791015625
0.0
5000.000000
-1.000000
4631
8
84.614062
53.979706
#DATA
5000.000000	64.907932 
4999.000000	64.923715 
4998.000000	64.930963 
4997.000000	64.928746 
4996.000000	64.917254 
4995.000000	64.898729 
4994.000000	64.875316 
4993.000000	64.849138 
4992.000000	64.820551 
4991.000000	64.788484 
4990.000000	64.750647 
4989.000000	64.704895 
4988.000000	64.650225 
4987.000000	64.587903 
4986.000000	64.521980 
4985.000000	64.458942 
4984.000000	64.406490 
4983.000000	64.371681 
4982.000000	64.359712 
4981.000000	64.372777 
4980.000000	64.410042 
4979.000000	64.468121 
4978.000000	64.541792 
4977.000000	64.624881 
4976.000000	64.711833 
4975.000000	64.797210 
4974.000000	64.875745 
4973.000000	64.941954 
4972.000000	64.990472 
4971.000000	65.016436 
4970.000000	65.015864 
4969.000000	64.987373 
4968.000000	64.933037 
4967.000000	64.858889 
4966.000000	64.774703 
4965.000000	64.692354 
4964.000000	64.624094 
4963.000000	64.580321 
4962.000000	64.567542 
4961.000000	64.587903 
4960.000000	64.638924 
4959.000000	64.714741 
4958.000000	64.807415 
4957.000000	64.908218 
4956.000000	65.008831 
4955.000000	65.101909 
4954.000000	65.181231 
4953.000000	65.241074 
4952.000000	65.276312 
4951.000000	65.282988 
4950.000000	65.258789 
4949.000000	65.203690 
4948.000000	65.120458 
4947.000000	65.015816 
4946.000000	64.898991 
4945.000000	64.781165 
4944.000000	64.673042 
4943.000000	64.583420 
4942.000000	64.517784 
4941.000000	64.477658 
4940.000000	64.460873 
4939.000000	64.462137 
4938.000000	64.474463 
4937.000000	64.490723 
4936.000000	64.504861 
4935.000000	64.512181 
4934.000000	64.510536 
4933.000000	64.499592 
4932.000000	64.480996 
4931.000000	64.457249 
4930.000000	64.431953 
4929.000000	64.408993 
4928.000000	64.392280 
4927.000000	64.385223 
4926.000000	64.390563 
4925.000000	64.410090 
4924.000000	64.443922 
4923.000000	64.490890 
4922.000000	64.548611 
4921.000000	64.614057 
4920.000000	64.683818 
4919.000000	64.754366 
4918.000000	64.821958 
4917.000000	64.883041 
4916.000000	64.934968 
4915.000000	64.975690 
4914.000000	65.003895 
4913.000000	65.018892 
4912.000000	65.021920 
4911.000000	65.014028 
4910.000000	64.996647 
4909.000000	64.970326 
4908.000000	64.935779 
4907.000000	64.893388 
4906.000000	64.844179 
4905.000000	64.789891 
4904.000000	64.733266 
4903.000000	64.678263 
4902.000000	64.629554 
4901.000000	64.591670 
4900.000000	64.568305 
4899.000000	64.561176 
4898.000000	64.570021 
4897.000000	64.592003 
4896.000000	64.623117 
4895.000000	64.658904 
4894.000000	64.696192 
4893.000000	64.732742 
4892.000000	64.768528 
4891.000000	64.805126 
4890.000000	64.845013 
4889.000000	64.889883 
4888.000000	64.940261 
4887.000000	64.995789 
4886.000000	65.053582 
4885.000000	65.109491 
4884.000000	65.157103 
4883.000000	65.190005 
4882.000000	65.201735 
4881.000000	65.187597 
4880.000000	65.146207 
4879.000000	65.080189 
4878.000000	64.996647 
4877.000000	64.906191 
4876.000000	64.821219 
4875.000000	64.753651 
4874.000000	64.712548 
4873.000000	64.702129 
4872.000000	64.720916 
4871.000000	64.762115 
4870.000000	64.815187 
4869.000000	64.868545 
4868.000000	64.911794 
4867.000000	64.937686 
4866.000000	64.943194 
4865.000000	64.929032 
4864.000000	64.898252 
4863.000000	64.854860 
4862.000000	64.802169 
4861.000000	64.742636 
4860.000000	64.677739 
4859.000000	64.608812 
4858.000000	64.538908 
4857.000000	64.471840 
4856.000000	64.412379 
4855.000000	64.364933 
4854.000000	64.332771 
4853.000000	64.316773 
4852.000000	64.314889 
4851.000000	64.322519 
4850.000000	64.333343 
4849.000000	64.341330 
4848.000000	64.342117 
4847.000000	64.334201 
4846.000000	64.319372 
4845.000000	64.302039 
4844.000000	64.287948 
4843.000000	64.281773 
4842.000000	64.286327 
4841.000000	64.301538 
4840.000000	64.325094 
4839.000000	64.351963 
4838.000000	64.377403 
4837.000000	64.398503 
4836.000000	64.416384 
4835.000000	64.434862 
4834.000000	64.461493 
4833.000000	64.504575 
4832.000000	64.571738 
4831.000000	64.667463 
4830.000000	64.790678 
4829.000000	64.934206 
4828.000000	65.085148 
4827.000000	65.227818 
4826.000000	65.346384 
4825.000000	65.428471 
4824.000000	65.467476 
4823.000000	65.464091 
4822.000000	65.425205 
4821.000000	65.361690 
4820.000000	65.285754 
4819.000000	65.207195 
4818.000000	65.130877 
4817.000000	65.055203 
4816.000000	64.973735 
4815.000000	64.877152 
4814.000000	64.755964 
4813.000000	64.604949 
4812.000000	64.425039 
4811.000000	64.226245 
4810.000000	64.024972 
4809.000000	63.843631 
4808.000000	63.704776 
4807.000000	63.627648 
4806.000000	63.622403 
4805.000000	63.688421 
4804.000000	63.813805 
4803.000000	63.977026 
4802.000000	64.150786 
4801.000000	64.307141 
4800.000000	64.421701 
4799.000000	64.479660 
4798.000000	64.477467 
4797.000000	64.422678 
4796.000000	64.330458 
4795.000000	64.221143 
4794.000000	64.115166 
4793.000000	64.029455 
4792.000000	63.974571 
4791.000000	63.954806 
4790.000000	63.968491 
4789.000000	64.010047 
4788.000000	64.072012 
4787.000000	64.145183 
4786.000000	64.222455 
4785.000000	64.297485 
4784.000000	64.369440 
4783.000000	64.440584 
4782.000000	64.518046 
4781.000000	64.612221 
4780.000000	64.732360 
4779.000000	64.884161 
4778.000000	65.064620 
4777.000000	65.264129 
4776.000000	65.462136 
4775.000000	65.631294 
4774.000000	65.742540 
4773.000000	65.773248 
4772.000000	65.711832 
4771.000000	65.561938 
4770.000000	65.342688 
4769.000000	65.085840 
4768.000000	64.827919 
4767.000000	64.603114 
4766.000000	64.435219 
4765.000000	64.333748 
4764.000000	64.295554 
4763.000000	64.307355 
4762.000000	64.350390 
4761.000000	64.406442 
4760.000000	64.461922 
4759.000000	64.511060 
4758.000000	64.551305 
4757.000000	64.586019 
4756.000000	64.618706 
4755.000000	64.655041 
4754.000000	64.697647 
4753.000000	64.750051 
4752.000000	64.815449 
4751.000000	64.898705 
4750.000000	65.005683 
4749.000000	65.142297 
4748.000000	65.312480 
4747.000000	65.516233 
4746.000000	65.748095 
4745.000000	65.997171 
4744.000000	66.248488 
4743.000000	66.483950 
4742.000000	66.685724 
4741.000000	66.835522 
4740.000000	66.917228 
4739.000000	66.917872 
4738.000000	66.829323 
4737.000000	66.647982 
4736.000000	66.376590 
4735.000000	66.026544 
4734.000000	65.617895 
4733.000000	65.178918 
4732.000000	64.743590 
4731.000000	64.346742 
4730.000000	64.020824 
4729.000000	63.791537 
4728.000000	63.675141 
4727.000000	63.672232 
4726.000000	63.772845 
4725.000000	63.956570 
4724.000000	64.198327 
4723.000000	64.468669 
4722.000000	64.741444 
4721.000000	64.994001 
4720.000000	65.210962 
4719.000000	65.381646 
4718.000000	65.503048 
4717.000000	65.576958 
4716.000000	65.610814 
4715.000000	65.615153 
4714.000000	65.603208 
4713.000000	65.588140 
4712.000000	65.580916 
4711.000000	65.587425 
4710.000000	65.606522 
4709.000000	65.628957 
4708.000000	65.639519 
4707.000000	65.619301 
4706.000000	65.550065 
4705.000000	65.418457 
4704.000000	65.222048 
4703.000000	64.969086 
4702.000000	64.675927 
4701.000000	64.365339 
4700.000000	64.062786 
4699.000000	63.791942 
4698.000000	63.568735 
4697.000000	63.402557 
4696.000000	63.295149 
4695.000000	63.244080 
4694.000000	63.243961 
4693.000000	63.289499 
4692.000000	63.374257 
4691.000000	63.492989 
4690.000000	63.639879 
4689.000000	63.806653 
4688.000000	63.980197 
4687.000000	64.145636 
4686.000000	64.287495 
4685.000000	64.392614 
4684.000000	64.452934 
4683.000000	64.466667 
4682.000000	64.439392 
4681.000000	64.383625 
4680.000000	64.316916 
4679.000000	64.257955 
4678.000000	64.223384 
4677.000000	64.226365 
4676.000000	64.273405 
4675.000000	64.363741 
4674.000000	64.489817 
4673.000000	64.639973 
4672.000000	64.799594 
4671.000000	64.953660 
4670.000000	65.088510 
4669.000000	65.194630 
4668.000000	65.265560 
4667.000000	65.297842 
4666.000000	65.290474 
4665.000000	65.245699 
4664.000000	65.166950 
4663.000000	65.059089 
4662.000000	64.929294 
4661.000000	64.787387 
4660.000000	64.647150 
4659.000000	64.525604 
4658.000000	64.440584 
4657.000000	64.407753 
4656.000000	64.437484 
4655.000000	64.532256 
4654.000000	64.683485 
4653.000000	64.873409 
4652.000000	65.079092 
4651.000000	65.276455 
4650.000000	65.444874 
4649.000000	65.570497 
4648.000000	65.647697 
4647.000000	65.678405 
4646.000000	65.670204 
4645.000000	65.632700 
4644.000000	65.575814 
4643.000000	65.506792 
4642.000000	65.430903 
4641.000000	65.351152 
4640.000000	65.271544 
4639.000000	65.195870 
4638.000000	65.129685 
4637.000000	65.078520 
4636.000000	65.047621 
4635.000000	65.039110 
4634.000000	65.050768 
4633.000000	65.076208 
4632.000000	65.105485 
4631.000000	65.127682 
4630.000000	65.133166 
4629.000000	65.115189 
4628.000000	65.071511 
4627.000000	65.004944 
4626.000000	64.922857 
4625.000000	64.835166 
4624.000000	64.752531 
4623.000000	64.684391 
4622.000000	64.636707 
4621.000000	64.612102 
4620.000000	64.608454 
4619.000000	64.619970 
4618.000000	64.638233 
4617.000000	64.655065 
4616.000000	64.663147 
4615.000000	64.657211 
4614.000000	64.634728 
4613.000000	64.595174 
4612.000000	64.540529 
4611.000000	64.474391 
4610.000000	64.401626 
4609.000000	64.327406 
4608.000000	64.257526 
4607.000000	64.197897 
4606.000000	64.154028 
4605.000000	64.130449 
4604.000000	64.130187 
4603.000000	64.154434 
4602.000000	64.202332 
4601.000000	64.270997 
4600.000000	64.355134 
4599.000000	64.447784 
4598.000000	64.540958 
4597.000000	64.626646 
4596.000000	64.697551 
4595.000000	64.748239 
4594.000000	64.775037 
4593.000000	64.777398 
4592.000000	64.758586 
4591.000000	64.724755 
4590.000000	64.683699 
4589.000000	64.643764 
4588.000000	64.613676 
4587.000000	64.599418 
4586.000000	64.603519 
4585.000000	64.624691 
4584.000000	64.658617 
4583.000000	64.698910 
4582.000000	64.738941 
4581.000000	64.773273 
4580.000000	64.798808 
4579.000000	64.814209 
4578.000000	64.819431 
4577.000000	64.814686 
4576.000000	64.799618 
4575.000000	64.772605 
4574.000000	64.731550 
4573.000000	64.674687 
4572.000000	64.602661 
4571.000000	64.519643 
4570.000000	64.434123 
4569.000000	64.357376 
4568.000000	64.302730 
4567.000000	64.283061 
4566.000000	64.308547 
4565.000000	64.382386 
4564.000000	64.501571 
4563.000000	64.656877 
4562.000000	64.834666 
4561.000000	65.018415 
4560.000000	65.192270 
4559.000000	65.343046 
4558.000000	65.462064 
4557.000000	65.545606 
4556.000000	65.594410 
4555.000000	65.612196 
4554.000000	65.604686 
4553.000000	65.578508 
4552.000000	65.539813 
4551.000000	65.493798 
4550.000000	65.444993 
4549.000000	65.397381 
4548.000000	65.354657 
4547.000000	65.319561 
4546.000000	65.294337 
4545.000000	65.279245 
4544.000000	65.271687 
4543.000000	65.265917 
4542.000000	65.254330 
4541.000000	65.228462 
4540.000000	65.180754 
4539.000000	65.106725 
4538.000000	65.006494 
4537.000000	64.885139 
4536.000000	64.751458 
4535.000000	64.617443 
4534.000000	64.495515 
4533.000000	64.397382 
4532.000000	64.331412 
4531.000000	64.302015 
4530.000000	64.307761 
4529.000000	64.344692 
4528.000000	64.408016 
4527.000000	64.490532 
4526.000000	64.582705 
4525.000000	64.676403 
4524.000000	64.766073 
4523.000000	64.845657 
4522.000000	64.909338 
4521.000000	64.957213 
4520.000000	64.994001 
4519.000000	65.027809 
4518.000000	65.066647 
4517.000000	65.116620 
4516.000000	65.179157 
4515.000000	65.246510 
4514.000000	65.307664 
4513.000000	65.353631 
4512.000000	65.380287 
4511.000000	65.395307 
4510.000000	65.411233 
4509.000000	65.437889 
4508.000000	65.481829 
4507.000000	65.548610 
4506.000000	65.633320 
4505.000000	65.722060 
4504.000000	65.791416 
4503.000000	65.821194 
4502.000000	65.782451 
4501.000000	65.644407 
4500.000000	65.378355 
4499.000000	64.967203 
4498.000000	64.404129 
4497.000000	63.697624 
4496.000000	62.879705 
4495.000000	62.002229 
4494.000000	61.132478 
4493.000000	60.337400 
4492.000000	59.666705 
4491.000000	59.142279 
4490.000000	58.746862 
4489.000000	58.442759 
4488.000000	58.163666 
4487.000000	57.868480 
4486.000000	57.551217 
4485.000000	57.272052 
4484.000000	57.133364 
4483.000000	57.270812 
4482.000000	57.806515 
4481.000000	58.815169 
4480.000000	60.279154 
4479.000000	62.094163 
4478.000000	64.073491 
4477.000000	66.002583 
4476.000000	67.679142 
4475.000000	68.976211 
4474.000000	69.867682 
4473.000000	70.430374 
4472.000000	70.815110 
4471.000000	71.184492 
4470.000000	71.657562 
4469.000000	72.269058 
4468.000000	72.954130 
4467.000000	73.573637 
4466.000000	73.949503 
4465.000000	73.938941 
4464.000000	73.464393 
4463.000000	72.535920 
4462.000000	71.246600 
4461.000000	69.745564 
4460.000000	68.206453 
4459.000000	66.784715 
4458.000000	65.594887 
4457.000000	64.700293 
4456.000000	64.108586 
4455.000000	63.790321 
4454.000000	63.688850 
4453.000000	63.738703 
4452.000000	63.881230 
4451.000000	64.067935 
4450.000000	64.267587 
4449.000000	64.448380 
4448.000000	64.595389 
4447.000000	64.699530 
4446.000000	64.760351 
4445.000000	64.778017 
4444.000000	64.761972 
4443.000000	64.727950 
4442.000000	64.688873 
4441.000000	64.652585 
4440.000000	64.623856 
4439.000000	64.604020 
4438.000000	64.593315 
4437.000000	64.591169 
4436.000000	64.596509 
4435.000000	64.608383 
4434.000000	64.624953 
4433.000000	64.645385 
4432.000000	64.668703 
4431.000000	64.695405 
4430.000000	64.729905 
4429.000000	64.776372 
4428.000000	64.832830 
4427.000000	64.895415 
4426.000000	64.961481 
4425.000000	65.027332 
4424.000000	65.086793 
4423.000000	65.135955 
4422.000000	65.174293 
4421.000000	65.204715 
4420.000000	65.232968 
4419.000000	65.265560 
4418.000000	65.307450 
4417.000000	65.360641 
4416.000000	65.423321 
4415.000000	65.488886 
4414.000000	65.547466 
4413.000000	65.588212 
4412.000000	65.602016 
4411.000000	65.584111 
4410.000000	65.535521 
4409.000000	65.463018 
4408.000000	65.377688 
4407.000000	65.292787 
4406.000000	65.220499 
4405.000000	65.169620 
4404.000000	65.143418 
4403.000000	65.139818 
4402.000000	65.151882 
4401.000000	65.170669 
4400.000000	65.187048 
4399.000000	65.193700 
4398.000000	65.187168 
4397.000000	65.168046 
4396.000000	65.140318 
4395.000000	65.109157 
4394.000000	65.079808 
4393.000000	65.055966 
4392.000000	65.038752 
4391.000000	65.026736 
4390.000000	65.017294 
4389.000000	65.008044 
4388.000000	64.997434 
4387.000000	64.985632 
4386.000000	64.974236 
4385.000000	64.965653 
4384.000000	64.961647 
4383.000000	64.963126 
4382.000000	64.969801 
4381.000000	64.979791 
4380.000000	64.990782 
4379.000000	64.999890 
4378.000000	65.004348 
4377.000000	65.001845 
4376.000000	64.991164 
4375.000000	64.972257 
4374.000000	64.945626 
4373.000000	64.913082 
4372.000000	64.877438 
4371.000000	64.842104 
4370.000000	64.810419 
4369.000000	64.785027 
4368.000000	64.767551 
4367.000000	64.757823 
4366.000000	64.754223 
4365.000000	64.753651 
4364.000000	64.752578 
4363.000000	64.747977 
4362.000000	64.738297 
4361.000000	64.724016 
4360.000000	64.707303 
4359.000000	64.691448 
4358.000000	64.679956 
4357.000000	64.674925 
4356.000000	64.676952 
4355.000000	64.684987 
4354.000000	64.697074 
4353.000000	64.710807 
4352.000000	64.724683 
4351.000000	64.738512 
4350.000000	64.753723 
4349.000000	64.772605 
4348.000000	64.797592 
4347.000000	64.830064 
4346.000000	64.869689 
4345.000000	64.914250 
4344.000000	64.959645 
4343.000000	65.000796 
4342.000000	65.032744 
4341.000000	65.052175 
4340.000000	65.057325 
4339.000000	65.048646 
4338.000000	65.028166 
4337.000000	64.999103 
4336.000000	64.965128 
4335.000000	64.929699 
4334.000000	64.895534 
4333.000000	64.864253 
4332.000000	64.836144 
4331.000000	64.810442 
4330.000000	64.785528 
4329.000000	64.759683 
4328.000000	64.731192 
4327.000000	64.699363 
4326.000000	64.664363 
4325.000000	64.628028 
4324.000000	64.592742 
4323.000000	64.562201 
4322.000000	64.539599 
4321.000000	64.528226 
4320.000000	64.530301 
4319.000000	64.547228 
4318.000000	64.578628 
4317.000000	64.622735 
4316.000000	64.676451 
4315.000000	64.735293 
4314.000000	64.794087 
4313.000000	64.847254 
4312.000000	64.889287 
4311.000000	64.915585 
4310.000000	64.922881 
4309.000000	64.910149 
4308.000000	64.878845 
4307.000000	64.833211 
4306.000000	64.779710 
4305.000000	64.726233 
4304.000000	64.680790 
4303.000000	64.650535 
4302.000000	64.640355 
4301.000000	64.652085 
4300.000000	64.684033 
4299.000000	64.731574 
4298.000000	64.787793 
4297.000000	64.844608 
4296.000000	64.894580 
4295.000000	64.931654 
4294.000000	64.953041 
4293.000000	64.958643 
4292.000000	64.951825 
4291.000000	64.938163 
4290.000000	64.924097 
4289.000000	64.915633 
4288.000000	64.916872 
4287.000000	64.929461 
4286.000000	64.952063 
4285.000000	64.981484 
4284.000000	65.012884 
4283.000000	65.041160 
4282.000000	65.061879 
4281.000000	65.072202 
4280.000000	65.070939 
4279.000000	65.058851 
4278.000000	65.037918 
4277.000000	65.011000 
4276.000000	64.981150 
4275.000000	64.950895 
4274.000000	64.921927 
4273.000000	64.895009 
4272.000000	64.870309 
4271.000000	64.847612 
4270.000000	64.826583 
4269.000000	64.807510 
4268.000000	64.791035 
4267.000000	64.778280 
4266.000000	64.770841 
4265.000000	64.769721 
4264.000000	64.774942 
4263.000000	64.784908 
4262.000000	64.796447 
4261.000000	64.805340 
4260.000000	64.806890 
4259.000000	64.797711 
4258.000000	64.776802 
4257.000000	64.746451 
4256.000000	64.711880 
4255.000000	64.680480 
4254.000000	64.660024 
4253.000000	64.656853 
4252.000000	64.673972 
4251.000000	64.710545 
4250.000000	64.761734 
4249.000000	64.819931 
4248.000000	64.876556 
4247.000000	64.923834 
4246.000000	64.956259 
4245.000000	64.971899 
4244.000000	64.972043 
4243.000000	64.960050 
4242.000000	64.940476 
4241.000000	64.917731 
4240.000000	64.894938 
4239.000000	64.873933 
4238.000000	64.854955 
4237.000000	64.838123 
4236.000000	64.822983 
4235.000000	64.809560 
4234.000000	64.797997 
4233.000000	64.788818 
4232.000000	64.782357 
4231.000000	64.778280 
4230.000000	64.775753 
4229.000000	64.773559 
4228.000000	64.770650 
4227.000000	64.766263 
4226.000000	64.760708 
4225.000000	64.755201 
4224.000000	64.751863 
4223.000000	64.752960 
4222.000000	64.760398 
4221.000000	64.774870 
4220.000000	64.795804 
4219.000000	64.821243 
4218.000000	64.847993 
4217.000000	64.872574 
4216.000000	64.892292 
4215.000000	64.905953 
4214.000000	64.913558 
4213.000000	64.916777 
4212.000000	64.918017 
4211.000000	64.920401 
4210.000000	64.926576 
4209.000000	64.938640 
4208.000000	64.957547 
4207.000000	64.983391 
4206.000000	65.015721 
4205.000000	65.053391 
4204.000000	65.094685 
4203.000000	65.137481 
4202.000000	65.179586 
4201.000000	65.218639 
4200.000000	65.252351 
4199.000000	65.278816 
4198.000000	65.296649 
4197.000000	65.305495 
4196.000000	65.305519 
4195.000000	65.297603 
4194.000000	65.282487 
4193.000000	65.260767 
4192.000000	65.232467 
4191.000000	65.197324 
4190.000000	65.155220 
4189.000000	65.106678 
4188.000000	65.053820 
4187.000000	64.999985 
4186.000000	64.950132 
4185.000000	64.909863 
4184.000000	64.884853 
4183.000000	64.878892 
4182.000000	64.894080 
4181.000000	64.929652 
4180.000000	64.982819 
4179.000000	65.048646 
4178.000000	65.121579 
4177.000000	65.196204 
4176.000000	65.267562 
4175.000000	65.331196 
4174.000000	65.383243 
4173.000000	65.420222 
4172.000000	65.438723 
4171.000000	65.435934 
4170.000000	65.410327 
4169.000000	65.362548 
4168.000000	65.296220 
4167.000000	65.217423 
4166.000000	65.134501 
4165.000000	65.056347 
4164.000000	64.991283 
4163.000000	64.945101 
4162.000000	64.920067 
4161.000000	64.914941 
4160.000000	64.925670 
4159.000000	64.946889 
4158.000000	64.972972 
4157.000000	64.999651 
4156.000000	65.024709 
4155.000000	65.047621 
4154.000000	65.068531 
4153.000000	65.087723 
4152.000000	65.104365 
4151.000000	65.116643 
4150.000000	65.121841 
4149.000000	65.117573 
4148.000000	65.102529 
4147.000000	65.077280 
4146.000000	65.044689 
4145.000000	65.008974 
4144.000000	64.974951 
4143.000000	64.946937 
4142.000000	64.928078 
4141.000000	64.919233 
4140.000000	64.919614 
4139.000000	64.927268 
4138.000000	64.940309 
4137.000000	64.957427 
4136.000000	64.978575 
4135.000000	65.004491 
4134.000000	65.036320 
4133.000000	65.074634 
4132.000000	65.118718 
4131.000000	65.166187 
4130.000000	65.213012 
4129.000000	65.254521 
4128.000000	65.286159 
4127.000000	65.304732 
4126.000000	65.308904 
4125.000000	65.299916 
4124.000000	65.280985 
4123.000000	65.256643 
4122.000000	65.231513 
4121.000000	65.209293 
4120.000000	65.191745 
4119.000000	65.178751 
4118.000000	65.168190 
4117.000000	65.157032 
4116.000000	65.142130 
4115.000000	65.121555 
4114.000000	65.094995 
4113.000000	65.064072 
4112.000000	65.031743 
4111.000000	65.001726 
4110.000000	64.977192 
4109.000000	64.960312 
4108.000000	64.951419 
4107.000000	64.949464 
4106.000000	64.951920 
4105.000000	64.956235 
4104.000000	64.960408 
4103.000000	64.964008 
4102.000000	64.968037 
4101.000000	64.974927 
4100.000000	64.987325 
4099.000000	65.007328 
4098.000000	65.035438 
4097.000000	65.069794 
4096.000000	65.106391 
4095.000000	65.139698 
4094.000000	65.163755 
4093.000000	65.173721 
4092.000000	65.166926 
4091.000000	65.143728 
4090.000000	65.107512 
4089.000000	65.063834 
4088.000000	65.019083 
4087.000000	64.979171 
4086.000000	64.948225 
4085.000000	64.927792 
4084.000000	64.916777 
4083.000000	64.912199 
4082.000000	64.910578 
4081.000000	64.908432 
4080.000000	64.904379 
4079.000000	64.898872 
4078.000000	64.894866 
4077.000000	64.896225 
4076.000000	64.907288 
4075.000000	64.930963 
4074.000000	64.968132 
4073.000000	65.017080 
4072.000000	65.073418 
4071.000000	65.130996 
4070.000000	65.183115 
4069.000000	65.223693 
4068.000000	65.248465 
4067.000000	65.255713 
4066.000000	65.246248 
4065.000000	65.223097 
4064.000000	65.190482 
4063.000000	65.152955 
4062.000000	65.114521 
4061.000000	65.078330 
4060.000000	65.046525 
4059.000000	65.020775 
4058.000000	65.002560 
4057.000000	64.993786 
4056.000000	64.996790 
4055.000000	65.013647 
4054.000000	65.045380 
4053.000000	65.091228 
4052.000000	65.147829 
4051.000000	65.209674 
4050.000000	65.269351 
4049.000000	65.319204 
4048.000000	65.352678 
4047.000000	65.365886 
4046.000000	65.358805 
4045.000000	65.335106 
4044.000000	65.301442 
4043.000000	65.265727 
4042.000000	65.235280 
4041.000000	65.215110 
4040.000000	65.206861 
4039.000000	65.209031 
4038.000000	65.217590 
4037.000000	65.227365 
4036.000000	65.233683 
4035.000000	65.233135 
4034.000000	65.224695 
4033.000000	65.209269 
4032.000000	65.189695 
4031.000000	65.169477 
4030.000000	65.152287 
4029.000000	65.141057 
4028.000000	65.137457 
4027.000000	65.141820 
4026.000000	65.153145 
4025.000000	65.169453 
4024.000000	65.188193 
4023.000000	65.206694 
4022.000000	65.222668 
4021.000000	65.234065 
4020.000000	65.239858 
4019.000000	65.239810 
4018.000000	65.234494 
4017.000000	65.224933 
4016.000000	65.212512 
4015.000000	65.198540 
4014.000000	65.184116 
4013.000000	65.169978 
4012.000000	65.156602 
4011.000000	65.144467 
4010.000000	65.134072 
4009.000000	65.126109 
4008.000000	65.121173 
4007.000000	65.119600 
4006.000000	65.121054 
4005.000000	65.124440 
4004.000000	65.127849 
4003.000000	65.128779 
4002.000000	65.124678 
4001.000000	65.113759 
4000.000000	65.095186 
3999.000000	65.069651 
3998.000000	65.039348 
3997.000000	65.007758 
3996.000000	64.978718 
3995.000000	64.955830 
3994.000000	64.941716 
3993.000000	64.937734 
3992.000000	64.943838 
3991.000000	64.958643 
3990.000000	64.979934 
3989.000000	65.004825 
3988.000000	65.030360 
3987.000000	65.053439 
3986.000000	65.071296 
3985.000000	65.081357 
3984.000000	65.081667 
3983.000000	65.071105 
3982.000000	65.049839 
3981.000000	65.019631 
3980.000000	64.983844 
3979.000000	64.947271 
3978.000000	64.915418 
3977.000000	64.893579 
3976.000000	64.885830 
3975.000000	64.894127 
3974.000000	64.918041 
3973.000000	64.954304 
3972.000000	64.998149 
3971.000000	65.043687 
3970.000000	65.085649 
3969.000000	65.119862 
3968.000000	65.144228 
3967.000000	65.158653 
3966.000000	65.164852 
3965.000000	65.165352 
3964.000000	65.162801 
3963.000000	65.159654 
3962.000000	65.157270 
3961.000000	65.156364 
3960.000000	65.156865 
3959.000000	65.158581 
3958.000000	65.160918 
3957.000000	65.163230 
3956.000000	65.164661 
3955.000000	65.164256 
3954.000000	65.161061 
3953.000000	65.154242 
3952.000000	65.143275 
3951.000000	65.128350 
3950.000000	65.110325 
3949.000000	65.090894 
3948.000000	65.072321 
3947.000000	65.057182 
3946.000000	65.047645 
3945.000000	65.045261 
3944.000000	65.050363 
3943.000000	65.062189 
3942.000000	65.078926 
3941.000000	65.097904 
3940.000000	65.115976 
3939.000000	65.130233 
3938.000000	65.138459 
3937.000000	65.139651 
3936.000000	65.133786 
3935.000000	65.122461 
3934.000000	65.108275 
3933.000000	65.094828 
3932.000000	65.085840 
3931.000000	65.084433 
3930.000000	65.092468 
3929.000000	65.110158 
3928.000000	65.136003 
3927.000000	65.166902 
3926.000000	65.198802 
3925.000000	65.227580 
3924.000000	65.249586 
3923.000000	65.262436 
3922.000000	65.265059 
3921.000000	65.258264 
3920.000000	65.243577 
3919.000000	65.223193 
3918.000000	65.198993 
3917.000000	65.172553 
3916.000000	65.144658 
3915.000000	65.115499 
3914.000000	65.084886 
3913.000000	65.052938 
3912.000000	65.020394 
3911.000000	64.988589 
3910.000000	64.959859 
3909.000000	64.936661 
3908.000000	64.921784 
3907.000000	64.917540 
3906.000000	64.925456 
3905.000000	64.945554 
3904.000000	64.976477 
3903.000000	65.015530 
3902.000000	65.058803 
3901.000000	65.102052 
3900.000000	65.141248 
3899.000000	65.173268 
3898.000000	65.196275 
3897.000000	65.210056 
3896.000000	65.216183 
3895.000000	65.217566 
3894.000000	65.217590 
3893.000000	65.219593 
3892.000000	65.226483 
3891.000000	65.239667 
3890.000000	65.259361 
3889.000000	65.283966 
3888.000000	65.310907 
3887.000000	65.336489 
3886.000000	65.357327 
3885.000000	65.370273 
3884.000000	65.373158 
3883.000000	65.364933 
3882.000000	65.346121 
3881.000000	65.318655 
3880.000000	65.285420 
3879.000000	65.249991 
3878.000000	65.216207 
3877.000000	65.187454 
3876.000000	65.166187 
3875.000000	65.153431 
3874.000000	65.148782 
3873.000000	65.150260 
3872.000000	65.154623 
3871.000000	65.157818 
3870.000000	65.155935 
3869.000000	65.145826 
3868.000000	65.126109 
3867.000000	65.096998 
3866.000000	65.061044 
3865.000000	65.022444 
3864.000000	64.986848 
3863.000000	64.959788 
3862.000000	64.946150 
3861.000000	64.949250 
3860.000000	64.970278 
3859.000000	65.008044 
3858.000000	65.058732 
3857.000000	65.116953 
3856.000000	65.176200 
3855.000000	65.230035 
3854.000000	65.273094 
3853.000000	65.301871 
3852.000000	65.315270 
3851.000000	65.314459 
3850.000000	65.302705 
3849.000000	65.284419 
3848.000000	65.264701 
3847.000000	65.248036 
3846.000000	65.237951 
3845.000000	65.236234 
3844.000000	65.243148 
3843.000000	65.257406 
3842.000000	65.276694 
3841.000000	65.297794 
3840.000000	65.317463 
3839.000000	65.332674 
3838.000000	65.341234 
3837.000000	65.341925 
3836.000000	65.334725 
3835.000000	65.320730 
3834.000000	65.301871 
3833.000000	65.280771 
3832.000000	65.260362 
3831.000000	65.243387 
3830.000000	65.232133 
3829.000000	65.227651 
3828.000000	65.230107 
3827.000000	65.238308 
3826.000000	65.250015 
3825.000000	65.262079 
3824.000000	65.270972 
3823.000000	65.273714 
3822.000000	65.268421 
3821.000000	65.254449 
3820.000000	65.232539 
3819.000000	65.204834 
3818.000000	65.174317 
3817.000000	65.144228 
3816.000000	65.117383 
3815.000000	65.095901 
3814.000000	65.080738 
3813.000000	65.071964 
3812.000000	65.068888 
3811.000000	65.070343 
3810.000000	65.075182 
3809.000000	65.082240 
3808.000000	65.090918 
3807.000000	65.100765 
3806.000000	65.111517 
3805.000000	65.122842 
3804.000000	65.134358 
3803.000000	65.145516 
3802.000000	65.155696 
3801.000000	65.164422 
3800.000000	65.171098 
3799.000000	65.175247 
3798.000000	65.176510 
3797.000000	65.174889 
3796.000000	65.170216 
3795.000000	65.162539 
3794.000000	65.152144 
3793.000000	65.139484 
3792.000000	65.125203 
3791.000000	65.110182 
3790.000000	65.095400 
3789.000000	65.082311 
3788.000000	65.072298 
3787.000000	65.066862 
3786.000000	65.067291 
3785.000000	65.074515 
3784.000000	65.088438 
3783.000000	65.108036 
3782.000000	65.131354 
3781.000000	65.155577 
3780.000000	65.177512 
3779.000000	65.194082 
3778.000000	65.202784 
3777.000000	65.202403 
3776.000000	65.193152 
3775.000000	65.176820 
3774.000000	65.156316 
3773.000000	65.135502 
3772.000000	65.118670 
3771.000000	65.109682 
3770.000000	65.111351 
3769.000000	65.124988 
3768.000000	65.150141 
3767.000000	65.184831 
3766.000000	65.225815 
3765.000000	65.269231 
3764.000000	65.311193 
3763.000000	65.348505 
3762.000000	65.378999 
3761.000000	65.401530 
3760.000000	65.416049 
3759.000000	65.423178 
3758.000000	65.423917 
3757.000000	65.419483 
3756.000000	65.410852 
3755.000000	65.399122 
3754.000000	65.385365 
3753.000000	65.371036 
3752.000000	65.357351 
3751.000000	65.345692 
3750.000000	65.336585 
3749.000000	65.329933 
3748.000000	65.324568 
3747.000000	65.318346 
3746.000000	65.309214 
3745.000000	65.295791 
3744.000000	65.278053 
3743.000000	65.257668 
3742.000000	65.238022 
3741.000000	65.223312 
3740.000000	65.217804 
3739.000000	65.224409 
3738.000000	65.243983 
3737.000000	65.274953 
3736.000000	65.313339 
3735.000000	65.353679 
3734.000000	65.390324 
3733.000000	65.418267 
3732.000000	65.434503 
3731.000000	65.438032 
3730.000000	65.430068 
3729.000000	65.413188 
3728.000000	65.390872 
3727.000000	65.366387 
3726.000000	65.342211 
3725.000000	65.319705 
3724.000000	65.299510 
3723.000000	65.281319 
3722.000000	65.264606 
3721.000000	65.248703 
3720.000000	65.233135 
3719.000000	65.217828 
3718.000000	65.202975 
3717.000000	65.189075 
3716.000000	65.176439 
3715.000000	65.165567 
3714.000000	65.157008 
3713.000000	65.151262 
3712.000000	65.148830 
3711.000000	65.150046 
3710.000000	65.155124 
3709.000000	65.164113 
3708.000000	65.176868 
3707.000000	65.192794 
3706.000000	65.211319 
3705.000000	65.231585 
3704.000000	65.252947 
3703.000000	65.274858 
3702.000000	65.297102 
3701.000000	65.319347 
3700.000000	65.341019 
3699.000000	65.361690 
3698.000000	65.380263 
3697.000000	65.395474 
3696.000000	65.405368 
3695.000000	65.408015 
3694.000000	65.401577 
3693.000000	65.384960 
3692.000000	65.357851 
3691.000000	65.321302 
3690.000000	65.277552 
3689.000000	65.230131 
3688.000000	65.183305 
3687.000000	65.141582 
3686.000000	65.109086 
3685.000000	65.089225 
3684.000000	65.084075 
3683.000000	65.094256 
3682.000000	65.118741 
3681.000000	65.155172 
3680.000000	65.199613 
3679.000000	65.247392 
3678.000000	65.293383 
3677.000000	65.332674 
3676.000000	65.361332 
3675.000000	65.376353 
3674.000000	65.376639 
3673.000000	65.362310 
3672.000000	65.334701 
3671.000000	65.296053 
3670.000000	65.249395 
3669.000000	65.197873 
3668.000000	65.145039 
3667.000000	65.094447 
3666.000000	65.049576 
3665.000000	65.013360 
3664.000000	64.987945 
3663.000000	64.974498 
3662.000000	64.972782 
3661.000000	64.981198 
3660.000000	64.997005 
3659.000000	65.016913 
3658.000000	65.037775 
3657.000000	65.057229 
3656.000000	65.074086 
3655.000000	65.088486 
3654.000000	65.101718 
3653.000000	65.115404 
3652.000000	65.130901 
3651.000000	65.148711 
3650.000000	65.168333 
3649.000000	65.188646 
3648.000000	65.208101 
3647.000000	65.225315 
3646.000000	65.239119 
3645.000000	65.249276 
3644.000000	65.256166 
3643.000000	65.260434 
3642.000000	65.263175 
3641.000000	65.265297 
3640.000000	65.268039 
3639.000000	65.272498 
3638.000000	65.279817 
3637.000000	65.290975 
3636.000000	65.306711 
3635.000000	65.327334 
3634.000000	65.351939 
3633.000000	65.378665 
3632.000000	65.404701 
3631.000000	65.426826 
3630.000000	65.442347 
3629.000000	65.449619 
3628.000000	65.448594 
3627.000000	65.440678 
3626.000000	65.428400 
3625.000000	65.414500 
3624.000000	65.401005 
3623.000000	65.388774 
3622.000000	65.377712 
3621.000000	65.366888 
3620.000000	65.355372 
3619.000000	65.342569 
3618.000000	65.328860 
3617.000000	65.315437 
3616.000000	65.304040 
3615.000000	65.296196 
3614.000000	65.292835 
3613.000000	65.293717 
3612.000000	65.297484 
3611.000000	65.302109 
3610.000000	65.305566 
3609.000000	65.306496 
3608.000000	65.304684 
3607.000000	65.300941 
3606.000000	65.296721 
3605.000000	65.293478 
3604.000000	65.292000 
3603.000000	65.292215 
3602.000000	65.292859 
3601.000000	65.292024 
3600.000000	65.287518 
3599.000000	65.277481 
3598.000000	65.261006 
3597.000000	65.238213 
3596.000000	65.210533 
3595.000000	65.180444 
3594.000000	65.151166 
3593.000000	65.125775 
3592.000000	65.107178 
3591.000000	65.097069 
3590.000000	65.096282 
3589.000000	65.104484 
3588.000000	65.120363 
3587.000000	65.142035 
3586.000000	65.167403 
3585.000000	65.194272 
3584.000000	65.220689 
3583.000000	65.244793 
3582.000000	65.265059 
3581.000000	65.280103 
3580.000000	65.289235 
3579.000000	65.292167 
3578.000000	65.289378 
3577.000000	65.281963 
3576.000000	65.271973 
3575.000000	65.262055 
3574.000000	65.254878 
3573.000000	65.252423 
3572.000000	65.255951 
3571.000000	65.265083 
3570.000000	65.278220 
3569.000000	65.292549 
3568.000000	65.304565 
3567.000000	65.310931 
3566.000000	65.309453 
3565.000000	65.299534 
3564.000000	65.282034 
3563.000000	65.259480 
3562.000000	65.235495 
3561.000000	65.214109 
3560.000000	65.198779 
3559.000000	65.191936 
3558.000000	65.194606 
3557.000000	65.206074 
3556.000000	65.224218 
3555.000000	65.245532 
3554.000000	65.265989 
3553.000000	65.281248 
3552.000000	65.287542 
3551.000000	65.281701 
3550.000000	65.261626 
3549.000000	65.226602 
3548.000000	65.177464 
3547.000000	65.116477 
3546.000000	65.047812 
3545.000000	64.976882 
3544.000000	64.910244 
3543.000000	64.854693 
3542.000000	64.816546 
3541.000000	64.800214 
3540.000000	64.807915 
3539.000000	64.838624 
3538.000000	64.888596 
3537.000000	64.951372 
3536.000000	65.019440 
3535.000000	65.084648 
3534.000000	65.140652 
3533.000000	65.183186 
3532.000000	65.210962 
3531.000000	65.225100 
3530.000000	65.228533 
3529.000000	65.224695 
3528.000000	65.216445 
3527.000000	65.205645 
3526.000000	65.192890 
3525.000000	65.177845 
3524.000000	65.160012 
3523.000000	65.139412 
3522.000000	65.116882 
3521.000000	65.094065 
3520.000000	65.073180 
3519.000000	65.056633 
3518.000000	65.046381 
3517.000000	65.043473 
3516.000000	65.048003 
3515.000000	65.059137 
3514.000000	65.075206 
3513.000000	65.093970 
3512.000000	65.113115 
3511.000000	65.130543 
3510.000000	65.144062 
3509.000000	65.151691 
3508.000000	65.151929 
3507.000000	65.143847 
3506.000000	65.127491 
3505.000000	65.103769 
3504.000000	65.074443 
3503.000000	65.041851 
3502.000000	65.008807 
3501.000000	64.977908 
3500.000000	64.951062 
3499.000000	64.929771 
3498.000000	64.914870 
3497.000000	64.906859 
3496.000000	64.905810 
3495.000000	64.911532 
3494.000000	64.923477 
3493.000000	64.940571 
3492.000000	64.961457 
3491.000000	64.984202 
3490.000000	65.006923 
3489.000000	65.027761 
3488.000000	65.045428 
3487.000000	65.059733 
3486.000000	65.071296 
3485.000000	65.081644 
3484.000000	65.092349 
3483.000000	65.104746 
3482.000000	65.119147 
3481.000000	65.134644 
3480.000000	65.149283 
3479.000000	65.160799 
3478.000000	65.167164 
3477.000000	65.167474 
3476.000000	65.161824 
3475.000000	65.151524 
3474.000000	65.138649 
3473.000000	65.125513 
3472.000000	65.113997 
3471.000000	65.105056 
3470.000000	65.098738 
3469.000000	65.094470 
3468.000000	65.091300 
3467.000000	65.088152 
3466.000000	65.084433 
3465.000000	65.079998 
3464.000000	65.075373 
3463.000000	65.071368 
3462.000000	65.068650 
3461.000000	65.067601 
3460.000000	65.068244 
3459.000000	65.070271 
3458.000000	65.072989 
3457.000000	65.075564 
3456.000000	65.077304 
3455.000000	65.077924 
3454.000000	65.077376 
3453.000000	65.076065 
3452.000000	65.074753 
3451.000000	65.074443 
3450.000000	65.076160 
3449.000000	65.080785 
3448.000000	65.088772 
3447.000000	65.100026 
3446.000000	65.114140 
3445.000000	65.130162 
3444.000000	65.146994 
3443.000000	65.163493 
3442.000000	65.178728 
3441.000000	65.191888 
3440.000000	65.202331 
3439.000000	65.209579 
3438.000000	65.213012 
3437.000000	65.211987 
3436.000000	65.205836 
3435.000000	65.193963 
3434.000000	65.176224 
3433.000000	65.153098 
3432.000000	65.125846 
3431.000000	65.096712 
3430.000000	65.068650 
3429.000000	65.044760 
3428.000000	65.027809 
3427.000000	65.019845 
3426.000000	65.021634 
3425.000000	65.032243 
3424.000000	65.049529 
3423.000000	65.070366 
3422.000000	65.091657 
3421.000000	65.110778 
3420.000000	65.126204 
3419.000000	65.137577 
3418.000000	65.145540 
3417.000000	65.151286 
3416.000000	65.155863 
3415.000000	65.159630 
3414.000000	65.162014 
3413.000000	65.161609 
3412.000000	65.156626 
3411.000000	65.145540 
3410.000000	65.127587 
3409.000000	65.103435 
3408.000000	65.074920 
3407.000000	65.045714 
3406.000000	65.019917 
3405.000000	65.002083 
3404.000000	64.995861 
3403.000000	65.003895 
3402.000000	65.026950 
3401.000000	65.064048 
3400.000000	65.112519 
3399.000000	65.168213 
3398.000000	65.225887 
3397.000000	65.280008 
3396.000000	65.325474 
3395.000000	65.358161 
3394.000000	65.375614 
3393.000000	65.377259 
3392.000000	65.364384 
3391.000000	65.340113 
3390.000000	65.308547 
3389.000000	65.274405 
3388.000000	65.241980 
3387.000000	65.215039 
3386.000000	65.196251 
3385.000000	65.187096 
3384.000000	65.187668 
3383.000000	65.196847 
3382.000000	65.212678 
3381.000000	65.232396 
3380.000000	65.252995 
3379.000000	65.271258 
3378.000000	65.284681 
3377.000000	65.291380 
3376.000000	65.290331 
3375.000000	65.281581 
3374.000000	65.266346 
3373.000000	65.246677 
3372.000000	65.225005 
3371.000000	65.204000 
3370.000000	65.185666 
3369.000000	65.171265 
3368.000000	65.160989 
3367.000000	65.154218 
3366.000000	65.149354 
3365.000000	65.144443 
3364.000000	65.137505 
3363.000000	65.127158 
3362.000000	65.112781 
3361.000000	65.094399 
3360.000000	65.072774 
3359.000000	65.049004 
3358.000000	65.024399 
3357.000000	65.000104 
3356.000000	64.976572 
3355.000000	64.954090 
3354.000000	64.932441 
3353.000000	64.911842 
3352.000000	64.892697 
3351.000000	64.875936 
3350.000000	64.862918 
3349.000000	64.855170 
3348.000000	64.854025 
3347.000000	64.860177 
3346.000000	64.873075 
3345.000000	64.891171 
3344.000000	64.911913 
3343.000000	64.932394 
3342.000000	64.949798 
3341.000000	64.962148 
3340.000000	64.968538 
3339.000000	64.969372 
3338.000000	64.966154 
3337.000000	64.961004 
3336.000000	64.955806 
3335.000000	64.952182 
3334.000000	64.951062 
3333.000000	64.952898 
3332.000000	64.957904 
3331.000000	64.966392 
3330.000000	64.978837 
3329.000000	64.995670 
3328.000000	65.017151 
3327.000000	65.042901 
3326.000000	65.071773 
3325.000000	65.101432 
3324.000000	65.128850 
3323.000000	65.150713 
3322.000000	65.164065 
3321.000000	65.166854 
3320.000000	65.158462 
3319.000000	65.139937 
3318.000000	65.113878 
3317.000000	65.084004 
3316.000000	65.054440 
3315.000000	65.028953 
3314.000000	65.010404 
3313.000000	65.000343 
3312.000000	64.998793 
3311.000000	65.004324 
3310.000000	65.014600 
3309.000000	65.026879 
3308.000000	65.038347 
3307.000000	65.046620 
3306.000000	65.050196 
3305.000000	65.048646 
3304.000000	65.042614 
3303.000000	65.033388 
3302.000000	65.022826 
3301.000000	65.012741 
3300.000000	65.004873 
3299.000000	65.000247 
3298.000000	64.999485 
3297.000000	65.002512 
3296.000000	65.008950 
3295.000000	65.017938 
3294.000000	65.028500 
3293.000000	65.039539 
3292.000000	65.050053 
3291.000000	65.059232 
3290.000000	65.066409 
3289.000000	65.071105 
3288.000000	65.073108 
3287.000000	65.072226 
3286.000000	65.068244 
3285.000000	65.060925 
3284.000000	65.050244 
3283.000000	65.036153 
3282.000000	65.018868 
3281.000000	64.999127 
3280.000000	64.978075 
3279.000000	64.957666 
3278.000000	64.940166 
3277.000000	64.927864 
3276.000000	64.922618 
3275.000000	64.925265 
3274.000000	64.935851 
3273.000000	64.952850 
3272.000000	64.974164 
3271.000000	64.997363 
3270.000000	65.020585 
3269.000000	65.042734 
3268.000000	65.064001 
3267.000000	65.085220 
3266.000000	65.107798 
3265.000000	65.132737 
3264.000000	65.160250 
3263.000000	65.189456 
3262.000000	65.218424 
3261.000000	65.244579 
3260.000000	65.265393 
3259.000000	65.279293 
3258.000000	65.285778 
3257.000000	65.285801 
3256.000000	65.281009 
3255.000000	65.273499 
3254.000000	65.264916 
3253.000000	65.256237 
3252.000000	65.247321 
3251.000000	65.237355 
3250.000000	65.225243 
3249.000000	65.210318 
3248.000000	65.192341 
3247.000000	65.171957 
3246.000000	65.150594 
3245.000000	65.130162 
3244.000000	65.112543 
3243.000000	65.099358 
3242.000000	65.091538 
3241.000000	65.089130 
3240.000000	65.091681 
3239.000000	65.098023 
3238.000000	65.106678 
3237.000000	65.115833 
3236.000000	65.123987 
3235.000000	65.129685 
3234.000000	65.131688 
3233.000000	65.129280 
3232.000000	65.122270 
3231.000000	65.111279 
3230.000000	65.097427 
3229.000000	65.082144 
3228.000000	65.066957 
3227.000000	65.053296 
3226.000000	65.042209 
3225.000000	65.034532 
3224.000000	65.030837 
3223.000000	65.031504 
3222.000000	65.037012 
3221.000000	65.047740 
3220.000000	65.063881 
3219.000000	65.085148 
3218.000000	65.110778 
3217.000000	65.139269 
3216.000000	65.168571 
3215.000000	65.196156 
3214.000000	65.219354 
3213.000000	65.235805 
3212.000000	65.243649 
3211.000000	65.241980 
3210.000000	65.230894 
3209.000000	65.211462 
3208.000000	65.185594 
3207.000000	65.155649 
3206.000000	65.124535 
3205.000000	65.095448 
3204.000000	65.071535 
3203.000000	65.055513 
3202.000000	65.049552 
3201.000000	65.054893 
3200.000000	65.071558 
3199.000000	65.098094 
3198.000000	65.131640 
3197.000000	65.168118 
3196.000000	65.202951 
3195.000000	65.231752 
3194.000000	65.250968 
3193.000000	65.258598 
3192.000000	65.254521 
3191.000000	65.240359 
3190.000000	65.219092 
3189.000000	65.194296 
3188.000000	65.169548 
3187.000000	65.147376 
3186.000000	65.129280 
3185.000000	65.114998 
3184.000000	65.103340 
3183.000000	65.091896 
3182.000000	65.078139 
3181.000000	65.059733 
3180.000000	65.035128 
3179.000000	65.003991 
3178.000000	64.967298 
3177.000000	64.927244 
3176.000000	64.887022 
3175.000000	64.850449 
3174.000000	64.821267 
3173.000000	64.802646 
3172.000000	64.796757 
3171.000000	64.804267 
3170.000000	64.824414 
3169.000000	64.854860 
3168.000000	64.892244 
3167.000000	64.932847 
3166.000000	64.973211 
3165.000000	65.010333 
3164.000000	65.042328 
3163.000000	65.068411 
3162.000000	65.088629 
3161.000000	65.103840 
3160.000000	65.115118 
3159.000000	65.123486 
3158.000000	65.129494 
3157.000000	65.133810 
3156.000000	65.136718 
3155.000000	65.138483 
3154.000000	65.139293 
3153.000000	65.139722 
3152.000000	65.140295 
3151.000000	65.141534 
3150.000000	65.143823 
3149.000000	65.147304 
3148.000000	65.151786 
3147.000000	65.156769 
3146.000000	65.161442 
3145.000000	65.164852 
3144.000000	65.165758 
3143.000000	65.162754 
3142.000000	65.154314 
3141.000000	65.139627 
3140.000000	65.118646 
3139.000000	65.092682 
3138.000000	65.064167 
3137.000000	65.036725 
3136.000000	65.014696 
3135.000000	65.002298 
3134.000000	65.002346 
3133.000000	65.015745 
3132.000000	65.041446 
3131.000000	65.076279 
3130.000000	65.115356 
3129.000000	65.153217 
3128.000000	65.184879 
3127.000000	65.206837 
3126.000000	65.217447 
3125.000000	65.217065 
3124.000000	65.207791 
3123.000000	65.192747 
3122.000000	65.175294 
3121.000000	65.158486 
3120.000000	65.144491 
3119.000000	65.134572 
3118.000000	65.129256 
3117.000000	65.128469 
3116.000000	65.131640 
3115.000000	65.138077 
3114.000000	65.146756 
3113.000000	65.156221 
3112.000000	65.164685 
3111.000000	65.169930 
3110.000000	65.169882 
3109.000000	65.162944 
3108.000000	65.148496 
3107.000000	65.127015 
3106.000000	65.100169 
3105.000000	65.070509 
3104.000000	65.040850 
3103.000000	65.013885 
3102.000000	64.991807 
3101.000000	64.975929 
3100.000000	64.966869 
3099.000000	64.964485 
3098.000000	64.968180 
3097.000000	64.977264 
3096.000000	64.990806 
3095.000000	65.007686 
3094.000000	65.026974 
3093.000000	65.047717 
3092.000000	65.069127 
3091.000000	65.090560 
3090.000000	65.111613 
3089.000000	65.131831 
3088.000000	65.151023 
3087.000000	65.168929 
3086.000000	65.185046 
3085.000000	65.198493 
3084.000000	65.208244 
3083.000000	65.213060 
3082.000000	65.211820 
3081.000000	65.203762 
3080.000000	65.189099 
3079.000000	65.168905 
3078.000000	65.145158 
3077.000000	65.120220 
3076.000000	65.096640 
3075.000000	65.076518 
3074.000000	65.061068 
3073.000000	65.050554 
3072.000000	65.044355 
3071.000000	65.041255 
3070.000000	65.039968 
3069.000000	65.039634 
3068.000000	65.040063 
3067.000000	65.041828 
3066.000000	65.045952 
3065.000000	65.053486 
3064.000000	65.064907 
3063.000000	65.079927 
3062.000000	65.097594 
3061.000000	65.116095 
3060.000000	65.133523 
3059.000000	65.148496 
3058.000000	65.160393 
3057.000000	65.169453 
3056.000000	65.176892 
3055.000000	65.184044 
3054.000000	65.192103 
3053.000000	65.201234 
3052.000000	65.210676 
3051.000000	65.218925 
3050.000000	65.224027 
3049.000000	65.224337 
3048.000000	65.219116 
3047.000000	65.208649 
3046.000000	65.194487 
3045.000000	65.179109 
3044.000000	65.165376 
3043.000000	65.155434 
3042.000000	65.150642 
3041.000000	65.151047 
3040.000000	65.155458 
3039.000000	65.161848 
3038.000000	65.167903 
3037.000000	65.171504 
3036.000000	65.171313 
3035.000000	65.167069 
3034.000000	65.159225 
3033.000000	65.148806 
3032.000000	65.136957 
3031.000000	65.124464 
3030.000000	65.111637 
3029.000000	65.098214 
3028.000000	65.083742 
3027.000000	65.068030 
3026.000000	65.051174 
3025.000000	65.034008 
3024.000000	65.018105 
3023.000000	65.005493 
3022.000000	64.998126 
3021.000000	64.997577 
3020.000000	65.004587 
3019.000000	65.018725 
3018.000000	65.038371 
3017.000000	65.061044 
3016.000000	65.083670 
3015.000000	65.103030 
3014.000000	65.116429 
3013.000000	65.121650 
3012.000000	65.117383 
3011.000000	65.103507 
3010.000000	65.081024 
3009.000000	65.052103 
3008.000000	65.019750 
3007.000000	64.987635 
3006.000000	64.959621 
3005.000000	64.938926 
3004.000000	64.927721 
3003.000000	64.926743 
3002.000000	64.935159 
3001.000000	64.950704 
3000.000000	64.970111 
2999.000000	64.989900 
2998.000000	65.007019 
2997.000000	65.019369 
2996.000000	65.026044 
2995.000000	65.027356 
2994.000000	65.024566 
2993.000000	65.019226 
2992.000000	65.013003 
2991.000000	65.007138 
2990.000000	65.002393 
2989.000000	64.999079 
2988.000000	64.997434 
2987.000000	64.997696 
2986.000000	65.000247 
2985.000000	65.005564 
2984.000000	65.014052 
2983.000000	65.025758 
2982.000000	65.040469 
2981.000000	65.057682 
2980.000000	65.076589 
2979.000000	65.096282 
2978.000000	65.115761 
2977.000000	65.134167 
2976.000000	65.151000 
2975.000000	65.165877 
2974.000000	65.178561 
2973.000000	65.188789 
2972.000000	65.196394 
2971.000000	65.201067 
2970.000000	65.202522 
2969.000000	65.200495 
2968.000000	65.195035 
2967.000000	65.186309 
2966.000000	65.175223 
2965.000000	65.162992 
2964.000000	65.151071 
2963.000000	65.140676 
2962.000000	65.132904 
2961.000000	65.127992 
2960.000000	65.125465 
2959.000000	65.124058 
2958.000000	65.122008 
2957.000000	65.117383 
2956.000000	65.108752 
2955.000000	65.095424 
2954.000000	65.077948 
2953.000000	65.057897 
2952.000000	65.037798 
2951.000000	65.020608 
2950.000000	65.009260 
2949.000000	65.005874 
2948.000000	65.011382 
2947.000000	65.025067 
2946.000000	65.044832 
2945.000000	65.067362 
2944.000000	65.089130 
2943.000000	65.106964 
2942.000000	65.118885 
2941.000000	65.124106 
2940.000000	65.123105 
2939.000000	65.117192 
2938.000000	65.108036 
2937.000000	65.097260 
2936.000000	65.086197 
2935.000000	65.075755 
2934.000000	65.066456 
2933.000000	65.058851 
2932.000000	65.053176 
2931.000000	65.049505 
2930.000000	65.047574 
2929.000000	65.047025 
2928.000000	65.047454 
2927.000000	65.048718 
2926.000000	65.050935 
2925.000000	65.054821 
2924.000000	65.061473 
2923.000000	65.071988 
2922.000000	65.087246 
2921.000000	65.107297 
2920.000000	65.130949 
2919.000000	65.155816 
2918.000000	65.178489 
2917.000000	65.195393 
2916.000000	65.203595 
2915.000000	65.201520 
2914.000000	65.189671 
2913.000000	65.170598 
2912.000000	65.148591 
2911.000000	65.128707 
2910.000000	65.115642 
2909.000000	65.112853 
2908.000000	65.121865 
2907.000000	65.141797 
2906.000000	65.169954 
2905.000000	65.201854 
2904.000000	65.232658 
2903.000000	65.257668 
2902.000000	65.273499 
2901.000000	65.278577 
2900.000000	65.273261 
2899.000000	65.259623 
2898.000000	65.240645 
2897.000000	65.219593 
2896.000000	65.199232 
2895.000000	65.181469 
2894.000000	65.166926 
2893.000000	65.155386 
2892.000000	65.146160 
2891.000000	65.138554 
2890.000000	65.132308 
2889.000000	65.127730 
2888.000000	65.125656 
2887.000000	65.126919 
2886.000000	65.132141 
2885.000000	65.141367 
2884.000000	65.153837 
2883.000000	65.167999 
2882.000000	65.181827 
2881.000000	65.193271 
2880.000000	65.200567 
2879.000000	65.202760 
2878.000000	65.199446 
2877.000000	65.190672 
2876.000000	65.176916 
2875.000000	65.158915 
2874.000000	65.137386 
2873.000000	65.113067 
2872.000000	65.087008 
2871.000000	65.060377 
2870.000000	65.034890 
2869.000000	65.012526 
2868.000000	64.995360 
2867.000000	64.985251 
2866.000000	64.983177 
2865.000000	64.989328 
2864.000000	65.002727 
2863.000000	65.021371 
2862.000000	65.042662 
2861.000000	65.063858 
2860.000000	65.082430 
2859.000000	65.096592 
2858.000000	65.105319 
2857.000000	65.108656 
2856.000000	65.107274 
2855.000000	65.102720 
2854.000000	65.097022 
2853.000000	65.092396 
2852.000000	65.091013 
2851.000000	65.094542 
2850.000000	65.103960 
2849.000000	65.119147 
2848.000000	65.139007 
2847.000000	65.161299 
2846.000000	65.183234 
2845.000000	65.201950 
2844.000000	65.215015 
2843.000000	65.220952 
2842.000000	65.219521 
2841.000000	65.211939 
2840.000000	65.200328 
2839.000000	65.187168 
2838.000000	65.174531 
2837.000000	65.163969 
2836.000000	65.155863 
2835.000000	65.149998 
2834.000000	65.145325 
2833.000000	65.140867 
2832.000000	65.135598 
2831.000000	65.128922 
2830.000000	65.120625 
2829.000000	65.110611 
2828.000000	65.099191 
2827.000000	65.086793 
2826.000000	65.074157 
2825.000000	65.061950 
2824.000000	65.051150 
2823.000000	65.043067 
2822.000000	65.039086 
2821.000000	65.040469 
2820.000000	65.048170 
2819.000000	65.062570 
2818.000000	65.083169 
2817.000000	65.108680 
2816.000000	65.136933 
2815.000000	65.165376 
2814.000000	65.191435 
2813.000000	65.212726 
2812.000000	65.227532 
2811.000000	65.234899 
2810.000000	65.234804 
2809.000000	65.227866 
2808.000000	65.215349 
2807.000000	65.198850 
2806.000000	65.180373 
2805.000000	65.161728 
2804.000000	65.144443 
2803.000000	65.129542 
2802.000000	65.117788 
2801.000000	65.109205 
2800.000000	65.103483 
2799.000000	65.099763 
2798.000000	65.097165 
2797.000000	65.094828 
2796.000000	65.092062 
2795.000000	65.088868 
2794.000000	65.085601 
2793.000000	65.083336 
2792.000000	65.083312 
2791.000000	65.086889 
2790.000000	65.094852 
2789.000000	65.107464 
2788.000000	65.123844 
2787.000000	65.142250 
2786.000000	65.160346 
2785.000000	65.175819 
2784.000000	65.186834 
2783.000000	65.192389 
2782.000000	65.192723 
2781.000000	65.189146 
2780.000000	65.183830 
2779.000000	65.179109 
2778.000000	65.176916 
2777.000000	65.178203 
2776.000000	65.182757 
2775.000000	65.189409 
2774.000000	65.196275 
2773.000000	65.201210 
2772.000000	65.202522 
2771.000000	65.199518 
2770.000000	65.192627 
2769.000000	65.183329 
2768.000000	65.173864 
2767.000000	65.166521 
2766.000000	65.163302 
2765.000000	65.165162 
2764.000000	65.171933 
2763.000000	65.181994 
2762.000000	65.192818 
2761.000000	65.201497 
2760.000000	65.205073 
2759.000000	65.201544 
2758.000000	65.190243 
2757.000000	65.172290 
2756.000000	65.150260 
2755.000000	65.128040 
2754.000000	65.109872 
2753.000000	65.099644 
2752.000000	65.100026 
2751.000000	65.111947 
2750.000000	65.134358 
2749.000000	65.164327 
2748.000000	65.197753 
2747.000000	65.229964 
2746.000000	65.256762 
2745.000000	65.274953 
2744.000000	65.283083 
2743.000000	65.281581 
2742.000000	65.272307 
2741.000000	65.258145 
2740.000000	65.242338 
2739.000000	65.227699 
2738.000000	65.216135 
2737.000000	65.208411 
2736.000000	65.204095 
2735.000000	65.201830 
2734.000000	65.199756 
2733.000000	65.196156 
2732.000000	65.190029 
2731.000000	65.181112 
2730.000000	65.170311 
2729.000000	65.159177 
2728.000000	65.149521 
2727.000000	65.143036 
2726.000000	65.140748 
2725.000000	65.142726 
2724.000000	65.148067 
2723.000000	65.155053 
2722.000000	65.161538 
2721.000000	65.165638 
2720.000000	65.165925 
2719.000000	65.161895 
2718.000000	65.153908 
2717.000000	65.142989 
2716.000000	65.130686 
2715.000000	65.118765 
2714.000000	65.108585 
2713.000000	65.100932 
2712.000000	65.096139 
2711.000000	65.094304 
2710.000000	65.095186 
2709.000000	65.098476 
2708.000000	65.103888 
2707.000000	65.111327 
2706.000000	65.120601 
2705.000000	65.131497 
2704.000000	65.143561 
2703.000000	65.156173 
2702.000000	65.168523 
2701.000000	65.179800 
2700.000000	65.189123 
2699.000000	65.195965 
2698.000000	65.200138 
2697.000000	65.201711 
2696.000000	65.201187 
2695.000000	65.198898 
2694.000000	65.195345 
2693.000000	65.190577 
2692.000000	65.184235 
2691.000000	65.175461 
2690.000000	65.163326 
2689.000000	65.146899 
2688.000000	65.125584 
2687.000000	65.099573 
2686.000000	65.069770 
2685.000000	65.037822 
2684.000000	65.005826 
2683.000000	64.976048 
2682.000000	64.950585 
2681.000000	64.930963 
2680.000000	64.918112 
2679.000000	64.912152 
2678.000000	64.912748 
2677.000000	64.919185 
2676.000000	64.930725 
2675.000000	64.946413 
2674.000000	64.965438 
2673.000000	64.986753 
2672.000000	65.009498 
2671.000000	65.032291 
2670.000000	65.053963 
2669.000000	65.073251 
2668.000000	65.089464 
2667.000000	65.102362 
2666.000000	65.112328 
2665.000000	65.120387 
2664.000000	65.127563 
2663.000000	65.135049 
2662.000000	65.143394 
2661.000000	65.152430 
2660.000000	65.161418 
2659.000000	65.169143 
2658.000000	65.174484 
2657.000000	65.176725 
2656.000000	65.176057 
2655.000000	65.173482 
2654.000000	65.170550 
2653.000000	65.168809 
2652.000000	65.169548 
2651.000000	65.173029 
2650.000000	65.178442 
2649.000000	65.184020 
2648.000000	65.187597 
2647.000000	65.187168 
2646.000000	65.181517 
2645.000000	65.170621 
2644.000000	65.155744 
2643.000000	65.139079 
2642.000000	65.123438 
2641.000000	65.111398 
2640.000000	65.104603 
2639.000000	65.103578 
2638.000000	65.107607 
2637.000000	65.114831 
2636.000000	65.122914 
2635.000000	65.129327 
2634.000000	65.132308 
2633.000000	65.130758 
2632.000000	65.124511 
2631.000000	65.114331 
2630.000000	65.101790 
2629.000000	65.088796 
2628.000000	65.077400 
2627.000000	65.069460 
2626.000000	65.066409 
2625.000000	65.068936 
2624.000000	65.077066 
2623.000000	65.090012 
2622.000000	65.106391 
2621.000000	65.124177 
2620.000000	65.141034 
2619.000000	65.154719 
2618.000000	65.163540 
2617.000000	65.166497 
2616.000000	65.163660 
2615.000000	65.156126 
2614.000000	65.145778 
2613.000000	65.135097 
2612.000000	65.126347 
2611.000000	65.121197 
2610.000000	65.120172 
2609.000000	65.122866 
2608.000000	65.127825 
2607.000000	65.133142 
2606.000000	65.136981 
2605.000000	65.138220 
2604.000000	65.136742 
2603.000000	65.133714 
2602.000000	65.130949 
2601.000000	65.130400 
2600.000000	65.133547 
2599.000000	65.140700 
2598.000000	65.150785 
2597.000000	65.161514 
2596.000000	65.169811 
2595.000000	65.172767 
2594.000000	65.168404 
2593.000000	65.156340 
2592.000000	65.137863 
2591.000000	65.115928 
2590.000000	65.094280 
2589.000000	65.076899 
2588.000000	65.066933 
2587.000000	65.066337 
2586.000000	65.075230 
2585.000000	65.092158 
2584.000000	65.114617 
2583.000000	65.139365 
2582.000000	65.163278 
2581.000000	65.183639 
2580.000000	65.198349 
2579.000000	65.206170 
2578.000000	65.206694 
2577.000000	65.200138 
2576.000000	65.187382 
2575.000000	65.169763 
2574.000000	65.148973 
2573.000000	65.127086 
2572.000000	65.106296 
2571.000000	65.088677 
2570.000000	65.076065 
2569.000000	65.069627 
2568.000000	65.069794 
2567.000000	65.076136 
2566.000000	65.087604 
2565.000000	65.102672 
2564.000000	65.119647 
2563.000000	65.136766 
2562.000000	65.152716 
2561.000000	65.166211 
2560.000000	65.176677 
2559.000000	65.183901 
2558.000000	65.188169 
2557.000000	65.190100 
2556.000000	65.190696 
2555.000000	65.191149 
2554.000000	65.192484 
2553.000000	65.195417 
2552.000000	65.199971 
2551.000000	65.205550 
2550.000000	65.210771 
2549.000000	65.213990 
2548.000000	65.213680 
2547.000000	65.208721 
2546.000000	65.198731 
2545.000000	65.184259 
2544.000000	65.166759 
2543.000000	65.148138 
2542.000000	65.130305 
2541.000000	65.114831 
2540.000000	65.102624 
2539.000000	65.094041 
2538.000000	65.088987 
2537.000000	65.087318 
2536.000000	65.088987 
2535.000000	65.094280 
2534.000000	65.103626 
2533.000000	65.117192 
2532.000000	65.134525 
2531.000000	65.154385 
2530.000000	65.174627 
2529.000000	65.192508 
2528.000000	65.205216 
2527.000000	65.210723 
2526.000000	65.208411 
2525.000000	65.199446 
2524.000000	65.186595 
2523.000000	65.173792 
2522.000000	65.165114 
2521.000000	65.163874 
2520.000000	65.171623 
2519.000000	65.187835 
2518.000000	65.210080 
2517.000000	65.234518 
2516.000000	65.256834 
2515.000000	65.273308 
2514.000000	65.281581 
2513.000000	65.281057 
2512.000000	65.272951 
2511.000000	65.259671 
2510.000000	65.244197 
2509.000000	65.229368 
2508.000000	65.217375 
2507.000000	65.209221 
2506.000000	65.204977 
2505.000000	65.204143 
2504.000000	65.205717 
2503.000000	65.208935 
2502.000000	65.213131 
2501.000000	65.217995 
2500.000000	65.223383 
2499.000000	65.229129 
2498.000000	65.234971 
2497.000000	65.240168 
2496.000000	65.243959 
2495.000000	65.245556 
2494.000000	65.244412 
2493.000000	65.240263 
2492.000000	65.233206 
2491.000000	65.223741 
2490.000000	65.212583 
2489.000000	65.200686 
2488.000000	65.188860 
2487.000000	65.177917 
2486.000000	65.168547 
2485.000000	65.161538 
2484.000000	65.157556 
2483.000000	65.157413 
2482.000000	65.161609 
2481.000000	65.170574 
2480.000000	65.184426 
2479.000000	65.202736 
2478.000000	65.224719 
2477.000000	65.248799 
2476.000000	65.272808 
2475.000000	65.294194 
2474.000000	65.310478 
2473.000000	65.319323 
2472.000000	65.319132 
2471.000000	65.309166 
2470.000000	65.290069 
2469.000000	65.263772 
2468.000000	65.233254 
2467.000000	65.202307 
2466.000000	65.174722 
2465.000000	65.153932 
2464.000000	65.142345 
2463.000000	65.140819 
2462.000000	65.148830 
2461.000000	65.164446 
2460.000000	65.184855 
2459.000000	65.206813 
2458.000000	65.227198 
2457.000000	65.243315 
2456.000000	65.253376 
2455.000000	65.256547 
2454.000000	65.253138 
2453.000000	65.244317 
2452.000000	65.232038 
2451.000000	65.218567 
2450.000000	65.206336 
2449.000000	65.197539 
2448.000000	65.193676 
2447.000000	65.195536 
2446.000000	65.202832 
2445.000000	65.214371 
2444.000000	65.228152 
2443.000000	65.241813 
2442.000000	65.252947 
2441.000000	65.259623 
2440.000000	65.260624 
2439.000000	65.255761 
2438.000000	65.245628 
2437.000000	65.231585 
2436.000000	65.215325 
2435.000000	65.198874 
2434.000000	65.184020 
2433.000000	65.172195 
2432.000000	65.164709 
2431.000000	65.161895 
2430.000000	65.163564 
2429.000000	65.168762 
2428.000000	65.175843 
2427.000000	65.182733 
2426.000000	65.187239 
2425.000000	65.187525 
2424.000000	65.182328 
2423.000000	65.171432 
2422.000000	65.155601 
2421.000000	65.136766 
2420.000000	65.117526 
2419.000000	65.100860 
2418.000000	65.089464 
2417.000000	65.085458 
2416.000000	65.089750 
2415.000000	65.102076 
2414.000000	65.120816 
2413.000000	65.143275 
2412.000000	65.166211 
2411.000000	65.186309 
2410.000000	65.200567 
2409.000000	65.206837 
2408.000000	65.204071 
2407.000000	65.192580 
2406.000000	65.173840 
2405.000000	65.150237 
2404.000000	65.124702 
2403.000000	65.100240 
2402.000000	65.079617 
2401.000000	65.064978 
2400.000000	65.057778 
2399.000000	65.058565 
2398.000000	65.067148 
2397.000000	65.082669 
2396.000000	65.103578 
2395.000000	65.127968 
2394.000000	65.153574 
2393.000000	65.178012 
2392.000000	65.199208 
2391.000000	65.215325 
2390.000000	65.225291 
2389.000000	65.228962 
2388.000000	65.226936 
2387.000000	65.220570 
2386.000000	65.211653 
2385.000000	65.202116 
2384.000000	65.193462 
2383.000000	65.186548 
2382.000000	65.181469 
2381.000000	65.177702 
2380.000000	65.174436 
2379.000000	65.170860 
2378.000000	65.166568 
2377.000000	65.161466 
2376.000000	65.155959 
2375.000000	65.150713 
2374.000000	65.146279 
2373.000000	65.143203 
2372.000000	65.141582 
2371.000000	65.141439 
2370.000000	65.142583 
2369.000000	65.144920 
2368.000000	65.148377 
2367.000000	65.153074 
2366.000000	65.159106 
2365.000000	65.166735 
2364.000000	65.176177 
2363.000000	65.187501 
2362.000000	65.200352 
2361.000000	65.214371 
2360.000000	65.228915 
2359.000000	65.243244 
2358.000000	65.256595 
2357.000000	65.268230 
2356.000000	65.277600 
2355.000000	65.284347 
2354.000000	65.288305 
2353.000000	65.289640 
2352.000000	65.288543 
2351.000000	65.285468 
2350.000000	65.280890 
2349.000000	65.275192 
2348.000000	65.268349 
2347.000000	65.260291 
2346.000000	65.250849 
2345.000000	65.239882 
2344.000000	65.227580 
2343.000000	65.214419 
2342.000000	65.201282 
2341.000000	65.189170 
2340.000000	65.179157 
2339.000000	65.172076 
2338.000000	65.168476 
2337.000000	65.168523 
2336.000000	65.171957 
2335.000000	65.178084 
2334.000000	65.185832 
2333.000000	65.194129 
2332.000000	65.201783 
2331.000000	65.207743 
2330.000000	65.211248 
2329.000000	65.212106 
2328.000000	65.210413 
2327.000000	65.207028 
2326.000000	65.203022 
2325.000000	65.199828 
2324.000000	65.198779 
2323.000000	65.200805 
2322.000000	65.206170 
2321.000000	65.214347 
2320.000000	65.224266 
2319.000000	65.234422 
2318.000000	65.243196 
2317.000000	65.249371 
2316.000000	65.252518 
2315.000000	65.252637 
2314.000000	65.250158 
2313.000000	65.245580 
2312.000000	65.239500 
2311.000000	65.232062 
2310.000000	65.223073 
2309.000000	65.212178 
2308.000000	65.199160 
2307.000000	65.184307 
2306.000000	65.168476 
2305.000000	65.153098 
2304.000000	65.139985 
2303.000000	65.130829 
2302.000000	65.127015 
2301.000000	65.128850 
2300.000000	65.135693 
2299.000000	65.146088 
2298.000000	65.157985 
2297.000000	65.169191 
2296.000000	65.177917 
2295.000000	65.182971 
2294.000000	65.184211 
2293.000000	65.182232 
2292.000000	65.178442 
2291.000000	65.174627 
2290.000000	65.172648 
2289.000000	65.174174 
2288.000000	65.180206 
2287.000000	65.190887 
2286.000000	65.205550 
2285.000000	65.222859 
2284.000000	65.241050 
2283.000000	65.258216 
2282.000000	65.272545 
2281.000000	65.282750 
2280.000000	65.287899 
2279.000000	65.287828 
2278.000000	65.282821 
2277.000000	65.273499 
2276.000000	65.260529 
2275.000000	65.244698 
2274.000000	65.226674 
2273.000000	65.207338 
2272.000000	65.187597 
2271.000000	65.168571 
2270.000000	65.151572 
2269.000000	65.137982 
2268.000000	65.128970 
2267.000000	65.125393 
2266.000000	65.127205 
2265.000000	65.134119 
2264.000000	65.145277 
2263.000000	65.159583 
2262.000000	65.175867 
2261.000000	65.193057 
2260.000000	65.210175 
2259.000000	65.226364 
2258.000000	65.240788 
2257.000000	65.252709 
2256.000000	65.261411 
2255.000000	65.266394 
2254.000000	65.267491 
2253.000000	65.265059 
2252.000000	65.259909 
2251.000000	65.253281 
2250.000000	65.246629 
2249.000000	65.241146 
2248.000000	65.237689 
2247.000000	65.236449 
2246.000000	65.237021 
2245.000000	65.238356 
2244.000000	65.239214 
2243.000000	65.238618 
2242.000000	65.235948 
2241.000000	65.231084 
2240.000000	65.224456 
2239.000000	65.216779 
2238.000000	65.208864 
2237.000000	65.201473 
2236.000000	65.194988 
2235.000000	65.189385 
2234.000000	65.184521 
2233.000000	65.180277 
2232.000000	65.176582 
2231.000000	65.173459 
2230.000000	65.171384 
2229.000000	65.171074 
2228.000000	65.173268 
2227.000000	65.178275 
2226.000000	65.186023 
2225.000000	65.196084 
2224.000000	65.207529 
2223.000000	65.219306 
2222.000000	65.230560 
2221.000000	65.240788 
2220.000000	65.250158 
2219.000000	65.259146 
2218.000000	65.268206 
2217.000000	65.277647 
2216.000000	65.287327 
2215.000000	65.296506 
2214.000000	65.303945 
2213.000000	65.308094 
2212.000000	65.307760 
2211.000000	65.302085 
2210.000000	65.291047 
2209.000000	65.275287 
2208.000000	65.256237 
2207.000000	65.235447 
2206.000000	65.214228 
2205.000000	65.193462 
2204.000000	65.173625 
2203.000000	65.154647 
2202.000000	65.136170 
2201.000000	65.117907 
2200.000000	65.099787 
2199.000000	65.082287 
2198.000000	65.066266 
2197.000000	65.052747 
2196.000000	65.042901 
2195.000000	65.037846 
2194.000000	65.038537 
2193.000000	65.045332 
2192.000000	65.058279 
2191.000000	65.076708 
2190.000000	65.099382 
2189.000000	65.124416 
2188.000000	65.149879 
2187.000000	65.173625 
2186.000000	65.193986 
2185.000000	65.209817 
2184.000000	65.220880 
2183.000000	65.227627 
2182.000000	65.231299 
2181.000000	65.233373 
2180.000000	65.235304 
2179.000000	65.238142 
2178.000000	65.242171 
2177.000000	65.247178 
2176.000000	65.252351 
2175.000000	65.256714 
2174.000000	65.259528 
2173.000000	65.260744 
2172.000000	65.260696 
2171.000000	65.260267 
2170.000000	65.260410 
2169.000000	65.262079 
2168.000000	65.265655 
2167.000000	65.271067 
2166.000000	65.277695 
2165.000000	65.284657 
2164.000000	65.291023 
2163.000000	65.295982 
2162.000000	65.299391 
2161.000000	65.301203 
2160.000000	65.301942 
2159.000000	65.302085 
2158.000000	65.301966 
2157.000000	65.301394 
2156.000000	65.300059 
2155.000000	65.297222 
2154.000000	65.292191 
2153.000000	65.284514 
2152.000000	65.274167 
2151.000000	65.261530 
2150.000000	65.247559 
2149.000000	65.233469 
2148.000000	65.220475 
2147.000000	65.209436 
2146.000000	65.200805 
2145.000000	65.194511 
2144.000000	65.190005 
2143.000000	65.186548 
2142.000000	65.183305 
2141.000000	65.179872 
2140.000000	65.176272 
2139.000000	65.172863 
2138.000000	65.170311 
2137.000000	65.168905 
2136.000000	65.168762 
2135.000000	65.169334 
2134.000000	65.169692 
2133.000000	65.168642 
2132.000000	65.165448 
2131.000000	65.159702 
2130.000000	65.152192 
2129.000000	65.144491 
2128.000000	65.139055 
2127.000000	65.138196 
2126.000000	65.143895 
2125.000000	65.156936 
2124.000000	65.176725 
2123.000000	65.201091 
2122.000000	65.226840 
2121.000000	65.250134 
2120.000000	65.267467 
2119.000000	65.276336 
2118.000000	65.275454 
2117.000000	65.264964 
2116.000000	65.246415 
2115.000000	65.222525 
2114.000000	65.196514 
2113.000000	65.171670 
2112.000000	65.151071 
2111.000000	65.137100 
2110.000000	65.131306 
2109.000000	65.134000 
2108.000000	65.144586 
2107.000000	65.161347 
2106.000000	65.181851 
2105.000000	65.203356 
2104.000000	65.222954 
2103.000000	65.238165 
2102.000000	65.247106 
2101.000000	65.249037 
2100.000000	65.244150 
2099.000000	65.233397 
2098.000000	65.218400 
2097.000000	65.200972 
2096.000000	65.183067 
2095.000000	65.166473 
2094.000000	65.152835 
2093.000000	65.143442 
2092.000000	65.139198 
2091.000000	65.140604 
2090.000000	65.147614 
2089.000000	65.159392 
2088.000000	65.174436 
2087.000000	65.190839 
2086.000000	65.206408 
2085.000000	65.219140 
2084.000000	65.227246 
2083.000000	65.229535 
2082.000000	65.225672 
2081.000000	65.215945 
2080.000000	65.201473 
2079.000000	65.183877 
2078.000000	65.165138 
2077.000000	65.147304 
2076.000000	65.132331 
2075.000000	65.121769 
2074.000000	65.116572 
2073.000000	65.117096 
2072.000000	65.122771 
2071.000000	65.132594 
2070.000000	65.144801 
2069.000000	65.157556 
2068.000000	65.168952 
2067.000000	65.177488 
2066.000000	65.182209 
2065.000000	65.182924 
2064.000000	65.180039 
2063.000000	65.174436 
2062.000000	65.167403 
2061.000000	65.160059 
2060.000000	65.153503 
2059.000000	65.148305 
2058.000000	65.144777 
2057.000000	65.142822 
2056.000000	65.142011 
2055.000000	65.141773 
2054.000000	65.141463 
2053.000000	65.140557 
2052.000000	65.138578 
2051.000000	65.135407 
2050.000000	65.131187 
2049.000000	65.126538 
2048.000000	65.122318 
2047.000000	65.119695 
2046.000000	65.119981 
2045.000000	65.124201 
2044.000000	65.132856 
2043.000000	65.145683 
2042.000000	65.161728 
2041.000000	65.179347 
2040.000000	65.196657 
2039.000000	65.211725 
2038.000000	65.223002 
2037.000000	65.229606 
2036.000000	65.231299 
2035.000000	65.228414 
2034.000000	65.221858 
2033.000000	65.212774 
2032.000000	65.202331 
2031.000000	65.191817 
2030.000000	65.182280 
2029.000000	65.174746 
2028.000000	65.170073 
2027.000000	65.169119 
2026.000000	65.172433 
2025.000000	65.180373 
2024.000000	65.192866 
2023.000000	65.209197 
2022.000000	65.228128 
2021.000000	65.247988 
2020.000000	65.266895 
2019.000000	65.282988 
2018.000000	65.294694 
2017.000000	65.301108 
2016.000000	65.302109 
2015.000000	65.298485 
2014.000000	65.291619 
2013.000000	65.283274 
2012.000000	65.275382 
2011.000000	65.269517 
2010.000000	65.266823 
2009.000000	65.267515 
2008.000000	65.271186 
2007.000000	65.276551 
2006.000000	65.282058 
2005.000000	65.285921 
2004.000000	65.286588 
2003.000000	65.283036 
2002.000000	65.275025 
2001.000000	65.263223 
2000.000000	65.248823 
1999.000000	65.233516 
1998.000000	65.218830 
1997.000000	65.206050 
1996.000000	65.195560 
1995.000000	65.187335 
1994.000000	65.181088 
1993.000000	65.176582 
1992.000000	65.173578 
1991.000000	65.172433 
1990.000000	65.173721 
1989.000000	65.178179 
1988.000000	65.186238 
1987.000000	65.198183 
1986.000000	65.213751 
1985.000000	65.232133 
1984.000000	65.252041 
1983.000000	65.271997 
1982.000000	65.290451 
1981.000000	65.306091 
1980.000000	65.318012 
1979.000000	65.325641 
1978.000000	65.328764 
1977.000000	65.327739 
1976.000000	65.323185 
1975.000000	65.316104 
1974.000000	65.307450 
1973.000000	65.298533 
1972.000000	65.290141 
1971.000000	65.282964 
1970.000000	65.276956 
1969.000000	65.271830 
1968.000000	65.266919 
1967.000000	65.261363 
1966.000000	65.254521 
1965.000000	65.246295 
1964.000000	65.236997 
1963.000000	65.227389 
1962.000000	65.218353 
1961.000000	65.210604 
1960.000000	65.204310 
1959.000000	65.198969 
1958.000000	65.193510 
1957.000000	65.186572 
1956.000000	65.177130 
1955.000000	65.164923 
1954.000000	65.150570 
1953.000000	65.135645 
1952.000000	65.122389 
1951.000000	65.113282 
1950.000000	65.109944 
1949.000000	65.113162 
1948.000000	65.122437 
1947.000000	65.136241 
1946.000000	65.152406 
1945.000000	65.168690 
1944.000000	65.183448 
1943.000000	65.195751 
1942.000000	65.205574 
1941.000000	65.213489 
1940.000000	65.220379 
1939.000000	65.226864 
1938.000000	65.233182 
1937.000000	65.239095 
1936.000000	65.244030 
1935.000000	65.247416 
1934.000000	65.249037 
1933.000000	65.248847 
1932.000000	65.247178 
1931.000000	65.244555 
1930.000000	65.241479 
1929.000000	65.238142 
1928.000000	65.234494 
1927.000000	65.230250 
1926.000000	65.225362 
1925.000000	65.219879 
1924.000000	65.214180 
1923.000000	65.209197 
1922.000000	65.205907 
1921.000000	65.205264 
1920.000000	65.207767 
1919.000000	65.213322 
1918.000000	65.221309 
1917.000000	65.230536 
1916.000000	65.239691 
1915.000000	65.247631 
1914.000000	65.253281 
1913.000000	65.256047 
1912.000000	65.255737 
1911.000000	65.252375 
1910.000000	65.246224 
1909.000000	65.237879 
1908.000000	65.228056 
1907.000000	65.217661 
1906.000000	65.207815 
1905.000000	65.199732 
1904.000000	65.194606 
1903.000000	65.193414 
1902.000000	65.196847 
1901.000000	65.205001 
1900.000000	65.217328 
1899.000000	65.232753 
1898.000000	65.249776 
1897.000000	65.266585 
1896.000000	65.281486 
1895.000000	65.293049 
1894.000000	65.300273 
1893.000000	65.302848 
1892.000000	65.300965 
1891.000000	65.295672 
1890.000000	65.288472 
1889.000000	65.281200 
1888.000000	65.275955 
1887.000000	65.274286 
1886.000000	65.277123 
1885.000000	65.284228 
1884.000000	65.294504 
1883.000000	65.305852 
1882.000000	65.315794 
1881.000000	65.321922 
1880.000000	65.322351 
1879.000000	65.316224 
1878.000000	65.303897 
1877.000000	65.286803 
1876.000000	65.267133 
1875.000000	65.247344 
1874.000000	65.229606 
1873.000000	65.215516 
1872.000000	65.205740 
1871.000000	65.200138 
1870.000000	65.198040 
1869.000000	65.198373 
1868.000000	65.200138 
1867.000000	65.202450 
1866.000000	65.204930 
1865.000000	65.207409 
1864.000000	65.210294 
1863.000000	65.214204 
1862.000000	65.219974 
1861.000000	65.228319 
1860.000000	65.239691 
1859.000000	65.254068 
1858.000000	65.270805 
1857.000000	65.288734 
1856.000000	65.306091 
1855.000000	65.320944 
1854.000000	65.331482 
1853.000000	65.336537 
1852.000000	65.335726 
1851.000000	65.329551 
1850.000000	65.319299 
1849.000000	65.306735 
1848.000000	65.293622 
1847.000000	65.281271 
1846.000000	65.270423 
1845.000000	65.261220 
1844.000000	65.253424 
1843.000000	65.246725 
1842.000000	65.241217 
1841.000000	65.237498 
1840.000000	65.236449 
1839.000000	65.239024 
1838.000000	65.245890 
1837.000000	65.257048 
1836.000000	65.271472 
1835.000000	65.287399 
1834.000000	65.302443 
1833.000000	65.314269 
1832.000000	65.321111 
1831.000000	65.322208 
1830.000000	65.318107 
1829.000000	65.310335 
1828.000000	65.301012 
1827.000000	65.292406 
1826.000000	65.286254 
1825.000000	65.283274 
1824.000000	65.283203 
1823.000000	65.284872 
1822.000000	65.286684 
1821.000000	65.286850 
1820.000000	65.284109 
1819.000000	65.277957 
1818.000000	65.268802 
1817.000000	65.257859 
1816.000000	65.247011 
1815.000000	65.238237 
1814.000000	65.233182 
1813.000000	65.233016 
1812.000000	65.238046 
1811.000000	65.247654 
1810.000000	65.260529 
1809.000000	65.274763 
1808.000000	65.288519 
1807.000000	65.299963 
1806.000000	65.307760 
1805.000000	65.311288 
1804.000000	65.310621 
1803.000000	65.306377 
1802.000000	65.299916 
1801.000000	65.292930 
1800.000000	65.287303 
1799.000000	65.284729 
1798.000000	65.286540 
1797.000000	65.293645 
1796.000000	65.306091 
1795.000000	65.323257 
1794.000000	65.343642 
1793.000000	65.365028 
1792.000000	65.384769 
1791.000000	65.400052 
1790.000000	65.408468 
1789.000000	65.408372 
1788.000000	65.399050 
1787.000000	65.381097 
1786.000000	65.356183 
1785.000000	65.327024 
1784.000000	65.296864 
1783.000000	65.269207 
1782.000000	65.247035 
1781.000000	65.232610 
1780.000000	65.226960 
1779.000000	65.229892 
1778.000000	65.240073 
1777.000000	65.255236 
1776.000000	65.272402 
1775.000000	65.288615 
1774.000000	65.301370 
1773.000000	65.309143 
1772.000000	65.311360 
1771.000000	65.308618 
1770.000000	65.302443 
1769.000000	65.294814 
1768.000000	65.287709 
1767.000000	65.282344 
1766.000000	65.278959 
1765.000000	65.276765 
1764.000000	65.274310 
1763.000000	65.269994 
1762.000000	65.262722 
1761.000000	65.252280 
1760.000000	65.239596 
1759.000000	65.226650 
1758.000000	65.215969 
1757.000000	65.209841 
1756.000000	65.209460 
1755.000000	65.214538 
1754.000000	65.223383 
1753.000000	65.233087 
1752.000000	65.240454 
1751.000000	65.242671 
1750.000000	65.238165 
1749.000000	65.227055 
1748.000000	65.211057 
1747.000000	65.192723 
1746.000000	65.174889 
1745.000000	65.159988 
1744.000000	65.149641 
1743.000000	65.144443 
1742.000000	65.144205 
1741.000000	65.147995 
1740.000000	65.154576 
1739.000000	65.162587 
1738.000000	65.170621 
1737.000000	65.177321 
1736.000000	65.181255 
1735.000000	65.180897 
1734.000000	65.175104 
1733.000000	65.163207 
1732.000000	65.145277 
1731.000000	65.122342 
1730.000000	65.096378 
1729.000000	65.070199 
1728.000000	65.046548 
1727.000000	65.028095 
1726.000000	65.016460 
1725.000000	65.012574 
1724.000000	65.016269 
1723.000000	65.026617 
1722.000000	65.042161 
1721.000000	65.060973 
1720.000000	65.080928 
1719.000000	65.099811 
1718.000000	65.115547 
1717.000000	65.126514 
1716.000000	65.131568 
1715.000000	65.130662 
1714.000000	65.124773 
1713.000000	65.115714 
1712.000000	65.106010 
1711.000000	65.098524 
1710.000000	65.095615 
1709.000000	65.099191 
1708.000000	65.110087 
1707.000000	65.128183 
1706.000000	65.152287 
1705.000000	65.180706 
1704.000000	65.211153 
1703.000000	65.241432 
1702.000000	65.269398 
1701.000000	65.293025 
1700.000000	65.310621 
1699.000000	65.320706 
1698.000000	65.322661 
1697.000000	65.316486 
1696.000000	65.303564 
1695.000000	65.286445 
1694.000000	65.268707 
1693.000000	65.254402 
1692.000000	65.247154 
1691.000000	65.249633 
1690.000000	65.262460 
1689.000000	65.284013 
1688.000000	65.310573 
1687.000000	65.336942 
1686.000000	65.357422 
1685.000000	65.367341 
1684.000000	65.363812 
1683.000000	65.346693 
1682.000000	65.318465 
1681.000000	65.283679 
1680.000000	65.247964 
1679.000000	65.216565 
1678.000000	65.193557 
1677.000000	65.180802 
1676.000000	65.177917 
1675.000000	65.182614 
1674.000000	65.191817 
1673.000000	65.202283 
1672.000000	65.211415 
1671.000000	65.217947 
1670.000000	65.221905 
1669.000000	65.224480 
1668.000000	65.226888 
1667.000000	65.230274 
1666.000000	65.235209 
1665.000000	65.241599 
1664.000000	65.248775 
1663.000000	65.256404 
1662.000000	65.264701 
1661.000000	65.274715 
1660.000000	65.288066 
1659.000000	65.306568 
1658.000000	65.331363 
1657.000000	65.362477 
1656.000000	65.398168 
1655.000000	65.435481 
1654.000000	65.470385 
1653.000000	65.498805 
1652.000000	65.517258 
1651.000000	65.523529 
1650.000000	65.516948 
1649.000000	65.498661 
1648.000000	65.471124 
1647.000000	65.437579 
1646.000000	65.401124 
1645.000000	65.364837 
1644.000000	65.330886 
1643.000000	65.300869 
1642.000000	65.275287 
1641.000000	65.253996 
1640.000000	65.236210 
1639.000000	65.220880 
1638.000000	65.207052 
1637.000000	65.193724 
1636.000000	65.180659 
1635.000000	65.168261 
1634.000000	65.157604 
1633.000000	65.149903 
1632.000000	65.146207 
1631.000000	65.146946 
1630.000000	65.151453 
1629.000000	65.158104 
1628.000000	65.164875 
1627.000000	65.170097 
1626.000000	65.172743 
1625.000000	65.173006 
1624.000000	65.172314 
1623.000000	65.173029 
1622.000000	65.177369 
1621.000000	65.186715 
1620.000000	65.201115 
1619.000000	65.218567 
1618.000000	65.235877 
1617.000000	65.249085 
1616.000000	65.254521 
1615.000000	65.249872 
1614.000000	65.235066 
1613.000000	65.211963 
1612.000000	65.183877 
1611.000000	65.154910 
1610.000000	65.128970 
1609.000000	65.108823 
1608.000000	65.095543 
1607.000000	65.088772 
1606.000000	65.086960 
1605.000000	65.087962 
1604.000000	65.089821 
1603.000000	65.091037 
1602.000000	65.090870 
1601.000000	65.089297 
1600.000000	65.086793 
1599.000000	65.083837 
1598.000000	65.080833 
1597.000000	65.078091 
1596.000000	65.075707 
1595.000000	65.073966 
1594.000000	65.073132 
1593.000000	65.073347 
1592.000000	65.074706 
1591.000000	65.077185 
1590.000000	65.080809 
1589.000000	65.085339 
1588.000000	65.090560 
1587.000000	65.096330 
1586.000000	65.102601 
1585.000000	65.109539 
1584.000000	65.117192 
1583.000000	65.125560 
1582.000000	65.134334 
1581.000000	65.142893 
1580.000000	65.150499 
1579.000000	65.156245 
1578.000000	65.159249 
1577.000000	65.158987 
1576.000000	65.155386 
1575.000000	65.148925 
1574.000000	65.140533 
1573.000000	65.131592 
1572.000000	65.123605 
1571.000000	65.118527 
1570.000000	65.118622 
1569.000000	65.126395 
1568.000000	65.143990 
1567.000000	65.172767 
1566.000000	65.212702 
1565.000000	65.262103 
1564.000000	65.317249 
1563.000000	65.372800 
1562.000000	65.422940 
1561.000000	65.461993 
1560.000000	65.485692 
1559.000000	65.491890 
1558.000000	65.481138 
1557.000000	65.456390 
1556.000000	65.422487 
1555.000000	65.384960 
1554.000000	65.349102 
1553.000000	65.319180 
1552.000000	65.297842 
1551.000000	65.286397 
1550.000000	65.284729 
1549.000000	65.291714 
1548.000000	65.305471 
1547.000000	65.323281 
1546.000000	65.342211 
1545.000000	65.358686 
1544.000000	65.369606 
1543.000000	65.372776 
1542.000000	65.367388 
1541.000000	65.354657 
1540.000000	65.336847 
1539.000000	65.317034 
1538.000000	65.297842 
1537.000000	65.280938 
1536.000000	65.266799 
1535.000000	65.254831 
1534.000000	65.243887 
1533.000000	65.232920 
1532.000000	65.221881 
1531.000000	65.211915 
1530.000000	65.205216 
1529.000000	65.204262 
1528.000000	65.210962 
1527.000000	65.225911 
1526.000000	65.247726 
1525.000000	65.273070 
1524.000000	65.297198 
1523.000000	65.315103 
1522.000000	65.322804 
1521.000000	65.318441 
1520.000000	65.302562 
1519.000000	65.278506 
1518.000000	65.251231 
1517.000000	65.226793 
1516.000000	65.210819 
1515.000000	65.207576 
1514.000000	65.219163 
1513.000000	65.244626 
1512.000000	65.280675 
1511.000000	65.321922 
1510.000000	65.361905 
1509.000000	65.394592 
1508.000000	65.415096 
1507.000000	65.421032 
1506.000000	65.412569 
1505.000000	65.392637 
1504.000000	65.365743 
1503.000000	65.337347 
1502.000000	65.312600 
1501.000000	65.295147 
1500.000000	65.286493 
1499.000000	65.285897 
1498.000000	65.290832 
1497.000000	65.297675 
1496.000000	65.302872 
1495.000000	65.303754 
1494.000000	65.299129 
1493.000000	65.289139 
1492.000000	65.275168 
1491.000000	65.259122 
1490.000000	65.243101 
1489.000000	65.228605 
1488.000000	65.216660 
1487.000000	65.207767 
1486.000000	65.202140 
1485.000000	65.199899 
1484.000000	65.201330 
1483.000000	65.206789 
1482.000000	65.216517 
1481.000000	65.230727 
1480.000000	65.249013 
1479.000000	65.270256 
1478.000000	65.292763 
1477.000000	65.314579 
1476.000000	65.333652 
1475.000000	65.348172 
1474.000000	65.356993 
1473.000000	65.359830 
1472.000000	65.357184 
1471.000000	65.350389 
1470.000000	65.341258 
1469.000000	65.331840 
1468.000000	65.324401 
1467.000000	65.320992 
1466.000000	65.323376 
1465.000000	65.332555 
1464.000000	65.348625 
1463.000000	65.370464 
1462.000000	65.395593 
1461.000000	65.420341 
1460.000000	65.440464 
1459.000000	65.451931 
1458.000000	65.451717 
1457.000000	65.438628 
1456.000000	65.413808 
1455.000000	65.380358 
1454.000000	65.342640 
1453.000000	65.305185 
1452.000000	65.271997 
1451.000000	65.245199 
1450.000000	65.225100 
1449.000000	65.210151 
1448.000000	65.197706 
1447.000000	65.185284 
1446.000000	65.171432 
1445.000000	65.156269 
1444.000000	65.141344 
1443.000000	65.129208 
1442.000000	65.122699 
1441.000000	65.123677 
1440.000000	65.132641 
1439.000000	65.148496 
1438.000000	65.168952 
1437.000000	65.191054 
1436.000000	65.211892 
1435.000000	65.229272 
1434.000000	65.242052 
1433.000000	65.249967 
1432.000000	65.253853 
1431.000000	65.255212 
1430.000000	65.255904 
1429.000000	65.257716 
1428.000000	65.261912 
1427.000000	65.269351 
1426.000000	65.279936 
1425.000000	65.293049 
1424.000000	65.306973 
1423.000000	65.319442 
1422.000000	65.327882 
1421.000000	65.330004 
1420.000000	65.324330 
1419.000000	65.310382 
1418.000000	65.289163 
1417.000000	65.263032 
1416.000000	65.235066 
1415.000000	65.208649 
1414.000000	65.186595 
1413.000000	65.170598 
1412.000000	65.161156 
1411.000000	65.157628 
1410.000000	65.158534 
1409.000000	65.162062 
1408.000000	65.166687 
1407.000000	65.171384 
1406.000000	65.175652 
1405.000000	65.179657 
1404.000000	65.183687 
1403.000000	65.188097 
1402.000000	65.192866 
1401.000000	65.197825 
1400.000000	65.202641 
1399.000000	65.206956 
1398.000000	65.210652 
1397.000000	65.213561 
1396.000000	65.215539 
1395.000000	65.216374 
1394.000000	65.215563 
1393.000000	65.212368 
1392.000000	65.206003 
1391.000000	65.195751 
1390.000000	65.181326 
1389.000000	65.162849 
1388.000000	65.140891 
1387.000000	65.116620 
1386.000000	65.091466 
1385.000000	65.066790 
1384.000000	65.043950 
1383.000000	65.024065 
1382.000000	65.008211 
1381.000000	64.997386 
1380.000000	64.992356 
1379.000000	64.993762 
1378.000000	65.001463 
1377.000000	65.014863 
1376.000000	65.032243 
1375.000000	65.051078 
1374.000000	65.068054 
1373.000000	65.080046 
1372.000000	65.084362 
1371.000000	65.079784 
1370.000000	65.066647 
1369.000000	65.046739 
1368.000000	65.023183 
1367.000000	64.999747 
1366.000000	64.979958 
1365.000000	64.966630 
1364.000000	64.961290 
1363.000000	64.964175 
1362.000000	64.974164 
1361.000000	64.989519 
1360.000000	65.008115 
1359.000000	65.027999 
1358.000000	65.047478 
1357.000000	65.065240 
1356.000000	65.080213 
1355.000000	65.091824 
1354.000000	65.099549 
1353.000000	65.102982 
1352.000000	65.102291 
1351.000000	65.097856 
1350.000000	65.090489 
1349.000000	65.081238 
1348.000000	65.071487 
1347.000000	65.062499 
1346.000000	65.055394 
1345.000000	65.050840 
1344.000000	65.049004 
1343.000000	65.049505 
1342.000000	65.051555 
1341.000000	65.054106 
1340.000000	65.056324 
1339.000000	65.057516 
1338.000000	65.057444 
1337.000000	65.056324 
1336.000000	65.054678 
1335.000000	65.053176 
1334.000000	65.052461 
1333.000000	65.052938 
1332.000000	65.054631 
1331.000000	65.057444 
1330.000000	65.061140 
1329.000000	65.065240 
1328.000000	65.069770 
1327.000000	65.074729 
1326.000000	65.080499 
1325.000000	65.087461 
1324.000000	65.095758 
1323.000000	65.105128 
1322.000000	65.114951 
1321.000000	65.124130 
1320.000000	65.131330 
1319.000000	65.135359 
1318.000000	65.135645 
1317.000000	65.132141 
1316.000000	65.125751 
1315.000000	65.118098 
1314.000000	65.111112 
1313.000000	65.106606 
1312.000000	65.105509 
1311.000000	65.107607 
1310.000000	65.111517 
1309.000000	65.115022 
1308.000000	65.115571 
1307.000000	65.111160 
1306.000000	65.100789 
1305.000000	65.084862 
1304.000000	65.065073 
1303.000000	65.043950 
1302.000000	65.024232 
1301.000000	65.008282 
1300.000000	64.997673 
1299.000000	64.992928 
1298.000000	64.993572 
1297.000000	64.998316 
1296.000000	65.005493 
1295.000000	65.013313 
1294.000000	65.020155 
1293.000000	65.024900 
1292.000000	65.026807 
1291.000000	65.025830 
1290.000000	65.022206 
1289.000000	65.016984 
1288.000000	65.011310 
1287.000000	65.006828 
1286.000000	65.005159 
1285.000000	65.007686 
1284.000000	65.015172 
1283.000000	65.027737 
1282.000000	65.044522 
1281.000000	65.063834 
1280.000000	65.083384 
1279.000000	65.100741 
1278.000000	65.113687 
1277.000000	65.120649 
1276.000000	65.120887 
1275.000000	65.114569 
1274.000000	65.102815 
1273.000000	65.087294 
1272.000000	65.070009 
1271.000000	65.053081 
1270.000000	65.038204 
1269.000000	65.026712 
1268.000000	65.019130 
1267.000000	65.015554 
1266.000000	65.015673 
1265.000000	65.018916 
1264.000000	65.024614 
1263.000000	65.032076 
1262.000000	65.040612 
1261.000000	65.049648 
1260.000000	65.058660 
1259.000000	65.067052 
1258.000000	65.074300 
1257.000000	65.079784 
1256.000000	65.083003 
1255.000000	65.083742 
1254.000000	65.082120 
1253.000000	65.078520 
1252.000000	65.073728 
1251.000000	65.068626 
1250.000000	65.063929 
1249.000000	65.060138 
1248.000000	65.057396 
1247.000000	65.055418 
1246.000000	65.053915 
1245.000000	65.052628 
1244.000000	65.051460 
1243.000000	65.050530 
1242.000000	65.049934 
1241.000000	65.049743 
1240.000000	65.049839 
1239.000000	65.049862 
1238.000000	65.049147 
1237.000000	65.047144 
1236.000000	65.043544 
1235.000000	65.038514 
1234.000000	65.032768 
1233.000000	65.027523 
1232.000000	65.024304 
1231.000000	65.024733 
1230.000000	65.030026 
1229.000000	65.040826 
1228.000000	65.056777 
1227.000000	65.076875 
1226.000000	65.099501 
1225.000000	65.122699 
1224.000000	65.144562 
1223.000000	65.163588 
1222.000000	65.178871 
1221.000000	65.189981 
1220.000000	65.197014 
1219.000000	65.200805 
1218.000000	65.202426 
1217.000000	65.203142 
1216.000000	65.203881 
1215.000000	65.205454 
1214.000000	65.208005 
1213.000000	65.211439 
1212.000000	65.215325 
1211.000000	65.219259 
1210.000000	65.222930 
1209.000000	65.226435 
1208.000000	65.229821 
1207.000000	65.233063 
1206.000000	65.235948 
1205.000000	65.237975 
1204.000000	65.238308 
1203.000000	65.235900 
1202.000000	65.229845 
1201.000000	65.219807 
1200.000000	65.206003 
1199.000000	65.189218 
1198.000000	65.170693 
1197.000000	65.151715 
1196.000000	65.133213 
1195.000000	65.115380 
1194.000000	65.097570 
1193.000000	65.078878 
1192.000000	65.058493 
1191.000000	65.036153 
1190.000000	65.012598 
1189.000000	64.989638 
1188.000000	64.969396 
1187.000000	64.954400 
1186.000000	64.946413 
1185.000000	64.946508 
1184.000000	64.954519 
1183.000000	64.969396 
1182.000000	64.989352 
1181.000000	65.012359 
1180.000000	65.036606 
1179.000000	65.060687 
1178.000000	65.083527 
1177.000000	65.104389 
1176.000000	65.122771 
1175.000000	65.138077 
1174.000000	65.149521 
1173.000000	65.156579 
1172.000000	65.158963 
1171.000000	65.156793 
1170.000000	65.150690 
1169.000000	65.141606 
1168.000000	65.130829 
1167.000000	65.119671 
1166.000000	65.109634 
1165.000000	65.102124 
1164.000000	65.098524 
1163.000000	65.100383 
1162.000000	65.108776 
1161.000000	65.123939 
1160.000000	65.145111 
1159.000000	65.170502 
1158.000000	65.197205 
1157.000000	65.221595 
1156.000000	65.240144 
1155.000000	65.250015 
1154.000000	65.249752 
1153.000000	65.239477 
1152.000000	65.220785 
1151.000000	65.196371 
1150.000000	65.169429 
1149.000000	65.142822 
1148.000000	65.118336 
1147.000000	65.096378 
1146.000000	65.076327 
1145.000000	65.056991 
1144.000000	65.037107 
1143.000000	65.016150 
1142.000000	64.994502 
1141.000000	64.974021 
1140.000000	64.957094 
1139.000000	64.946675 
1138.000000	64.945340 
1137.000000	64.954829 
1136.000000	64.975357 
1135.000000	65.005612 
1134.000000	65.042662 
1133.000000	65.082764 
1132.000000	65.121626 
1131.000000	65.155386 
1130.000000	65.181231 
1129.000000	65.197849 
1128.000000	65.205454 
1127.000000	65.205264 
1126.000000	65.199184 
1125.000000	65.189027 
1124.000000	65.176224 
1123.000000	65.161466 
1122.000000	65.144944 
1121.000000	65.126562 
1120.000000	65.106725 
1119.000000	65.086245 
1118.000000	65.066647 
1117.000000	65.050148 
1116.000000	65.039134 
1115.000000	65.035414 
1114.000000	65.039563 
1113.000000	65.050840 
1112.000000	65.067005 
1111.000000	65.084576 
1110.000000	65.099644 
1109.000000	65.108633 
1108.000000	65.109181 
1107.000000	65.100312 
1106.000000	65.082812 
1105.000000	65.058851 
1104.000000	65.031695 
1103.000000	65.005040 
1102.000000	64.982199 
1101.000000	64.965605 
1100.000000	64.956450 
1099.000000	64.955019 
1098.000000	64.960527 
1097.000000	64.971446 
1096.000000	64.986133 
1095.000000	65.003013 
1094.000000	65.020966 
1093.000000	65.039181 
1092.000000	65.057253 
1091.000000	65.074825 
1090.000000	65.091729 
1089.000000	65.107774 
1088.000000	65.122771 
1087.000000	65.136361 
1086.000000	65.148568 
1085.000000	65.159273 
1084.000000	65.168619 
1083.000000	65.176677 
1082.000000	65.183615 
1081.000000	65.189051 
1080.000000	65.192627 
1079.000000	65.193462 
1078.000000	65.190482 
1077.000000	65.182614 
1076.000000	65.169048 
1075.000000	65.149688 
1074.000000	65.125226 
1073.000000	65.097212 
1072.000000	65.067815 
1071.000000	65.039777 
1070.000000	65.015792 
1069.000000	64.998269 
1068.000000	64.988613 
1067.000000	64.987325 
1066.000000	64.993643 
1065.000000	65.005946 
1064.000000	65.022063 
1063.000000	65.039491 
1062.000000	65.056109 
1061.000000	65.070581 
1060.000000	65.082383 
1059.000000	65.091753 
1058.000000	65.099191 
1057.000000	65.105104 
1056.000000	65.109109 
1055.000000	65.110349 
1054.000000	65.107083 
1053.000000	65.097308 
1052.000000	65.079236 
1051.000000	65.052247 
1050.000000	65.017151 
1049.000000	64.976477 
1048.000000	64.934301 
1047.000000	64.895296 
1046.000000	64.864206 
1045.000000	64.844512 
1044.000000	64.837837 
1043.000000	64.843726 
1042.000000	64.859342 
1041.000000	64.880394 
1040.000000	64.901876 
1039.000000	64.919376 
1038.000000	64.929556 
1037.000000	64.931130 
1036.000000	64.924645 
1035.000000	64.912581 
1034.000000	64.898633 
1033.000000	64.887166 
1032.000000	64.882135 
1031.000000	64.886569 
1030.000000	64.902305 
1029.000000	64.929246 
1028.000000	64.966011 
1027.000000	65.009617 
1026.000000	65.056157 
1025.000000	65.101099 
1024.000000	65.140104 
1023.000000	65.169548 
1022.000000	65.186905 
1021.000000	65.191459 
1020.000000	65.184187 
1019.000000	65.167975 
1018.000000	65.146827 
1017.000000	65.125465 
1016.000000	65.108370 
1015.000000	65.098857 
1014.000000	65.098690 
1013.000000	65.107440 
1012.000000	65.122985 
1011.000000	65.141773 
1010.000000	65.159988 
1009.000000	65.174102 
1008.000000	65.181851 
1007.000000	65.182280 
1006.000000	65.176200 
1005.000000	65.165424 
1004.000000	65.152573 
1003.000000	65.140151 
1002.000000	65.130186 
1001.000000	65.123963 
1000.000000	65.121889 
999.000000	 65.123558 
998.000000	 65.128350 
997.000000	 65.135335 
996.000000	 65.143752 
995.000000	 65.153169 
994.000000	 65.163111 
993.000000	 65.173101 
992.000000	 65.182065 
991.000000	 65.188598 
990.000000	 65.190625 
989.000000	 65.185999 
988.000000	 65.172624 
987.000000	 65.149140 
986.000000	 65.115499 
985.000000	 65.073347 
984.000000	 65.026021 
983.000000	 64.978313 
982.000000	 64.935803 
981.000000	 64.903879 
980.000000	 64.886951 
979.000000	 64.887595 
978.000000	 64.906001 
977.000000	 64.940047 
976.000000	 64.985728 
975.000000	 65.038037 
974.000000	 65.091347 
973.000000	 65.140938 
972.000000	 65.183067 
971.000000	 65.215706 
970.000000	 65.238428 
969.000000	 65.251994 
968.000000	 65.258026 
967.000000	 65.258526 
966.000000	 65.255761 
965.000000	 65.251827 
964.000000	 65.248560 
963.000000	 65.247154 
962.000000	 65.248775 
961.000000	 65.253448 
960.000000	 65.260601 
959.000000	 65.268611 
958.000000	 65.275382 
957.000000	 65.278983 
956.000000	 65.278100 
955.000000	 65.272474 
954.000000	 65.263080 
953.000000	 65.251803 
952.000000	 65.241098 
951.000000	 65.233230 
950.000000	 65.229821 
949.000000	 65.231299 
948.000000	 65.236854 
947.000000	 65.244746 
946.000000	 65.253138 
945.000000	 65.260601 
944.000000	 65.266823 
943.000000	 65.272259 
942.000000	 65.278601 
941.000000	 65.288043 
940.000000	 65.302991 
939.000000	 65.324616 
938.000000	 65.352869 
937.000000	 65.386509 
936.000000	 65.422797 
935.000000	 65.458130 
934.000000	 65.488243 
933.000000	 65.509152 
932.000000	 65.517520 
931.000000	 65.511512 
930.000000	 65.491127 
929.000000	 65.458631 
928.000000	 65.418148 
927.000000	 65.375089 
926.000000	 65.335345 
925.000000	 65.303850 
924.000000	 65.284085 
923.000000	 65.277028 
922.000000	 65.281271 
921.000000	 65.293097 
920.000000	 65.307688 
919.000000	 65.320181 
918.000000	 65.326452 
917.000000	 65.324211 
916.000000	 65.312910 
915.000000	 65.294075 
914.000000	 65.270400 
913.000000	 65.245175 
912.000000	 65.221095 
911.000000	 65.200138 
910.000000	 65.183115 
909.000000	 65.169954 
908.000000	 65.159916 
907.000000	 65.151906 
906.000000	 65.145087 
905.000000	 65.138816 
904.000000	 65.132904 
903.000000	 65.127515 
902.000000	 65.123033 
901.000000	 65.120005 
900.000000	 65.119194 
899.000000	 65.121316 
898.000000	 65.127205 
897.000000	 65.137600 
896.000000	 65.153050 
895.000000	 65.173339 
894.000000	 65.197253 
893.000000	 65.222954 
892.000000	 65.247702 
891.000000	 65.268325 
890.000000	 65.281748 
889.000000	 65.285611 
888.000000	 65.278840 
887.000000	 65.262079 
886.000000	 65.237545 
885.000000	 65.208458 
884.000000	 65.178751 
883.000000	 65.151977 
882.000000	 65.131235 
881.000000	 65.118432 
880.000000	 65.114927 
879.000000	 65.121245 
878.000000	 65.137434 
877.000000	 65.163326 
876.000000	 65.198159 
875.000000	 65.240669 
874.000000	 65.288639 
873.000000	 65.338993 
872.000000	 65.388011 
871.000000	 65.432167 
870.000000	 65.468430 
869.000000	 65.495085 
868.000000	 65.511941 
867.000000	 65.519976 
866.000000	 65.521311 
865.000000	 65.518164 
864.000000	 65.512561 
863.000000	 65.505170 
862.000000	 65.495753 
861.000000	 65.483140 
860.000000	 65.466260 
859.000000	 65.444493 
858.000000	 65.418624 
857.000000	 65.390348 
856.000000	 65.362119 
855.000000	 65.336656 
854.000000	 65.316128 
853.000000	 65.301561 
852.000000	 65.292286 
851.000000	 65.286326 
850.000000	 65.281057 
849.000000	 65.273785 
848.000000	 65.262651 
847.000000	 65.247035 
846.000000	 65.227913 
845.000000	 65.207815 
844.000000	 65.190124 
843.000000	 65.178132 
842.000000	 65.173983 
841.000000	 65.178561 
840.000000	 65.190720 
839.000000	 65.207290 
838.000000	 65.223693 
837.000000	 65.234708 
836.000000	 65.236043 
835.000000	 65.224695 
834.000000	 65.201187 
833.000000	 65.169048 
832.000000	 65.135407 
831.000000	 65.109109 
830.000000	 65.099120 
829.000000	 65.112233 
828.000000	 65.151333 
827.000000	 65.214610 
826.000000	 65.295410 
825.000000	 65.383505 
824.000000	 65.467286 
823.000000	 65.536117 
822.000000	 65.582227 
821.000000	 65.601778 
820.000000	 65.595436 
819.000000	 65.567588 
818.000000	 65.524721 
817.000000	 65.473723 
816.000000	 65.420937 
815.000000	 65.370559 
814.000000	 65.325331 
813.000000	 65.285944 
812.000000	 65.252923 
811.000000	 65.226030 
810.000000	 65.205049 
809.000000	 65.189886 
808.000000	 65.180182 
807.000000	 65.175867 
806.000000	 65.176439 
805.000000	 65.181732 
804.000000	 65.191102 
803.000000	 65.204095 
802.000000	 65.220046 
801.000000	 65.238070 
800.000000	 65.256881 
799.000000	 65.275406 
798.000000	 65.292716 
797.000000	 65.308189 
796.000000	 65.321516 
795.000000	 65.332746 
794.000000	 65.342235 
793.000000	 65.350270 
792.000000	 65.356922 
791.000000	 65.362167 
790.000000	 65.366196 
789.000000	 65.369200 
788.000000	 65.371823 
787.000000	 65.374994 
786.000000	 65.380191 
785.000000	 65.389323 
784.000000	 65.404295 
783.000000	 65.426421 
782.000000	 65.456032 
781.000000	 65.492486 
780.000000	 65.533709 
779.000000	 65.576696 
778.000000	 65.617513 
777.000000	 65.652489 
776.000000	 65.677690 
775.000000	 65.690159 
774.000000	 65.687656 
773.000000	 65.669560 
772.000000	 65.636634 
771.000000	 65.591263 
770.000000	 65.537166 
769.000000	 65.479183 
768.000000	 65.422749 
767.000000	 65.373182 
766.000000	 65.334963 
765.000000	 65.311074 
764.000000	 65.302729 
763.000000	 65.309166 
762.000000	 65.327739 
761.000000	 65.354323 
760.000000	 65.384030 
759.000000	 65.411806 
758.000000	 65.433073 
757.000000	 65.444374 
756.000000	 65.443539 
755.000000	 65.430450 
754.000000	 65.406322 
753.000000	 65.374183 
752.000000	 65.338039 
751.000000	 65.302681 
750.000000	 65.272903 
749.000000	 65.252733 
748.000000	 65.245103 
747.000000	 65.250754 
746.000000	 65.268516 
745.000000	 65.294837 
744.000000	 65.324592 
743.000000	 65.351724 
742.000000	 65.370583 
741.000000	 65.376734 
740.000000	 65.367960 
739.000000	 65.344834 
738.000000	 65.310454 
737.000000	 65.269517 
736.000000	 65.227389 
735.000000	 65.189099 
734.000000	 65.158510 
733.000000	 65.137553 
732.000000	 65.126729 
731.000000	 65.125036 
730.000000	 65.130782 
729.000000	 65.142130 
728.000000	 65.157508 
727.000000	 65.175557 
726.000000	 65.195441 
725.000000	 65.216350 
724.000000	 65.237712 
723.000000	 65.258455 
722.000000	 65.277457 
721.000000	 65.293645 
720.000000	 65.306377 
719.000000	 65.315461 
718.000000	 65.321230 
717.000000	 65.324449 
716.000000	 65.326237 
715.000000	 65.327835 
714.000000	 65.330553 
713.000000	 65.335297 
712.000000	 65.342783 
711.000000	 65.353035 
710.000000	 65.364980 
709.000000	 65.376639 
708.000000	 65.385556 
707.000000	 65.389251 
706.000000	 65.385603 
705.000000	 65.373420 
704.000000	 65.353465 
703.000000	 65.327620 
702.000000	 65.298581 
701.000000	 65.268945 
700.000000	 65.240883 
699.000000	 65.215134 
698.000000	 65.190863 
697.000000	 65.165996 
696.000000	 65.138030 
695.000000	 65.104937 
694.000000	 65.065979 
693.000000	 65.022277 
692.000000	 64.976882 
691.000000	 64.933991 
690.000000	 64.897751 
689.000000	 64.871525 
688.000000	 64.857244 
687.000000	 64.855790 
686.000000	 64.867329 
685.000000	 64.891576 
684.000000	 64.928174 
683.000000	 64.976716 
682.000000	 65.036630 
681.000000	 65.106344 
680.000000	 65.183448 
679.000000	 65.264439 
678.000000	 65.344953 
677.000000	 65.420198 
676.000000	 65.485358 
675.000000	 65.536308 
674.000000	 65.570259 
673.000000	 65.586233 
672.000000	 65.585565 
671.000000	 65.571641 
670.000000	 65.549802 
669.000000	 65.527176 
668.000000	 65.511035 
667.000000	 65.507769 
666.000000	 65.521407 
665.000000	 65.553069 
664.000000	 65.599918 
663.000000	 65.655636 
662.000000	 65.711259 
661.000000	 65.757060 
660.000000	 65.785074 
659.000000	 65.790796 
658.000000	 65.774393 
657.000000	 65.740418 
656.000000	 65.696454 
655.000000	 65.650939 
654.000000	 65.611171 
653.000000	 65.581440 
652.000000	 65.562629 
651.000000	 65.552091 
650.000000	 65.545320 
649.000000	 65.537476 
648.000000	 65.524983 
647.000000	 65.507030 
646.000000	 65.485191 
645.000000	 65.463829 
644.000000	 65.448546 
643.000000	 65.444827 
642.000000	 65.456080 
641.000000	 65.482473 
640.000000	 65.520954 
639.000000	 65.564870 
638.000000	 65.605592 
637.000000	 65.633726 
636.000000	 65.641355 
635.000000	 65.623140 
634.000000	 65.577960 
633.000000	 65.509724 
632.000000	 65.426969 
631.000000	 65.341281 
630.000000	 65.265178 
629.000000	 65.210008 
628.000000	 65.183782 
627.000000	 65.189599 
626.000000	 65.225839 
625.000000	 65.286517 
624.000000	 65.363025 
623.000000	 65.446352 
622.000000	 65.528917 
621.000000	 65.604472 
620.000000	 65.669775 
619.000000	 65.723252 
618.000000	 65.765190 
617.000000	 65.796637 
616.000000	 65.818500 
615.000000	 65.831375 
614.000000	 65.834879 
613.000000	 65.828299 
612.000000	 65.810251 
611.000000	 65.780115 
610.000000	 65.737152 
609.000000	 65.681481 
608.000000	 65.613985 
607.000000	 65.536785 
606.000000	 65.453004 
605.000000	 65.367054 
604.000000	 65.284514 
603.000000	 65.212082 
602.000000	 65.156340 
601.000000	 65.123295 
600.000000	 65.117454 
599.000000	 65.141129 
598.000000	 65.193438 
597.000000	 65.270018 
596.000000	 65.363478 
595.000000	 65.464091 
594.000000	 65.560531 
593.000000	 65.641689 
592.000000	 65.697789 
591.000000	 65.722560 
590.000000	 65.714573 
589.000000	 65.677189 
588.000000	 65.617918 
587.000000	 65.546894 
586.000000	 65.475010 
585.000000	 65.411782 
584.000000	 65.364241 
583.000000	 65.336227 
582.000000	 65.328598 
581.000000	 65.340328 
580.000000	 65.369534 
579.000000	 65.414166 
578.000000	 65.472483 
577.000000	 65.543079 
576.000000	 65.624594 
575.000000	 65.714406 
574.000000	 65.808749 
573.000000	 65.902805 
572.000000	 65.991234 
571.000000	 66.068863 
570.000000	 66.131448 
569.000000	 66.177058 
568.000000	 66.205239 
567.000000	 66.217994 
566.000000	 66.217875 
565.000000	 66.207861 
564.000000	 66.190457 
563.000000	 66.168117 
562.000000	 66.142654 
561.000000	 66.115903 
560.000000	 66.089701 
559.000000	 66.066765 
558.000000	 66.049861 
557.000000	 66.041612 
556.000000	 66.044139 
555.000000	 66.058564 
554.000000	 66.085028 
553.000000	 66.122555 
552.000000	 66.169428 
551.000000	 66.223406 
550.000000	 66.282439 
549.000000	 66.344380 
548.000000	 66.407680 
547.000000	 66.469955 
546.000000	 66.528248 
545.000000	 66.577839 
544.000000	 66.613197 
543.000000	 66.627979 
542.000000	 66.616630 
541.000000	 66.575765 
540.000000	 66.506123 
539.000000	 66.412687 
538.000000	 66.305088 
537.000000	 66.195154 
536.000000	 66.095352 
535.000000	 66.015362 
534.000000	 65.960478 
533.000000	 65.930533 
532.000000	 65.920948 
531.000000	 65.924000 
530.000000	 65.931463 
529.000000	 65.936565 
528.000000	 65.935516 
527.000000	 65.928483 
526.000000	 65.918684 
525.000000	 65.911269 
524.000000	 65.911102 
523.000000	 65.921282 
522.000000	 65.941619 
521.000000	 65.968084 
520.000000	 65.994143 
519.000000	 66.011714 
518.000000	 66.014671 
517.000000	 66.000962 
516.000000	 65.974068 
515.000000	 65.942645 
514.000000	 65.917921 
513.000000	 65.910053 
512.000000	 65.925312 
511.000000	 65.963840 
510.000000	 66.019225 
509.000000	 66.080307 
508.000000	 66.133832 
507.000000	 66.168379 
506.000000	 66.177105 
505.000000	 66.159224 
504.000000	 66.120958 
503.000000	 66.073179 
502.000000	 66.029930 
501.000000	 66.004490 
500.000000	 66.007065 
499.000000	 66.041803 
498.000000	 66.106605 
497.000000	 66.193222 
496.000000	 66.288256 
495.000000	 66.376280 
494.000000	 66.442894 
493.000000	 66.478753 
492.000000	 66.480159 
491.000000	 66.451597 
490.000000	 66.404819 
489.000000	 66.356730 
488.000000	 66.326093 
487.000000	 66.327548 
486.000000	 66.368985 
485.000000	 66.447520 
484.000000	 66.550898 
483.000000	 66.658902 
482.000000	 66.749143 
481.000000	 66.801762 
480.000000	 66.804933 
479.000000	 66.757369 
478.000000	 66.668486 
477.000000	 66.555714 
476.000000	 66.439867 
475.000000	 66.339039 
474.000000	 66.264128 
473.000000	 66.216754 
472.000000	 66.189908 
471.000000	 66.169047 
470.000000	 66.136980 
469.000000	 66.079568 
468.000000	 65.990185 
467.000000	 65.869784 
466.000000	 65.728378 
465.000000	 65.581870 
464.000000	 65.449643 
463.000000	 65.349340 
462.000000	 65.293765 
461.000000	 65.287661 
460.000000	 65.327095 
459.000000	 65.401935 
458.000000	 65.496850 
457.000000	 65.594267 
456.000000	 65.677857 
455.000000	 65.734195 
454.000000	 65.756821 
453.000000	 65.744137 
452.000000	 65.704083 
451.000000	 65.651559 
450.000000	 65.606284 
449.000000	 65.587592 
448.000000	 65.612077 
447.000000	 65.690112 
446.000000	 65.823078 
445.000000	 66.003584 
444.000000	 66.220879 
443.000000	 66.463685 
442.000000	 66.723775 
441.000000	 66.995882 
440.000000	 67.275881 
439.000000	 67.556786 
438.000000	 67.829442 
437.000000	 68.078255 
436.000000	 68.280529 
435.000000	 68.410205 
434.000000	 68.448472 
433.000000	 68.385171 
432.000000	 68.225073 
431.000000	 67.985486 
430.000000	 67.698311 
429.000000	 67.398834 
428.000000	 67.122840 
427.000000	 66.894125 
426.000000	 66.722536 
425.000000	 66.600275 
424.000000	 66.507315 
423.000000	 66.416215 
422.000000	 66.304326 
421.000000	 66.149592 
420.000000	 65.934038 
419.000000	 65.655016 
418.000000	 65.327692 
417.000000	 64.973330 
416.000000	 64.619565 
415.000000	 64.298987 
414.000000	 64.049291 
413.000000	 63.914895 
412.000000	 63.940739 
411.000000	 64.158678 
410.000000	 64.580082 
409.000000	 65.195965 
408.000000	 65.967941 
407.000000	 66.821837 
406.000000	 67.662191 
405.000000	 68.398690 
404.000000	 68.949937 
403.000000	 69.256925 
402.000000	 69.291448 
401.000000	 69.056916 
400.000000	 68.596434 
399.000000	 67.960047 
398.000000	 67.252945 
397.000000	 66.624546 
396.000000	 66.254377 
395.000000	 66.309642 
394.000000	 66.944217 
393.000000	 68.263459 
392.000000	 70.276403 
391.000000	 72.873878 
390.000000	 75.832104 
389.000000	 78.836131 
388.000000	 81.522274 
387.000000	 83.536624 
386.000000	 84.614062 
385.000000	 84.612011 
384.000000	 83.541512 
383.000000	 81.543374 
382.000000	 78.861021 
381.000000	 75.781774 
380.000000	 72.597289 
379.000000	 69.548320 
378.000000	 66.851758 
377.000000	 64.615154 
376.000000	 62.925243 
375.000000	 61.719036 
374.000000	 60.820937 
373.000000	 59.931278 
372.000000	 58.716511 
371.000000	 56.834292 
370.000000	 53.979706 

