PE IR       SPECTRUM    SPECTRUM    ASCII       PEDS        1.60        
  -1
BZAB75~1.ASC
17/04/10
09:24:22.00
17/04/10
09:24:22.00
tln
$BZ12041010-4_t0007$<tbV0>[2.6,-9.8,9.0,0.0,22,1,0]
370.000000
64









2002,4.07    
MIRTGS : RIGHTBACK : INTERNAL 2
MIR : ON : INTERNAL 2
OPTKBR

0.200000
8
8.000000
FILLER
RATIO
SPECTRUM
UNLOCKED 256

DOUBLE
64
COMBINED
1
0
0


1.000000
RATIO


1
0
TRUE
51149
0
LEFT NOT FITTED RIGHT NOT FITTED 0
NONE
NONE
15600
12.000000
4.427000
51148
TRUE
1 0 8 72 0 0 0 0 

15798.010000






#HDR
-1
-1
#GR
CM-1
%T
0.00002384185791015625
0.0
5000.000000
-1.000000
4631
8
120.947384
51.958370
#DATA
5000.000000	64.461302  
4999.000000	64.431333  
4998.000000	64.401388  
4997.000000	64.377498  
4996.000000	64.364147  
4995.000000	64.363431  
4994.000000	64.374327  
4993.000000	64.393186  
4992.000000	64.414858  
4991.000000	64.433836  
4990.000000	64.446139  
4989.000000	64.450263  
4988.000000	64.447474  
4987.000000	64.441061  
4986.000000	64.435505  
4985.000000	64.435076  
4984.000000	64.442062  
4983.000000	64.456176  
4982.000000	64.474797  
4981.000000	64.493727  
4980.000000	64.508867  
4979.000000	64.517831  
4978.000000	64.520359  
4977.000000	64.518857  
4976.000000	64.518165  
4975.000000	64.523601  
4974.000000	64.539432  
4973.000000	64.566922  
4972.000000	64.604115  
4971.000000	64.645504  
4970.000000	64.683437  
4969.000000	64.709997  
4968.000000	64.719009  
4967.000000	64.708209  
4966.000000	64.679670  
4965.000000	64.640307  
4964.000000	64.599800  
4963.000000	64.569354  
4962.000000	64.558863  
4961.000000	64.575242  
4960.000000	64.620876  
4959.000000	64.692711  
4958.000000	64.783096  
4957.000000	64.880084  
4956.000000	64.969754  
4955.000000	65.037965  
4954.000000	65.072894  
4953.000000	65.066933  
4952.000000	65.017938  
4951.000000	64.929962  
4950.000000	64.812564  
4949.000000	64.679408  
4948.000000	64.545822  
4947.000000	64.426350  
4946.000000	64.332222  
4945.000000	64.270138  
4944.000000	64.241480  
4943.000000	64.242458  
4942.000000	64.266061  
4941.000000	64.303827  
4940.000000	64.348220  
4939.000000	64.392852  
4938.000000	64.434742  
4937.000000	64.473438  
4936.000000	64.510607  
4935.000000	64.547729  
4934.000000	64.585947  
4933.000000	64.624834  
4932.000000	64.662551  
4931.000000	64.696025  
4930.000000	64.722490  
4929.000000	64.740347  
4928.000000	64.749765  
4927.000000	64.752531  
4926.000000	64.751672  
4925.000000	64.750242  
4924.000000	64.750766  
4923.000000	64.753842  
4922.000000	64.758181  
4921.000000	64.760518  
4920.000000	64.757800  
4919.000000	64.746880  
4918.000000	64.725685  
4917.000000	64.693450  
4916.000000	64.651942  
4915.000000	64.604067  
4914.000000	64.552617  
4913.000000	64.500546  
4912.000000	64.450383  
4911.000000	64.404296  
4910.000000	64.364218  
4909.000000	64.331054  
4908.000000	64.305043  
4907.000000	64.284992  
4906.000000	64.268970  
4905.000000	64.253520  
4904.000000	64.234161  
4903.000000	64.207053  
4902.000000	64.170527  
4901.000000	64.126253  
4900.000000	64.079713  
4899.000000	64.039993  
4898.000000	64.018034  
4897.000000	64.023923  
4896.000000	64.064598  
4895.000000	64.140820  
4894.000000	64.247465  
4893.000000	64.373540  
4892.000000	64.505815  
4891.000000	64.631390  
4890.000000	64.741110  
4889.000000	64.831829  
4888.000000	64.905071  
4887.000000	64.966654  
4886.000000	65.021681  
4885.000000	65.072822  
4884.000000	65.117263  
4883.000000	65.147733  
4882.000000	65.153670  
4881.000000	65.125560  
4880.000000	65.058088  
4879.000000	64.953589  
4878.000000	64.823102  
4877.000000	64.685297  
4876.000000	64.561986  
4875.000000	64.473533  
4874.000000	64.433264  
4873.000000	64.444637  
4872.000000	64.503002  
4871.000000	64.597034  
4870.000000	64.710426  
4869.000000	64.826393  
4868.000000	64.932036  
4867.000000	65.020298  
4866.000000	65.088701  
4865.000000	65.138936  
4864.000000	65.175175  
4863.000000	65.200448  
4862.000000	65.216851  
4861.000000	65.221405  
4860.000000	65.207529  
4859.000000	65.165996  
4858.000000	65.089344  
4857.000000	64.974951  
4856.000000	64.826822  
4855.000000	64.658832  
4854.000000	64.493036  
4853.000000	64.356446  
4852.000000	64.275598  
4851.000000	64.268064  
4850.000000	64.337587  
4849.000000	64.467310  
4848.000000	64.621686  
4847.000000	64.750027  
4846.000000	64.797711  
4845.000000	64.718556  
4844.000000	64.487290  
4843.000000	64.106011  
4842.000000	63.606905  
4841.000000	63.044524  
4840.000000	62.487792  
4839.000000	62.002563  
4838.000000	61.643791  
4837.000000	61.445355  
4836.000000	61.418819  
4835.000000	61.553001  
4834.000000	61.821389  
4833.000000	62.187314  
4832.000000	62.612867  
4831.000000	63.061618  
4830.000000	63.503670  
4829.000000	63.912153  
4828.000000	64.266777  
4827.000000	64.550328  
4826.000000	64.750361  
4825.000000	64.858484  
4824.000000	64.872622  
4823.000000	64.799237  
4822.000000	64.649248  
4821.000000	64.437723  
4820.000000	64.182710  
4819.000000	63.903808  
4818.000000	63.620138  
4817.000000	63.348722  
4816.000000	63.105106  
4815.000000	62.901377  
4814.000000	62.744235  
4813.000000	62.635850  
4812.000000	62.571382  
4811.000000	62.544870  
4810.000000	62.547564  
4809.000000	62.575888  
4808.000000	62.628746  
4807.000000	62.711739  
4806.000000	62.830829  
4805.000000	62.993454  
4804.000000	63.201618  
4803.000000	63.452053  
4802.000000	63.733983  
4801.000000	64.029884  
4800.000000	64.316916  
4799.000000	64.572644  
4798.000000	64.779782  
4797.000000	64.928364  
4796.000000	65.017533  
4795.000000	65.054965  
4794.000000	65.054321  
4793.000000	65.032172  
4792.000000	65.003824  
4791.000000	64.980792  
4790.000000	64.968085  
4789.000000	64.967155  
4788.000000	64.974427  
4787.000000	64.982748  
4786.000000	64.982533  
4785.000000	64.965462  
4784.000000	64.925599  
4783.000000	64.860630  
4782.000000	64.772605  
4781.000000	64.667129  
4780.000000	64.552879  
4779.000000	64.439558  
4778.000000	64.336848  
4777.000000	64.250850  
4776.000000	64.186358  
4775.000000	64.146518  
4774.000000	64.133310  
4773.000000	64.146637  
4772.000000	64.186310  
4771.000000	64.251375  
4770.000000	64.339494  
4769.000000	64.445543  
4768.000000	64.563655  
4767.000000	64.687561  
4766.000000	64.810729  
4765.000000	64.926981  
4764.000000	65.032815  
4763.000000	65.126824  
4762.000000	65.209865  
4761.000000	65.282821  
4760.000000	65.346050  
4759.000000	65.396595  
4758.000000	65.430307  
4757.000000	65.439629  
4756.000000	65.416717  
4755.000000	65.354132  
4754.000000	65.249729  
4753.000000	65.105724  
4752.000000	64.929533  
4751.000000	64.733076  
4750.000000	64.532041  
4749.000000	64.342951  
4748.000000	64.179968  
4747.000000	64.054036  
4746.000000	63.971590  
4745.000000	63.933444  
4744.000000	63.935136  
4743.000000	63.968157  
4742.000000	64.021730  
4741.000000	64.084506  
4740.000000	64.146161  
4739.000000	64.198231  
4738.000000	64.234566  
4737.000000	64.252066  
4736.000000	64.250564  
4735.000000	64.231109  
4734.000000	64.196610  
4733.000000	64.152860  
4732.000000	64.108443  
4731.000000	64.072012  
4730.000000	64.053082  
4729.000000	64.061164  
4728.000000	64.104485  
4727.000000	64.187026  
4726.000000	64.308881  
4725.000000	64.465570  
4724.000000	64.648652  
4723.000000	64.846038  
4722.000000	65.044450  
4721.000000	65.230536  
4720.000000	65.393733  
4719.000000	65.527653  
4718.000000	65.629911  
4717.000000	65.701413  
4716.000000	65.746688  
4715.000000	65.772676  
4714.000000	65.786170  
4713.000000	65.791893  
4712.000000	65.791821  
4711.000000	65.783715  
4710.000000	65.760850  
4709.000000	65.712523  
4708.000000	65.626859  
4707.000000	65.493321  
4706.000000	65.306425  
4705.000000	65.067768  
4704.000000	64.788055  
4703.000000	64.485430  
4702.000000	64.182114  
4701.000000	63.900876  
4700.000000	63.660502  
4699.000000	63.473677  
4698.000000	63.344025  
4697.000000	63.268947  
4696.000000	63.238859  
4695.000000	63.244032  
4694.000000	63.275504  
4693.000000	63.328957  
4692.000000	63.402152  
4691.000000	63.496375  
4690.000000	63.612699  
4689.000000	63.749575  
4688.000000	63.899421  
4687.000000	64.050173  
4686.000000	64.186358  
4685.000000	64.292311  
4684.000000	64.355897  
4683.000000	64.370846  
4682.000000	64.339303  
4681.000000	64.271926  
4680.000000	64.186596  
4679.000000	64.104223  
4678.000000	64.045000  
4677.000000	64.025616  
4676.000000	64.055085  
4675.000000	64.133191  
4674.000000	64.250564  
4673.000000	64.392399  
4672.000000	64.540767  
4671.000000	64.677453  
4670.000000	64.788103  
4669.000000	64.864540  
4668.000000	64.905261  
4667.000000	64.913868  
4666.000000	64.897918  
4665.000000	64.866495  
4664.000000	64.827775  
4663.000000	64.787840  
4662.000000	64.750218  
4661.000000	64.716815  
4660.000000	64.689683  
4659.000000	64.672064  
4658.000000	64.668631  
4657.000000	64.684772  
4656.000000	64.724969  
4655.000000	64.791250  
4654.000000	64.880561  
4653.000000	64.985585  
4652.000000	65.096306  
4651.000000	65.202093  
4650.000000	65.294384  
4649.000000	65.367364  
4648.000000	65.419125  
4647.000000	65.450286  
4646.000000	65.463948  
4645.000000	65.462779  
4644.000000	65.448617  
4643.000000	65.421080  
4642.000000	65.379166  
4641.000000	65.321493  
4640.000000	65.248703  
4639.000000	65.163946  
4638.000000	65.073227  
4637.000000	64.985466  
4636.000000	64.911198  
4635.000000	64.860129  
4634.000000	64.838790  
4633.000000	64.849352  
4632.000000	64.888763  
4631.000000	64.948916  
4630.000000	65.017986  
4629.000000	65.082573  
4628.000000	65.130615  
4627.000000	65.152716  
4626.000000	65.144991  
4625.000000	65.110182  
4624.000000	65.057587  
4623.000000	65.000367  
4622.000000	64.952874  
4621.000000	64.927387  
4620.000000	64.930939  
4619.000000	64.963936  
4618.000000	65.020155  
4617.000000	65.089559  
4616.000000	65.159678  
4615.000000	65.219974  
4614.000000	65.262413  
4613.000000	65.282630  
4612.000000	65.280151  
4611.000000	65.257430  
4610.000000	65.218448  
4609.000000	65.167331  
4608.000000	65.108013  
4607.000000	65.044116  
4606.000000	64.977741  
4605.000000	64.909934  
4604.000000	64.840984  
4603.000000	64.771056  
4602.000000	64.699697  
4601.000000	64.626669  
4600.000000	64.551401  
4599.000000	64.474558  
4598.000000	64.397954  
4597.000000	64.325475  
4596.000000	64.261651  
4595.000000	64.212131  
4594.000000	64.181637  
4593.000000	64.173984  
4592.000000	64.190340  
4591.000000	64.229989  
4590.000000	64.289355  
4589.000000	64.363813  
4588.000000	64.447832  
4587.000000	64.535951  
4586.000000	64.622926  
4585.000000	64.704537  
4584.000000	64.777231  
4583.000000	64.839196  
4582.000000	64.890122  
4581.000000	64.931392  
4580.000000	64.965701  
4579.000000	64.996051  
4578.000000	65.024471  
4577.000000	65.051698  
4576.000000	65.076565  
4575.000000	65.095615  
4574.000000	65.104174  
4573.000000	65.097808  
4572.000000	65.074372  
4571.000000	65.034747  
4570.000000	64.984250  
4569.000000	64.932131  
4568.000000	64.890217  
4567.000000	64.870619  
4566.000000	64.882731  
4565.000000	64.930963  
4564.000000	65.013122  
4563.000000	65.120530  
4562.000000	65.239810  
4561.000000	65.355062  
4560.000000	65.452337  
4559.000000	65.522456  
4558.000000	65.562939  
4557.000000	65.577864  
4556.000000	65.576195  
4555.000000	65.568828  
4554.000000	65.565156  
4553.000000	65.570521  
4552.000000	65.585064  
4551.000000	65.604090  
4550.000000	65.620207  
4549.000000	65.626096  
4548.000000	65.616440  
4547.000000	65.589737  
4546.000000	65.549159  
4545.000000	65.501451  
4544.000000	65.454959  
4543.000000	65.417194  
4542.000000	65.393066  
4541.000000	65.383267  
4540.000000	65.385007  
4539.000000	65.392041  
4538.000000	65.396952  
4537.000000	65.392661  
4536.000000	65.374207  
4535.000000	65.340518  
4534.000000	65.293836  
4533.000000	65.240502  
4532.000000	65.189075  
4531.000000	65.149140  
4530.000000	65.128207  
4529.000000	65.131449  
4528.000000	65.161156  
4527.000000	65.214681  
4526.000000	65.284371  
4525.000000	65.362620  
4524.000000	65.443992  
4523.000000	65.523958  
4522.000000	65.599489  
4521.000000	65.672492  
4520.000000	65.747499  
4519.000000	65.828251  
4518.000000	65.915250  
4517.000000	66.005611  
4516.000000	66.092061  
4515.000000	66.163444  
4514.000000	66.207599  
4513.000000	66.216158  
4512.000000	66.186356  
4511.000000	66.123294  
4510.000000	66.038703  
4509.000000	65.949249  
4508.000000	65.871906  
4507.000000	65.821862  
4506.000000	65.806078  
4505.000000	65.824174  
4504.000000	65.863227  
4503.000000	65.905284  
4502.000000	65.920782  
4501.000000	65.876150  
4500.000000	65.736389  
4499.000000	65.474653  
4498.000000	65.072917  
4497.000000	64.527964  
4496.000000	63.854837  
4495.000000	63.087201  
4494.000000	62.275695  
4493.000000	61.480498  
4492.000000	60.760402  
4491.000000	60.163378  
4490.000000	59.718298  
4489.000000	59.432363  
4488.000000	59.289002  
4487.000000	59.257292  
4486.000000	59.293603  
4485.000000	59.359383  
4484.000000	59.423255  
4483.000000	59.473347  
4482.000000	59.508132  
4481.000000	59.542155  
4480.000000	59.590792  
4479.000000	59.672498  
4478.000000	59.794163  
4477.000000	59.960532  
4476.000000	60.169887  
4475.000000	60.423707  
4474.000000	60.727357  
4473.000000	61.088418  
4472.000000	61.513781  
4471.000000	61.991715  
4470.000000	62.488007  
4469.000000	62.941813  
4468.000000	63.277602  
4467.000000	63.419866  
4466.000000	63.317203  
4465.000000	62.964272  
4464.000000	62.411737  
4463.000000	61.758112  
4462.000000	61.134266  
4461.000000	60.677266  
4460.000000	60.499715  
4459.000000	60.662698  
4458.000000	61.163592  
4457.000000	61.940050  
4456.000000	62.883687  
4455.000000	63.866019  
4454.000000	64.765501  
4453.000000	65.489888  
4452.000000	65.992832  
4451.000000	66.273140  
4450.000000	66.368150  
4449.000000	66.333079  
4448.000000	66.227698  
4447.000000	66.100358  
4446.000000	65.980625  
4445.000000	65.880155  
4444.000000	65.795588  
4443.000000	65.719389  
4442.000000	65.644288  
4441.000000	65.570664  
4440.000000	65.506672  
4439.000000	65.467548  
4438.000000	65.466690  
4437.000000	65.512633  
4436.000000	65.605044  
4435.000000	65.734410  
4434.000000	65.882825  
4433.000000	66.028285  
4432.000000	66.150617  
4431.000000	66.234803  
4430.000000	66.275262  
4429.000000	66.274142  
4428.000000	66.238903  
4427.000000	66.179466  
4426.000000	66.104912  
4425.000000	66.021752  
4424.000000	65.935850  
4423.000000	65.848898  
4422.000000	65.759515  
4421.000000	65.666604  
4420.000000	65.572595  
4419.000000	65.481042  
4418.000000	65.396261  
4417.000000	65.323233  
4416.000000	65.266442  
4415.000000	65.228986  
4414.000000	65.211987  
4413.000000	65.214085  
4412.000000	65.231871  
4411.000000	65.260291  
4410.000000	65.294313  
4409.000000	65.329074  
4408.000000	65.361475  
4407.000000	65.389990  
4406.000000	65.415000  
4405.000000	65.438175  
4404.000000	65.461683  
4403.000000	65.487146  
4402.000000	65.514683  
4401.000000	65.543389  
4400.000000	65.570735  
4399.000000	65.592694  
4398.000000	65.605711  
4397.000000	65.608096  
4396.000000	65.600657  
4395.000000	65.587067  
4394.000000	65.572500  
4393.000000	65.562176  
4392.000000	65.559649  
4391.000000	65.565872  
4390.000000	65.578317  
4389.000000	65.591764  
4388.000000	65.599846  
4387.000000	65.597367  
4386.000000	65.581846  
4385.000000	65.554785  
4384.000000	65.521860  
4383.000000	65.491533  
4382.000000	65.473079  
4381.000000	65.473675  
4380.000000	65.496301  
4379.000000	65.538215  
4378.000000	65.591740  
4377.000000	65.645217  
4376.000000	65.685868  
4375.000000	65.702629  
4374.000000	65.688610  
4373.000000	65.642666  
4372.000000	65.569782  
4371.000000	65.479779  
4370.000000	65.384578  
4369.000000	65.296077  
4368.000000	65.223693  
4367.000000	65.172314  
4366.000000	65.142083  
4365.000000	65.128970  
4364.000000	65.126514  
4363.000000	65.127801  
4362.000000	65.127325  
4361.000000	65.122079  
4360.000000	65.111732  
4359.000000	65.098094  
4358.000000	65.084099  
4357.000000	65.071821  
4356.000000	65.061807  
4355.000000	65.052556  
4354.000000	65.041089  
4353.000000	65.023493  
4352.000000	64.997196  
4351.000000	64.961671  
4350.000000	64.920258  
4349.000000	64.878845  
4348.000000	64.846181  
4347.000000	64.830946  
4346.000000	64.840912  
4345.000000	64.880061  
4344.000000	64.948225  
4343.000000	65.040636  
4342.000000	65.148615  
4341.000000	65.261316  
4340.000000	65.367221  
4339.000000	65.456080  
4338.000000	65.520501  
4337.000000	65.556669  
4336.000000	65.564298  
4335.000000	65.545630  
4334.000000	65.505528  
4333.000000	65.449953  
4332.000000	65.384864  
4331.000000	65.315246  
4330.000000	65.245437  
4329.000000	65.178179  
4328.000000	65.114855  
4327.000000	65.055727  
4326.000000	65.000247  
4325.000000	64.948201  
4324.000000	64.899516  
4323.000000	64.855623  
4322.000000	64.818191  
4321.000000	64.790153  
4320.000000	64.774775  
4319.000000	64.775013  
4318.000000	64.791822  
4317.000000	64.824032  
4316.000000	64.867925  
4315.000000	64.917874  
4314.000000	64.966320  
4313.000000	65.006399  
4312.000000	65.032935  
4311.000000	65.043878  
4310.000000	65.040564  
4309.000000	65.027832  
4308.000000	65.012836  
4307.000000	65.003442  
4306.000000	65.006136  
4305.000000	65.025043  
4304.000000	65.060567  
4303.000000	65.110111  
4302.000000	65.167784  
4301.000000	65.226173  
4300.000000	65.276694  
4299.000000	65.312361  
4298.000000	65.327405  
4297.000000	65.318489  
4296.000000	65.284323  
4295.000000	65.226435  
4294.000000	65.148138  
4293.000000	65.054273  
4292.000000	64.950489  
4291.000000	64.843559  
4290.000000	64.740061  
4289.000000	64.646339  
4288.000000	64.567708  
4287.000000	64.508008  
4286.000000	64.469575  
4285.000000	64.452958  
4284.000000	64.457130  
4283.000000	64.479207  
4282.000000	64.515423  
4281.000000	64.561462  
4280.000000	64.612579  
4279.000000	64.663910  
4278.000000	64.710640  
4277.000000	64.748668  
4276.000000	64.774608  
4275.000000	64.786434  
4274.000000	64.783787  
4273.000000	64.768004  
4272.000000	64.742469  
4271.000000	64.711689  
4270.000000	64.681220  
4269.000000	64.655947  
4268.000000	64.639782  
4267.000000	64.634227  
4266.000000	64.638590  
4265.000000	64.649915  
4264.000000	64.663910  
4263.000000	64.676094  
4262.000000	64.682865  
4261.000000	64.682483  
4260.000000	64.675378  
4259.000000	64.664030  
4258.000000	64.651608  
4257.000000	64.641666  
4256.000000	64.636921  
4255.000000	64.639019  
4254.000000	64.648270  
4253.000000	64.664030  
4252.000000	64.684891  
4251.000000	64.709043  
4250.000000	64.734196  
4249.000000	64.757966  
4248.000000	64.777898  
4247.000000	64.791846  
4246.000000	64.797997  
4245.000000	64.795255  
4244.000000	64.783453  
4243.000000	64.763855  
4242.000000	64.738655  
4241.000000	64.711165  
4240.000000	64.684438  
4239.000000	64.661192  
4238.000000	64.642620  
4237.000000	64.628672  
4236.000000	64.617657  
4235.000000	64.607071  
4234.000000	64.594054  
4233.000000	64.576292  
4232.000000	64.552259  
4231.000000	64.521360  
4230.000000	64.484405  
4229.000000	64.443302  
4228.000000	64.401531  
4227.000000	64.363598  
4226.000000	64.334702  
4225.000000	64.319515  
4224.000000	64.321470  
4223.000000	64.341592  
4222.000000	64.377927  
4221.000000	64.425706  
4220.000000	64.478182  
4219.000000	64.528155  
4218.000000	64.569163  
4217.000000	64.596700  
4216.000000	64.609193  
4215.000000	64.607667  
4214.000000	64.595317  
4213.000000	64.576578  
4212.000000	64.555716  
4211.000000	64.536356  
4210.000000	64.520788  
4209.000000	64.510440  
4208.000000	64.506363  
4207.000000	64.509248  
4206.000000	64.520406  
4205.000000	64.540266  
4204.000000	64.568042  
4203.000000	64.601135  
4202.000000	64.635300  
4201.000000	64.665198  
4200.000000	64.685297  
4199.000000	64.691400  
4198.000000	64.681625  
4197.000000	64.656925  
4196.000000	64.620876  
4195.000000	64.578962  
4194.000000	64.537572  
4193.000000	64.502930  
4192.000000	64.479660  
4191.000000	64.470529  
4190.000000	64.475679  
4189.000000	64.492869  
4188.000000	64.517664  
4187.000000	64.544367  
4186.000000	64.567255  
4185.000000	64.581179  
4184.000000	64.583468  
4183.000000	64.573287  
4182.000000	64.553356  
4181.000000	64.528632  
4180.000000	64.506268  
4179.000000	64.493846  
4178.000000	64.497351  
4177.000000	64.520001  
4176.000000	64.560818  
4175.000000	64.614987  
4174.000000	64.674353  
4173.000000	64.729571  
4172.000000	64.772009  
4171.000000	64.795637  
4170.000000	64.798355  
4169.000000	64.782428  
4168.000000	64.753603  
4167.000000	64.719676  
4166.000000	64.688897  
4165.000000	64.667963  
4164.000000	64.661097  
4163.000000	64.668965  
4162.000000	64.689278  
4161.000000	64.717483  
4160.000000	64.748191  
4159.000000	64.776563  
4158.000000	64.798855  
4157.000000	64.813661  
4156.000000	64.821290  
4155.000000	64.823818  
4154.000000	64.824247  
4153.000000	64.825558  
4152.000000	64.829993  
4151.000000	64.838552  
4150.000000	64.850783  
4149.000000	64.865088  
4148.000000	64.879226  
4147.000000	64.890623  
4146.000000	64.897084  
4145.000000	64.897513  
4144.000000	64.891862  
4143.000000	64.881277  
4142.000000	64.867377  
4141.000000	64.852118  
4140.000000	64.837098  
4139.000000	64.823102  
4138.000000	64.810228  
4137.000000	64.797663  
4136.000000	64.784812  
4135.000000	64.771461  
4134.000000	64.758324  
4133.000000	64.747166  
4132.000000	64.740157  
4131.000000	64.739513  
4130.000000	64.746403  
4129.000000	64.760065  
4128.000000	64.778137  
4127.000000	64.796853  
4126.000000	64.812040  
4125.000000	64.819860  
4124.000000	64.818167  
4123.000000	64.807081  
4122.000000	64.789175  
4121.000000	64.768838  
4120.000000	64.751815  
4119.000000	64.743900  
4118.000000	64.749622  
4117.000000	64.771270  
4116.000000	64.808607  
4115.000000	64.859080  
4114.000000	64.918351  
4113.000000	64.981126  
4112.000000	65.042090  
4111.000000	65.096402  
4110.000000	65.140557  
4109.000000	65.172243  
4108.000000	65.190315  
4107.000000	65.194177  
4106.000000	65.184235  
4105.000000	65.161132  
4104.000000	65.126132  
4103.000000	65.081238  
4102.000000	65.029859  
4101.000000	64.976358  
4100.000000	64.926195  
4099.000000	64.884567  
4098.000000	64.856243  
4097.000000	64.843487  
4096.000000	64.846014  
4095.000000	64.860200  
4094.000000	64.879679  
4093.000000	64.897036  
4092.000000	64.905476  
4091.000000	64.900660  
4090.000000	64.881920  
4089.000000	64.852762  
4088.000000	64.820075  
4087.000000	64.792275  
4086.000000	64.777326  
4085.000000	64.780020  
4084.000000	64.801073  
4083.000000	64.836406  
4082.000000	64.878726  
4081.000000	64.919662  
4080.000000	64.952206  
4079.000000	64.972543  
4078.000000	64.980816  
4077.000000	64.981150  
4076.000000	64.979696  
4075.000000	64.982533  
4074.000000	64.993381  
4073.000000	65.012335  
4072.000000	65.035319  
4071.000000	65.055751  
4070.000000	65.065693  
4069.000000	65.058732  
4068.000000	65.031719  
4067.000000	64.986300  
4066.000000	64.928436  
4065.000000	64.867067  
4064.000000	64.812135  
4063.000000	64.772272  
4062.000000	64.752745  
4061.000000	64.754414  
4060.000000	64.774012  
4059.000000	64.805126  
4058.000000	64.840006  
4057.000000	64.871287  
4056.000000	64.893579  
4055.000000	64.904356  
4054.000000	64.903378  
4053.000000	64.892387  
4052.000000	64.873766  
4051.000000	64.849543  
4050.000000	64.821076  
4049.000000	64.788603  
4048.000000	64.751744  
4047.000000	64.710354  
4046.000000	64.665436  
4045.000000	64.619636  
4044.000000	64.576983  
4043.000000	64.542651  
4042.000000	64.521622  
4041.000000	64.517998  
4040.000000	64.533567  
4039.000000	64.567542  
4038.000000	64.616608  
4037.000000	64.675498  
4036.000000	64.738106  
4035.000000	64.798736  
4034.000000	64.853143  
4033.000000	64.899182  
4032.000000	64.936828  
4031.000000	64.967417  
4030.000000	64.992713  
4029.000000	65.014529  
4028.000000	65.033483  
4027.000000	65.049314  
4026.000000	65.060353  
4025.000000	65.064740  
4024.000000	65.060472  
4023.000000	65.046310  
4022.000000	65.022039  
4021.000000	64.989066  
4020.000000	64.949870  
4019.000000	64.907789  
4018.000000	64.866709  
4017.000000	64.830374  
4016.000000	64.802098  
4015.000000	64.784073  
4014.000000	64.777302  
4013.000000	64.781403  
4012.000000	64.794445  
4011.000000	64.813399  
4010.000000	64.834713  
4009.000000	64.854955  
4008.000000	64.871478  
4007.000000	64.883041  
4006.000000	64.889955  
4005.000000	64.893984  
4004.000000	64.898109  
4003.000000	64.905476  
4002.000000	64.918518  
4001.000000	64.938211  
4000.000000	64.964365  
3999.000000	64.995503  
3998.000000	65.029287  
3997.000000	65.063071  
3996.000000	65.094995  
3995.000000	65.123629  
3994.000000	65.148425  
3993.000000	65.168857  
3992.000000	65.184569  
3991.000000	65.194511  
3990.000000	65.197253  
3989.000000	65.191125  
3988.000000	65.174961  
3987.000000	65.149044  
3986.000000	65.115761  
3985.000000	65.079569  
3984.000000	65.046501  
3983.000000	65.023112  
3982.000000	65.014863  
3981.000000	65.024709  
3980.000000	65.051937  
3979.000000	65.092086  
3978.000000	65.137767  
3977.000000	65.180540  
3976.000000	65.212559  
3975.000000	65.228295  
3974.000000	65.225625  
3973.000000	65.205907  
3972.000000	65.173363  
3971.000000	65.133357  
3970.000000	65.091037  
3969.000000	65.050339  
3968.000000	65.013289  
3967.000000	64.980196  
3966.000000	64.950394  
3965.000000	64.923405  
3964.000000	64.899563  
3963.000000	64.880323  
3962.000000	64.868044  
3961.000000	64.864778  
3960.000000	64.871883  
3959.000000	64.888858  
3958.000000	64.913630  
3957.000000	64.942526  
3956.000000	64.971613  
3955.000000	64.997172  
3954.000000	65.016603  
3953.000000	65.028834  
3952.000000	65.034055  
3951.000000	65.033555  
3950.000000	65.029048  
3949.000000	65.022039  
3948.000000	65.013456  
3947.000000	65.003490  
3946.000000	64.991927  
3945.000000	64.978384  
3944.000000	64.962601  
3943.000000	64.944791  
3942.000000	64.925885  
3941.000000	64.907836  
3940.000000	64.892864  
3939.000000	64.883613  
3938.000000	64.882111  
3937.000000	64.890146  
3936.000000	64.908790  
3935.000000	64.937973  
3934.000000	64.976096  
3933.000000	65.020632  
3932.000000	65.068221  
3931.000000	65.115189  
3930.000000	65.157794  
3929.000000	65.192914  
3928.000000	65.218305  
3927.000000	65.232586  
3926.000000	65.235352  
3925.000000	65.226984  
3924.000000	65.208292  
3923.000000	65.180730  
3922.000000	65.145874  
3921.000000	65.105772  
3920.000000	65.062355  
3919.000000	65.017890  
3918.000000	64.974546  
3917.000000	64.934444  
3916.000000	64.899706  
3915.000000	64.871835  
3914.000000	64.852595  
3913.000000	64.843034  
3912.000000	64.844608  
3911.000000	64.858531  
3910.000000	64.886069  
3909.000000	64.927673  
3908.000000	64.982676  
3907.000000	65.048527  
3906.000000	65.120697  
3905.000000	65.192842  
3904.000000	65.257811  
3903.000000	65.308737  
3902.000000	65.340542  
3901.000000	65.350866  
3900.000000	65.340590  
3899.000000	65.313982  
3898.000000	65.277409  
3897.000000	65.238070  
3896.000000	65.202736  
3895.000000	65.176057  
3894.000000	65.160179  
3893.000000	65.154314  
3892.000000	65.155816  
3891.000000	65.160846  
3890.000000	65.165805  
3889.000000	65.168428  
3888.000000	65.167498  
3887.000000	65.163803  
3886.000000	65.159296  
3885.000000	65.156984  
3884.000000	65.159177  
3883.000000	65.167617  
3882.000000	65.182638  
3881.000000	65.203261  
3880.000000	65.227532  
3879.000000	65.252661  
3878.000000	65.275549  
3877.000000	65.293669  
3876.000000	65.305423  
3875.000000	65.310144  
3874.000000	65.307998  
3873.000000	65.300107  
3872.000000	65.287828  
3871.000000	65.272212  
3870.000000	65.253710  
3869.000000	65.231633  
3868.000000	65.205073  
3867.000000	65.173053  
3866.000000	65.136098  
3865.000000	65.096354  
3864.000000	65.058851  
3863.000000	65.030407  
3862.000000	65.018606  
3861.000000	65.030074  
3860.000000	65.068221  
3859.000000	65.131878  
3858.000000	65.214467  
3857.000000	65.304851  
3856.000000	65.389060  
3855.000000	65.453267  
3854.000000	65.486741  
3853.000000	65.484261  
3852.000000	65.447044  
3851.000000	65.382695  
3850.000000	65.302705  
3849.000000	65.219926  
3848.000000	65.145611  
3847.000000	65.087366  
3846.000000	65.048742  
3845.000000	65.029454  
3844.000000	65.026640  
3843.000000	65.036249  
3842.000000	65.054011  
3841.000000	65.076637  
3840.000000	65.101170  
3839.000000	65.125632  
3838.000000	65.147829  
3837.000000	65.165901  
3836.000000	65.177702  
3835.000000	65.181612  
3834.000000	65.176296  
3833.000000	65.161705  
3832.000000	65.139245  
3831.000000	65.111780  
3830.000000	65.083408  
3829.000000	65.058565  
3828.000000	65.041470  
3827.000000	65.035080  
3826.000000	65.040707  
3825.000000	65.057277  
3824.000000	65.081572  
3823.000000	65.108752  
3822.000000	65.133166  
3821.000000	65.149188  
3820.000000	65.152645  
3819.000000	65.141463  
3818.000000	65.116429  
3817.000000	65.081143  
3816.000000	65.041542  
3815.000000	65.004110  
3814.000000	64.974880  
3813.000000	64.958047  
3812.000000	64.955234  
3811.000000	64.965343  
3810.000000	64.985108  
3809.000000	65.009665  
3808.000000	65.034008  
3807.000000	65.053939  
3806.000000	65.067028  
3805.000000	65.072488  
3804.000000	65.071487  
3803.000000	65.066266  
3802.000000	65.059900  
3801.000000	65.054941  
3800.000000	65.053129  
3799.000000	65.055203  
3798.000000	65.060830  
3797.000000	65.069031  
3796.000000	65.078616  
3795.000000	65.088462  
3794.000000	65.097975  
3793.000000	65.107083  
3792.000000	65.115928  
3791.000000	65.124607  
3790.000000	65.132975  
3789.000000	65.140223  
3788.000000	65.145277  
3787.000000	65.146803  
3786.000000	65.143752  
3785.000000	65.135669  
3784.000000	65.122842  
3783.000000	65.106225  
3782.000000	65.087819  
3781.000000	65.069746  
3780.000000	65.053844  
3779.000000	65.041112  
3778.000000	65.031838  
3777.000000	65.025186  
3776.000000	65.019488  
3775.000000	65.012884  
3774.000000	65.003800  
3773.000000	64.991426  
3772.000000	64.976143  
3771.000000	64.959430  
3770.000000	64.943575  
3769.000000	64.931130  
3768.000000	64.924311  
3767.000000	64.924168  
3766.000000	64.930367  
3765.000000	64.941287  
3764.000000	64.954280  
3763.000000	64.966058  
3762.000000	64.973998  
3761.000000	64.976668  
3760.000000	64.974594  
3759.000000	64.969682  
3758.000000	64.965343  
3757.000000	64.965081  
3756.000000	64.972090  
3755.000000	64.988017  
3754.000000	65.013170  
3753.000000	65.046405  
3752.000000	65.085601  
3751.000000	65.128302  
3750.000000	65.172004  
3749.000000	65.214610  
3748.000000	65.254330  
3747.000000	65.289878  
3746.000000	65.320253  
3745.000000	65.344452  
3744.000000	65.361785  
3743.000000	65.371823  
3742.000000	65.374517  
3741.000000	65.370345  
3740.000000	65.360164  
3739.000000	65.345025  
3738.000000	65.325903  
3737.000000	65.303492  
3736.000000	65.278077  
3735.000000	65.249633  
3734.000000	65.218400  
3733.000000	65.185117  
3732.000000	65.151119  
3731.000000	65.118360  
3730.000000	65.089130  
3729.000000	65.065455  
3728.000000	65.048575  
3727.000000	65.038657  
3726.000000	65.034651  
3725.000000	65.034890  
3724.000000	65.037322  
3723.000000	65.039992  
3722.000000	65.041518  
3721.000000	65.041351  
3720.000000	65.039515  
3719.000000	65.036582  
3718.000000	65.033245  
3717.000000	65.029811  
3716.000000	65.025877  
3715.000000	65.020513  
3714.000000	65.012288  
3713.000000	64.999699  
3712.000000	64.981698  
3711.000000	64.958214  
3710.000000	64.930295  
3709.000000	64.900040  
3708.000000	64.870476  
3707.000000	64.844703  
3706.000000	64.825367  
3705.000000	64.814472  
3704.000000	64.812970  
3703.000000	64.820408  
3702.000000	64.835548  
3701.000000	64.856553  
3700.000000	64.881801  
3699.000000	64.909601  
3698.000000	64.938926  
3697.000000	64.969110  
3696.000000	64.999651  
3695.000000	65.029931  
3694.000000	65.059089  
3693.000000	65.085721  
3692.000000	65.108013  
3691.000000	65.124011  
3690.000000	65.131831  
3689.000000	65.130186  
3688.000000	65.118670  
3687.000000	65.098071  
3686.000000	65.070366  
3685.000000	65.038633  
3684.000000	65.006852  
3683.000000	64.979386  
3682.000000	64.960598  
3681.000000	64.954066  
3680.000000	64.962148  
3679.000000	64.985299  
3678.000000	65.022206  
3677.000000	65.069413  
3676.000000	65.121889  
3675.000000	65.173578  
3674.000000	65.218305  
3673.000000	65.250635  
3672.000000	65.266752  
3671.000000	65.264844  
3670.000000	65.245366  
3669.000000	65.210938  
3668.000000	65.166187  
3667.000000	65.116405  
3666.000000	65.067052  
3665.000000	65.022730  
3664.000000	64.986705  
3663.000000	64.960598  
3662.000000	64.944648  
3661.000000	64.938235  
3660.000000	64.940285  
3659.000000	64.949870  
3658.000000	64.966201  
3657.000000	64.988708  
3656.000000	65.016841  
3655.000000	65.049600  
3654.000000	65.085268  
3653.000000	65.121340  
3652.000000	65.154814  
3651.000000	65.182876  
3650.000000	65.203189  
3649.000000	65.214681  
3648.000000	65.217304  
3647.000000	65.212368  
3646.000000	65.201735  
3645.000000	65.187263  
3644.000000	65.170431  
3643.000000	65.152096  
3642.000000	65.132975  
3641.000000	65.114021  
3640.000000	65.096831  
3639.000000	65.083813  
3638.000000	65.077781  
3637.000000	65.081405  
3636.000000	65.096116  
3635.000000	65.121531  
3634.000000	65.154981  
3633.000000	65.191984  
3632.000000	65.226984  
3631.000000	65.254521  
3630.000000	65.270590  
3629.000000	65.273666  
3628.000000	65.264654  
3627.000000	65.246677  
3626.000000	65.224075  
3625.000000	65.201377  
3624.000000	65.182018  
3623.000000	65.168094  
3622.000000	65.160298  
3621.000000	65.158367  
3620.000000	65.161848  
3619.000000	65.170121  
3618.000000	65.183043  
3617.000000	65.200233  
3616.000000	65.221047  
3615.000000	65.243983  
3614.000000	65.266489  
3613.000000	65.285205  
3612.000000	65.296673  
3611.000000	65.297675  
3610.000000	65.286111  
3609.000000	65.261650  
3608.000000	65.225958  
3607.000000	65.182161  
3606.000000	65.134310  
3605.000000	65.086388  
3604.000000	65.041804  
3603.000000	65.002775  
3602.000000	64.970302  
3601.000000	64.944267  
3600.000000	64.923977  
3599.000000	64.908361  
3598.000000	64.896941  
3597.000000	64.889287  
3596.000000	64.885640  
3595.000000	64.886355  
3594.000000	64.891910  
3593.000000	64.902424  
3592.000000	64.917469  
3591.000000	64.935612  
3590.000000	64.955019  
3589.000000	64.973282  
3588.000000	64.988350  
3587.000000	64.998912  
3586.000000	65.004777  
3585.000000	65.006780  
3584.000000	65.006852  
3583.000000	65.007352  
3582.000000	65.010643  
3581.000000	65.018200  
3580.000000	65.030455  
3579.000000	65.046811  
3578.000000	65.065860  
3577.000000	65.085768  
3576.000000	65.104985  
3575.000000	65.122437  
3574.000000	65.138101  
3573.000000	65.152716  
3572.000000	65.167117  
3571.000000	65.181922  
3570.000000	65.197348  
3569.000000	65.212750  
3568.000000	65.226793  
3567.000000	65.237569  
3566.000000	65.243697  
3565.000000	65.243744  
3564.000000	65.237236  
3563.000000	65.224146  
3562.000000	65.205335  
3561.000000	65.182065  
3560.000000	65.155839  
3559.000000	65.128374  
3558.000000	65.101146  
3557.000000	65.075445  
3556.000000	65.052461  
3555.000000	65.032982  
3554.000000	65.017437  
3553.000000	65.005779  
3552.000000	64.997577  
3551.000000	64.991903  
3550.000000	64.987707  
3549.000000	64.983868  
3548.000000	64.979624  
3547.000000	64.974570  
3546.000000	64.969086  
3545.000000	64.963936  
3544.000000	64.960551  
3543.000000	64.960241  
3542.000000	64.964294  
3541.000000	64.973640  
3540.000000	64.988875  
3539.000000	65.009951  
3538.000000	65.036129  
3537.000000	65.066218  
3536.000000	65.098285  
3535.000000	65.130138  
3534.000000	65.159058  
3533.000000	65.182590  
3532.000000	65.198493  
3531.000000	65.205430  
3530.000000	65.202736  
3529.000000	65.190815  
3528.000000	65.170955  
3527.000000	65.145516  
3526.000000	65.117406  
3525.000000	65.089654  
3524.000000	65.065169  
3523.000000	65.046286  
3522.000000	65.034127  
3521.000000	65.028738  
3520.000000	65.029048  
3519.000000	65.033435  
3518.000000	65.039992  
3517.000000	65.047216  
3516.000000	65.053939  
3515.000000	65.059876  
3514.000000	65.065097  
3513.000000	65.069985  
3512.000000	65.074539  
3511.000000	65.078639  
3510.000000	65.081620  
3509.000000	65.082836  
3508.000000	65.081572  
3507.000000	65.077733  
3506.000000	65.072154  
3505.000000	65.066337  
3504.000000	65.062069  
3503.000000	65.060806  
3502.000000	65.063428  
3501.000000	65.069746  
3500.000000	65.078568  
3499.000000	65.088224  
3498.000000	65.097022  
3497.000000	65.103936  
3496.000000	65.109014  
3495.000000	65.113210  
3494.000000	65.117859  
3493.000000	65.124201  
3492.000000	65.132713  
3491.000000	65.142822  
3490.000000	65.153050  
3489.000000	65.161442  
3488.000000	65.165925  
3487.000000	65.165495  
3486.000000	65.160179  
3485.000000	65.151214  
3484.000000	65.140318  
3483.000000	65.129232  
3482.000000	65.118837  
3481.000000	65.108847  
3480.000000	65.098261  
3479.000000	65.085506  
3478.000000	65.069890  
3477.000000	65.051960  
3476.000000	65.034127  
3475.000000	65.020322  
3474.000000	65.015244  
3473.000000	65.023040  
3472.000000	65.046095  
3471.000000	65.084147  
3470.000000	65.133953  
3469.000000	65.189599  
3468.000000	65.243411  
3467.000000	65.287446  
3466.000000	65.315151  
3465.000000	65.322446  
3464.000000	65.308403  
3463.000000	65.275216  
3462.000000	65.227723  
3461.000000	65.172100  
3460.000000	65.114855  
3459.000000	65.061593  
3458.000000	65.016746  
3457.000000	64.982748  
3456.000000	64.960503  
3455.000000	64.949393  
3454.000000	64.948010  
3453.000000	64.954471  
3452.000000	64.966821  
3451.000000	64.983177  
3450.000000	65.001559  
3449.000000	65.020155  
3448.000000	65.037155  
3447.000000	65.050864  
3446.000000	65.059757  
3445.000000	65.062999  
3444.000000	65.060591  
3443.000000	65.053391  
3442.000000	65.043091  
3441.000000	65.032029  
3440.000000	65.022826  
3439.000000	65.017628  
3438.000000	65.017771  
3437.000000	65.023946  
3436.000000	65.035963  
3435.000000	65.052604  
3434.000000	65.072298  
3433.000000	65.093326  
3432.000000	65.114521  
3431.000000	65.134978  
3430.000000	65.154385  
3429.000000	65.172433  
3428.000000	65.188765  
3427.000000	65.203094  
3426.000000	65.214729  
3425.000000	65.222454  
3424.000000	65.224885  
3423.000000	65.221142  
3422.000000	65.210723  
3421.000000	65.193963  
3420.000000	65.172100  
3419.000000	65.147113  
3418.000000	65.121269  
3417.000000	65.096855  
3416.000000	65.075588  
3415.000000	65.058183  
3414.000000	65.044307  
3413.000000	65.032458  
3412.000000	65.020728  
3411.000000	65.007066  
3410.000000	64.989852  
3409.000000	64.968514  
3408.000000	64.943504  
3407.000000	64.916610  
3406.000000	64.889979  
3405.000000	64.866304  
3404.000000	64.847636  
3403.000000	64.835619  
3402.000000	64.830875  
3401.000000	64.833402  
3400.000000	64.842438  
3399.000000	64.856839  
3398.000000	64.875078  
3397.000000	64.895629  
3396.000000	64.916872  
3395.000000	64.937305  
3394.000000	64.955401  
3393.000000	64.969921  
3392.000000	64.979863  
3391.000000	64.985013  
3390.000000	64.985823  
3389.000000	64.983797  
3388.000000	64.980840  
3387.000000	64.979243  
3386.000000	64.980888  
3385.000000	64.987015  
3384.000000	64.997816  
3383.000000	65.012598  
3382.000000	65.029549  
3381.000000	65.046477  
3380.000000	65.061068  
3379.000000	65.071272  
3378.000000	65.075945  
3377.000000	65.075063  
3376.000000	65.069842  
3375.000000	65.062355  
3374.000000	65.055680  
3373.000000	65.053272  
3372.000000	65.058183  
3371.000000	65.072274  
3370.000000	65.095639  
3369.000000	65.126466  
3368.000000	65.160822  
3367.000000	65.193486  
3366.000000	65.218758  
3365.000000	65.231466  
3364.000000	65.228533  
3363.000000	65.209674  
3362.000000	65.177416  
3361.000000	65.136408  
3360.000000	65.092229  
3359.000000	65.050053  
3358.000000	65.013122  
3357.000000	64.982581  
3356.000000	64.957118  
3355.000000	64.934396  
3354.000000	64.911866  
3353.000000	64.888334  
3352.000000	64.864420  
3351.000000	64.842987  
3350.000000	64.827775  
3349.000000	64.823150  
3348.000000	64.832043  
3347.000000	64.855480  
3346.000000	64.891386  
3345.000000	64.935302  
3344.000000	64.981007  
3343.000000	65.022039  
3342.000000	65.052866  
3341.000000	65.070128  
3340.000000	65.072846  
3339.000000	65.062475  
3338.000000	65.042161  
3337.000000	65.015697  
3336.000000	64.986586  
3335.000000	64.957547  
3334.000000	64.930105  
3333.000000	64.904785  
3332.000000	64.881587  
3331.000000	64.860439  
3330.000000	64.841771  
3329.000000	64.826393  
3328.000000	64.815425  
3327.000000	64.809846  
3326.000000	64.810228  
3325.000000	64.816093  
3324.000000	64.825892  
3323.000000	64.837288  
3322.000000	64.847660  
3321.000000	64.854645  
3320.000000	64.856791  
3319.000000	64.853858  
3318.000000	64.846730  
3317.000000	64.837265  
3316.000000	64.827895  
3315.000000	64.820837  
3314.000000	64.817929  
3313.000000	64.820218  
3312.000000	64.827966  
3311.000000	64.840579  
3310.000000	64.857077  
3309.000000	64.876198  
3308.000000	64.896559  
3307.000000	64.916872  
3306.000000	64.935922  
3305.000000	64.952731  
3304.000000	64.966440  
3303.000000	64.976572  
3302.000000	64.983010  
3301.000000	64.985775  
3300.000000	64.985489  
3299.000000	64.982748  
3298.000000	64.978289  
3297.000000	64.972639  
3296.000000	64.966154  
3295.000000	64.958977  
3294.000000	64.950919  
3293.000000	64.941906  
3292.000000	64.932107  
3291.000000	64.922094  
3290.000000	64.912819  
3289.000000	64.905714  
3288.000000	64.902186  
3287.000000	64.903688  
3286.000000	64.911079  
3285.000000	64.924502  
3284.000000	64.943122  
3283.000000	64.965009  
3282.000000	64.987373  
3281.000000	65.007019  
3280.000000	65.020799  
3279.000000	65.026283  
3278.000000	65.022325  
3277.000000	65.009117  
3276.000000	64.988255  
3275.000000	64.962506  
3274.000000	64.935398  
3273.000000	64.910411  
3272.000000	64.890933  
3271.000000	64.879322  
3270.000000	64.877223  
3269.000000	64.885282  
3268.000000	64.903092  
3267.000000	64.929556  
3266.000000	64.962601  
3265.000000	64.999723  
3264.000000	65.037965  
3263.000000	65.074181  
3262.000000	65.105438  
3261.000000	65.129399  
3260.000000	65.144681  
3259.000000	65.151262  
3258.000000	65.150284  
3257.000000	65.144085  
3256.000000	65.135192  
3255.000000	65.125823  
3254.000000	65.117406  
3253.000000	65.110397  
3252.000000	65.104198  
3251.000000	65.097713  
3250.000000	65.089726  
3249.000000	65.079617  
3248.000000	65.067601  
3247.000000	65.054750  
3246.000000	65.042829  
3245.000000	65.033841  
3244.000000	65.029501  
3243.000000	65.030789  
3242.000000	65.037798  
3241.000000	65.049505  
3240.000000	65.063929  
3239.000000	65.078449  
3238.000000	65.090274  
3237.000000	65.096712  
3236.000000	65.095591  
3235.000000	65.085649  
3234.000000	65.066647  
3233.000000	65.040063  
3232.000000	65.008759  
3231.000000	64.976859  
3230.000000	64.948964  
3229.000000	64.929437  
3228.000000	64.921498  
3227.000000	64.926505  
3226.000000	64.943504  
3225.000000	64.969635  
3224.000000	65.000534  
3223.000000	65.031433  
3222.000000	65.058135  
3221.000000	65.077495  
3220.000000	65.088319  
3219.000000	65.090942  
3218.000000	65.086984  
3217.000000	65.078687  
3216.000000	65.068268  
3215.000000	65.057516  
3214.000000	65.047478  
3213.000000	65.038919  
3212.000000	65.032076  
3211.000000	65.027523  
3210.000000	65.025639  
3209.000000	65.026903  
3208.000000	65.031576  
3207.000000	65.039348  
3206.000000	65.049576  
3205.000000	65.061140  
3204.000000	65.072894  
3203.000000	65.083742  
3202.000000	65.092992  
3201.000000	65.100455  
3200.000000	65.106344  
3199.000000	65.111255  
3198.000000	65.115499  
3197.000000	65.118956  
3196.000000	65.120959  
3195.000000	65.120482  
3194.000000	65.116453  
3193.000000	65.108013  
3192.000000	65.095043  
3191.000000	65.078139  
3190.000000	65.058898  
3189.000000	65.039467  
3188.000000	65.022015  
3187.000000	65.008354  
3186.000000	64.999580  
3185.000000	64.995551  
3184.000000	64.995384  
3183.000000	64.997196  
3182.000000	64.998602  
3181.000000	64.997291  
3180.000000	64.991497  
3179.000000	64.980459  
3178.000000	64.964556  
3177.000000	64.945411  
3176.000000	64.925527  
3175.000000	64.908003  
3174.000000	64.895653  
3173.000000	64.890766  
3172.000000	64.894342  
3171.000000	64.906120  
3170.000000	64.924597  
3169.000000	64.947223  
3168.000000	64.970684  
3167.000000	64.991879  
3166.000000	65.008425  
3165.000000	65.018677  
3164.000000	65.022492  
3163.000000	65.021061  
3162.000000	65.016555  
3161.000000	65.011811  
3160.000000	65.009617  
3159.000000	65.012311  
3158.000000	65.021252  
3157.000000	65.036702  
3156.000000	65.057682  
3155.000000	65.082287  
3154.000000	65.108036  
3153.000000	65.132546  
3152.000000	65.153789  
3151.000000	65.170454  
3150.000000	65.181946  
3149.000000	65.188479  
3148.000000	65.190553  
3147.000000	65.188479  
3146.000000	65.182423  
3145.000000	65.172314  
3144.000000	65.157723  
3143.000000	65.138244  
3142.000000	65.114045  
3141.000000	65.085911  
3140.000000	65.055298  
3139.000000	65.024232  
3138.000000	64.994907  
3137.000000	64.969348  
3136.000000	64.949202  
3135.000000	64.935207  
3134.000000	64.927220  
3133.000000	64.924263  
3132.000000	64.924883  
3131.000000	64.927458  
3130.000000	64.930510  
3129.000000	64.933204  
3128.000000	64.935159  
3127.000000	64.936876  
3126.000000	64.938998  
3125.000000	64.942622  
3124.000000	64.948654  
3123.000000	64.957761  
3122.000000	64.970064  
3121.000000	64.985299  
3120.000000	65.002918  
3119.000000	65.022110  
3118.000000	65.041947  
3117.000000	65.061688  
3116.000000	65.080571  
3115.000000	65.097951  
3114.000000	65.113139  
3113.000000	65.125226  
3112.000000	65.133142  
3111.000000	65.135812  
3110.000000	65.132641  
3109.000000	65.123677  
3108.000000	65.110039  
3107.000000	65.093994  
3106.000000	65.078449  
3105.000000	65.066361  
3104.000000	65.060186  
3103.000000	65.061450  
3102.000000	65.070128  
3101.000000	65.084886  
3100.000000	65.103197  
3099.000000	65.122103  
3098.000000	65.138697  
3097.000000	65.150761  
3096.000000	65.156888  
3095.000000	65.156793  
3094.000000	65.150880  
3093.000000	65.140080  
3092.000000	65.125465  
3091.000000	65.108036  
3090.000000	65.088725  
3089.000000	65.068221  
3088.000000	65.047287  
3087.000000	65.026521  
3086.000000	65.006065  
3085.000000	64.986014  
3084.000000	64.965939  
3083.000000	64.945769  
3082.000000	64.925456  
3081.000000	64.905953  
3080.000000	64.888548  
3079.000000	64.875435  
3078.000000	64.868640  
3077.000000	64.869785  
3076.000000	64.879393  
3075.000000	64.896726  
3074.000000	64.919614  
3073.000000	64.944863  
3072.000000	64.968991  
3071.000000	64.988803  
3070.000000	65.002250  
3069.000000	65.008759  
3068.000000	65.009188  
3067.000000	65.005612  
3066.000000	65.000963  
3065.000000	64.997982  
3064.000000	64.998912  
3063.000000	65.005016  
3062.000000	65.016412  
3061.000000	65.032577  
3060.000000	65.052318  
3059.000000	65.074086  
3058.000000	65.096259  
3057.000000	65.117549  
3056.000000	65.136814  
3055.000000	65.153336  
3054.000000	65.166497  
3053.000000	65.176057  
3052.000000	65.181708  
3051.000000	65.183186  
3050.000000	65.180039  
3049.000000	65.172004  
3048.000000	65.159034  
3047.000000	65.141510  
3046.000000	65.120315  
3045.000000	65.096664  
3044.000000	65.071797  
3043.000000	65.046834  
3042.000000	65.022420  
3041.000000	64.998674  
3040.000000	64.975500  
3039.000000	64.952754  
3038.000000	64.930653  
3037.000000	64.909768  
3036.000000	64.891195  
3035.000000	64.876413  
3034.000000	64.866805  
3033.000000	64.863300  
3032.000000	64.865922  
3031.000000	64.873838  
3030.000000	64.885282  
3029.000000	64.898228  
3028.000000	64.910817  
3027.000000	64.921808  
3026.000000	64.930820  
3025.000000	64.938020  
3024.000000	64.944100  
3023.000000	64.949560  
3022.000000	64.954400  
3021.000000	64.958167  
3020.000000	64.960098  
3019.000000	64.959359  
3018.000000	64.955592  
3017.000000	64.949059  
3016.000000	64.940619  
3015.000000	64.931702  
3014.000000	64.924073  
3013.000000	64.919281  
3012.000000	64.918327  
3011.000000	64.921712  
3010.000000	64.929413  
3009.000000	64.940714  
3008.000000	64.954519  
3007.000000	64.969635  
3006.000000	64.984965  
3005.000000	64.999485  
3004.000000	65.012454  
3003.000000	65.023064  
3002.000000	65.030980  
3001.000000	65.036106  
3000.000000	65.038585  
2999.000000	65.038871  
2998.000000	65.037417  
2997.000000	65.034794  
2996.000000	65.031290  
2995.000000	65.027022  
2994.000000	65.021991  
2993.000000	65.016317  
2992.000000	65.010237  
2991.000000	65.004467  
2990.000000	65.000081  
2989.000000	64.998197  
2988.000000	65.000224  
2987.000000	65.007090  
2986.000000	65.019416  
2985.000000	65.037131  
2984.000000	65.059566  
2983.000000	65.085434  
2982.000000	65.113258  
2981.000000	65.141296  
2980.000000	65.167903  
2979.000000	65.191435  
2978.000000	65.210318  
2977.000000	65.223121  
2976.000000	65.228557  
2975.000000	65.225648  
2974.000000	65.214014  
2973.000000	65.193963  
2972.000000	65.166783  
2971.000000	65.134334  
2970.000000	65.099191  
2969.000000	65.064311  
2968.000000	65.032458  
2967.000000	65.006089  
2966.000000	64.987087  
2965.000000	64.976572  
2964.000000	64.975023  
2963.000000	64.982247  
2962.000000	64.997315  
2961.000000	65.018653  
2960.000000	65.044188  
2959.000000	65.071272  
2958.000000	65.096926  
2957.000000	65.118122  
2956.000000	65.132188  
2955.000000	65.137362  
2954.000000	65.133070  
2953.000000	65.120172  
2952.000000	65.100646  
2951.000000	65.077638  
2950.000000	65.054392  
2949.000000	65.033936  
2948.000000	65.018081  
2947.000000	65.007495  
2946.000000	65.001273  
2945.000000	64.997649  
2944.000000	64.994382  
2943.000000	64.989376  
2942.000000	64.981460  
2941.000000	64.970469  
2940.000000	64.957499  
2939.000000	64.944124  
2938.000000	64.932489  
2937.000000	64.924335  
2936.000000	64.921164  
2935.000000	64.923429  
2934.000000	64.931058  
2933.000000	64.943289  
2932.000000	64.959001  
2931.000000	64.976716  
2930.000000	64.994835  
2929.000000	65.011596  
2928.000000	65.025305  
2927.000000	65.034294  
2926.000000	65.037155  
2925.000000	65.033149  
2924.000000	65.022325  
2923.000000	65.005779  
2922.000000	64.985680  
2921.000000	64.964818  
2920.000000	64.946103  
2919.000000	64.932107  
2918.000000	64.924645  
2917.000000	64.924550  
2916.000000	64.931392  
2915.000000	64.943957  
2914.000000	64.960479  
2913.000000	64.979243  
2912.000000	64.998555  
2911.000000	65.017294  
2910.000000	65.034627  
2909.000000	65.050244  
2908.000000	65.064024  
2907.000000	65.076041  
2906.000000	65.086507  
2905.000000	65.095496  
2904.000000	65.103197  
2903.000000	65.109634  
2902.000000	65.114831  
2901.000000	65.118980  
2900.000000	65.122342  
2899.000000	65.124988  
2898.000000	65.126895  
2897.000000	65.128207  
2896.000000	65.128922  
2895.000000	65.129184  
2894.000000	65.129065  
2893.000000	65.128684  
2892.000000	65.128350  
2891.000000	65.128374  
2890.000000	65.129137  
2889.000000	65.130996  
2888.000000	65.134286  
2887.000000	65.139317  
2886.000000	65.146327  
2885.000000	65.155410  
2884.000000	65.166378  
2883.000000	65.178847  
2882.000000	65.192127  
2881.000000	65.205383  
2880.000000	65.217471  
2879.000000	65.227150  
2878.000000	65.233087  
2877.000000	65.234065  
2876.000000	65.229129  
2875.000000	65.217614  
2874.000000	65.199422  
2873.000000	65.175080  
2872.000000	65.145730  
2871.000000	65.113115  
2870.000000	65.079331  
2869.000000	65.046811  
2868.000000	65.018010  
2867.000000	64.994955  
2866.000000	64.979124  
2865.000000	64.971137  
2864.000000	64.970660  
2863.000000	64.976596  
2862.000000	64.987063  
2861.000000	65.000009  
2860.000000	65.013146  
2859.000000	65.024709  
2858.000000	65.033411  
2857.000000	65.038967  
2856.000000	65.041685  
2855.000000	65.042710  
2854.000000	65.043663  
2853.000000	65.046167  
2852.000000	65.051484  
2851.000000	65.060091  
2850.000000	65.071415  
2849.000000	65.083861  
2848.000000	65.095210  
2847.000000	65.102910  
2846.000000	65.104675  
2845.000000	65.099287  
2844.000000	65.086865  
2843.000000	65.068745  
2842.000000	65.047478  
2841.000000	65.026235  
2840.000000	65.008211  
2839.000000	64.995741  
2838.000000	64.990091  
2837.000000	64.991211  
2836.000000	64.998030  
2835.000000	65.009021  
2834.000000	65.022563  
2833.000000	65.037488  
2832.000000	65.052938  
2831.000000	65.068364  
2830.000000	65.083289  
2829.000000	65.096807  
2828.000000	65.107941  
2827.000000	65.115571  
2826.000000	65.118837  
2825.000000	65.117359  
2824.000000	65.111470  
2823.000000	65.102243  
2822.000000	65.091228  
2821.000000	65.080332  
2820.000000	65.071249  
2819.000000	65.065145  
2818.000000	65.062546  
2817.000000	65.063142  
2816.000000	65.065932  
2815.000000	65.069556  
2814.000000	65.072631  
2813.000000	65.073871  
2812.000000	65.072464  
2811.000000	65.068340  
2810.000000	65.061831  
2809.000000	65.054059  
2808.000000	65.046644  
2807.000000	65.041375  
2806.000000	65.040183  
2805.000000	65.044164  
2804.000000	65.053558  
2803.000000	65.067434  
2802.000000	65.083861  
2801.000000	65.100240  
2800.000000	65.114068  
2799.000000	65.123486  
2798.000000	65.127682  
2797.000000	65.127015  
2796.000000	65.122699  
2795.000000	65.116500  
2794.000000	65.110182  
2793.000000	65.105104  
2792.000000	65.101861  
2791.000000	65.100502  
2790.000000	65.100479  
2789.000000	65.101099  
2788.000000	65.101718  
2787.000000	65.101861  
2786.000000	65.101337  
2785.000000	65.100049  
2784.000000	65.097951  
2783.000000	65.094685  
2782.000000	65.089917  
2781.000000	65.083217  
2780.000000	65.074586  
2779.000000	65.064430  
2778.000000	65.053772  
2777.000000	65.044236  
2776.000000	65.037512  
2775.000000	65.035247  
2774.000000	65.038442  
2773.000000	65.047287  
2772.000000	65.060949  
2771.000000	65.077757  
2770.000000	65.095591  
2769.000000	65.112328  
2768.000000	65.126347  
2767.000000	65.136504  
2766.000000	65.142321  
2765.000000	65.143632  
2764.000000	65.140533  
2763.000000	65.133213  
2762.000000	65.121603  
2761.000000	65.105700  
2760.000000	65.085864  
2759.000000	65.063047  
2758.000000	65.039038  
2757.000000	65.016341  
2756.000000	64.998054  
2755.000000	64.987277  
2754.000000	64.986300  
2753.000000	64.996385  
2752.000000	65.017008  
2751.000000	65.046072  
2750.000000	65.079998  
2749.000000	65.114569  
2748.000000	65.145468  
2747.000000	65.169215  
2746.000000	65.183472  
2745.000000	65.187406  
2744.000000	65.181803  
2743.000000	65.168714  
2742.000000	65.151047  
2741.000000	65.132093  
2740.000000	65.114831  
2739.000000	65.101695  
2738.000000	65.094161  
2737.000000	65.092706  
2736.000000	65.096688  
2735.000000	65.104675  
2734.000000	65.114712  
2733.000000	65.124559  
2732.000000	65.132260  
2731.000000	65.136265  
2730.000000	65.135955  
2729.000000	65.131425  
2728.000000	65.123653  
2727.000000	65.113902  
2726.000000	65.104007  
2725.000000	65.095543  
2724.000000	65.089964  
2723.000000	65.088319  
2722.000000	65.090918  
2721.000000	65.097689  
2720.000000	65.107679  
2719.000000	65.119647  
2718.000000	65.131783  
2717.000000	65.142226  
2716.000000	65.149259  
2715.000000	65.151786  
2714.000000	65.149497  
2713.000000	65.142965  
2712.000000	65.133571  
2711.000000	65.123152  
2710.000000	65.113735  
2709.000000	65.106892  
2708.000000	65.103340  
2707.000000	65.102767  
2706.000000	65.104126  
2705.000000	65.105795  
2704.000000	65.106153  
2703.000000	65.104222  
2702.000000	65.099835  
2701.000000	65.093660  
2700.000000	65.086960  
2699.000000	65.081095  
2698.000000	65.077090  
2697.000000	65.075159  
2696.000000	65.074634  
2695.000000	65.074157  
2694.000000	65.072298  
2693.000000	65.067958  
2692.000000	65.060710  
2691.000000	65.051198  
2690.000000	65.040826  
2689.000000	65.031456  
2688.000000	65.025019  
2687.000000	65.022778  
2686.000000	65.025138  
2685.000000	65.031623  
2684.000000	65.041017  
2683.000000	65.051841  
2682.000000	65.062618  
2681.000000	65.072178  
2680.000000	65.079879  
2679.000000	65.085577  
2678.000000	65.089321  
2677.000000	65.091276  
2676.000000	65.091753  
2675.000000	65.090870  
2674.000000	65.089130  
2673.000000	65.087246  
2672.000000	65.086340  
2671.000000	65.087699  
2670.000000	65.092539  
2669.000000	65.101838  
2668.000000	65.115880  
2667.000000	65.133905  
2666.000000	65.154433  
2665.000000	65.175294  
2664.000000	65.194225  
2663.000000	65.209197  
2662.000000	65.218949  
2661.000000	65.223050  
2660.000000	65.221881  
2659.000000	65.216422  
2658.000000	65.207886  
2657.000000	65.197563  
2656.000000	65.186524  
2655.000000	65.175485  
2654.000000	65.165090  
2653.000000	65.155911  
2652.000000	65.148496  
2651.000000	65.143370  
2650.000000	65.140843  
2649.000000	65.140891  
2648.000000	65.142941  
2647.000000	65.145826  
2646.000000	65.148186  
2645.000000	65.148591  
2644.000000	65.145969  
2643.000000	65.139961  
2642.000000	65.131044  
2641.000000	65.120482  
2640.000000	65.109872  
2639.000000	65.101075  
2638.000000	65.095615  
2637.000000	65.094280  
2636.000000	65.096974  
2635.000000	65.102696  
2634.000000	65.109848  
2633.000000	65.116429  
2632.000000	65.120577  
2631.000000	65.120959  
2630.000000	65.117001  
2629.000000	65.108871  
2628.000000	65.097618  
2627.000000	65.084767  
2626.000000	65.072178  
2625.000000	65.061783  
2624.000000	65.055227  
2623.000000	65.053796  
2622.000000	65.058088  
2621.000000	65.067958  
2620.000000	65.082788  
2619.000000	65.101289  
2618.000000	65.121650  
2617.000000	65.142011  
2616.000000	65.160274  
2615.000000	65.174579  
2614.000000	65.183401  
2613.000000	65.185928  
2612.000000	65.182089  
2611.000000	65.172624  
2610.000000	65.159130  
2609.000000	65.143656  
2608.000000	65.128540  
2607.000000	65.116000  
2606.000000	65.107655  
2605.000000	65.104579  
2604.000000	65.107059  
2603.000000	65.114688  
2602.000000	65.126419  
2601.000000	65.140628  
2600.000000	65.155553  
2599.000000	65.169382  
2598.000000	65.180301  
2597.000000	65.186738  
2596.000000	65.187454  
2595.000000	65.182042  
2594.000000	65.170645  
2593.000000	65.154433  
2592.000000	65.135335  
2591.000000	65.115880  
2590.000000	65.098881  
2589.000000	65.086865  
2588.000000	65.081715  
2587.000000	65.084266  
2586.000000	65.094137  
2585.000000	65.109825  
2584.000000	65.129256  
2583.000000	65.149974  
2582.000000	65.169739  
2581.000000	65.186667  
2580.000000	65.199494  
2579.000000	65.207552  
2578.000000	65.210533  
2577.000000	65.208435  
2576.000000	65.201187  
2575.000000	65.188980  
2574.000000	65.172219  
2573.000000	65.151715  
2572.000000	65.128731  
2571.000000	65.105009  
2570.000000	65.082478  
2569.000000	65.063548  
2568.000000	65.050101  
2567.000000	65.043377  
2566.000000	65.043568  
2565.000000	65.049958  
2564.000000	65.060877  
2563.000000	65.073943  
2562.000000	65.086507  
2561.000000	65.096235  
2560.000000	65.101552  
2559.000000	65.101742  
2558.000000	65.097379  
2557.000000	65.089893  
2556.000000	65.081477  
2555.000000	65.074563  
2554.000000	65.071392  
2553.000000	65.073466  
2552.000000	65.081477  
2551.000000	65.094852  
2550.000000	65.112137  
2549.000000	65.130996  
2548.000000	65.148782  
2547.000000	65.162801  
2546.000000	65.170884  
2545.000000	65.171790  
2544.000000	65.165448  
2543.000000	65.152788  
2542.000000	65.135669  
2541.000000	65.116500  
2540.000000	65.097928  
2539.000000	65.082168  
2538.000000	65.070629  
2537.000000	65.063834  
2536.000000	65.061497  
2535.000000	65.062689  
2534.000000	65.066266  
2533.000000	65.071058  
2532.000000	65.076208  
2531.000000	65.081262  
2530.000000	65.086221  
2529.000000	65.091037  
2528.000000	65.095686  
2527.000000	65.099906  
2526.000000	65.103197  
2525.000000	65.104794  
2524.000000	65.104055  
2523.000000	65.100479  
2522.000000	65.094161  
2521.000000	65.085697  
2520.000000	65.076136  
2519.000000	65.066909  
2518.000000	65.059423  
2517.000000	65.054893  
2516.000000	65.054106  
2515.000000	65.057444  
2514.000000	65.064692  
2513.000000	65.075325  
2512.000000	65.088272  
2511.000000	65.102243  
2510.000000	65.116000  
2509.000000	65.128397  
2508.000000	65.138649  
2507.000000	65.146470  
2506.000000	65.152239  
2505.000000	65.156793  
2504.000000	65.161132  
2503.000000	65.166282  
2502.000000	65.172624  
2501.000000	65.179896  
2500.000000	65.187144  
2499.000000	65.192914  
2498.000000	65.195560  
2497.000000	65.193796  
2496.000000	65.187406  
2495.000000	65.177273  
2494.000000	65.165376  
2493.000000	65.154290  
2492.000000	65.146493  
2491.000000	65.143656  
2490.000000	65.146255  
2489.000000	65.153408  
2488.000000	65.163183  
2487.000000	65.172910  
2486.000000	65.180373  
2485.000000	65.184020  
2484.000000	65.183353  
2483.000000	65.178894  
2482.000000	65.171909  
2481.000000	65.164113  
2480.000000	65.157175  
2479.000000	65.152406  
2478.000000	65.150499  
2477.000000	65.151405  
2476.000000	65.154671  
2475.000000	65.159511  
2474.000000	65.164804  
2473.000000	65.169215  
2472.000000	65.171408  
2471.000000	65.170025  
2470.000000	65.164017  
2469.000000	65.152955  
2468.000000	65.137314  
2467.000000	65.118551  
2466.000000	65.099096  
2465.000000	65.081930  
2464.000000	65.069985  
2463.000000	65.065670  
2462.000000	65.070199  
2461.000000	65.083217  
2460.000000	65.102815  
2459.000000	65.126037  
2458.000000	65.149307  
2457.000000	65.169072  
2456.000000	65.182495  
2455.000000	65.187788  
2454.000000	65.184807  
2453.000000	65.174484  
2452.000000	65.158963  
2451.000000	65.140914  
2450.000000	65.123176  
2449.000000	65.108370  
2448.000000	65.098452  
2447.000000	65.094733  
2446.000000	65.097522  
2445.000000	65.106105  
2444.000000	65.118885  
2443.000000	65.133500  
2442.000000	65.147280  
2441.000000	65.157675  
2440.000000	65.162467  
2439.000000	65.160536  
2438.000000	65.151834  
2437.000000	65.137815  
2436.000000	65.120959  
2435.000000	65.104603  
2434.000000	65.092062  
2433.000000	65.086126  
2432.000000	65.088462  
2431.000000	65.099334  
2430.000000	65.117526  
2429.000000	65.140557  
2428.000000	65.165090  
2427.000000	65.187764  
2426.000000	65.205621  
2425.000000	65.216660  
2424.000000	65.220069  
2423.000000	65.216183  
2422.000000	65.206313  
2421.000000	65.192556  
2420.000000	65.177154  
2419.000000	65.162229  
2418.000000	65.149402  
2417.000000	65.139818  
2416.000000	65.133976  
2415.000000	65.131807  
2414.000000	65.132856  
2413.000000	65.136551  
2412.000000	65.142107  
2411.000000	65.148735  
2410.000000	65.155792  
2409.000000	65.162539  
2408.000000	65.168452  
2407.000000	65.173125  
2406.000000	65.176200  
2405.000000	65.177512  
2404.000000	65.177059  
2403.000000	65.175056  
2402.000000	65.171980  
2401.000000	65.168547  
2400.000000	65.165495  
2399.000000	65.163564  
2398.000000	65.163207  
2397.000000	65.164542  
2396.000000	65.167164  
2395.000000	65.170502  
2394.000000	65.173625  
2393.000000	65.175604  
2392.000000	65.175676  
2391.000000	65.173459  
2390.000000	65.169119  
2389.000000	65.163397  
2388.000000	65.157628  
2387.000000	65.153288  
2386.000000	65.151929  
2385.000000	65.154695  
2384.000000	65.161967  
2383.000000	65.173196  
2382.000000	65.187001  
2381.000000	65.201354  
2380.000000	65.214085  
2379.000000	65.223455  
2378.000000	65.228319  
2377.000000	65.228462  
2376.000000	65.224671  
2375.000000	65.218353  
2374.000000	65.211033  
2373.000000	65.204238  
2372.000000	65.198993  
2371.000000	65.195608  
2370.000000	65.193748  
2369.000000	65.192747  
2368.000000	65.191888  
2367.000000	65.190744  
2366.000000	65.189456  
2365.000000	65.188598  
2364.000000	65.189123  
2363.000000	65.192031  
2362.000000	65.198016  
2361.000000	65.207314  
2360.000000	65.219306  
2359.000000	65.232872  
2358.000000	65.246081  
2357.000000	65.256953  
2356.000000	65.263390  
2355.000000	65.263986  
2354.000000	65.257811  
2353.000000	65.245103  
2352.000000	65.226650  
2351.000000	65.204071  
2350.000000	65.179204  
2349.000000	65.153861  
2348.000000	65.129423  
2347.000000	65.106749  
2346.000000	65.086317  
2345.000000	65.068316  
2344.000000	65.053009  
2343.000000	65.040755  
2342.000000	65.032315  
2341.000000	65.028476  
2340.000000	65.030169  
2339.000000	65.037798  
2338.000000	65.051174  
2337.000000	65.069341  
2336.000000	65.090537  
2335.000000	65.112400  
2334.000000	65.132427  
2333.000000	65.148472  
2332.000000	65.159177  
2331.000000	65.164184  
2330.000000	65.164375  
2329.000000	65.161418  
2328.000000	65.157604  
2327.000000	65.155172  
2326.000000	65.155935  
2325.000000	65.160775  
2324.000000	65.169739  
2323.000000	65.181684  
2322.000000	65.194797  
2321.000000	65.206813  
2320.000000	65.215730  
2319.000000	65.220093  
2318.000000	65.219211  
2317.000000	65.213465  
2316.000000	65.204000  
2315.000000	65.192675  
2314.000000	65.181350  
2313.000000	65.171694  
2312.000000	65.164852  
2311.000000	65.161252  
2310.000000	65.160679  
2309.000000	65.162396  
2308.000000	65.165328  
2307.000000	65.168428  
2306.000000	65.170907  
2305.000000	65.172171  
2304.000000	65.172028  
2303.000000	65.170741  
2302.000000	65.168881  
2301.000000	65.167093  
2300.000000	65.166115  
2299.000000	65.166616  
2298.000000	65.169143  
2297.000000	65.173983  
2296.000000	65.180897  
2295.000000	65.189433  
2294.000000	65.198588  
2293.000000	65.207171  
2292.000000	65.213966  
2291.000000	65.217733  
2290.000000	65.217638  
2289.000000	65.213394  
2288.000000	65.205407  
2287.000000	65.194702  
2286.000000	65.182805  
2285.000000	65.171551  
2284.000000	65.162706  
2283.000000	65.157556  
2282.000000	65.156745  
2281.000000	65.160274  
2280.000000	65.167307  
2279.000000	65.176486  
2278.000000	65.186238  
2277.000000	65.194725  
2276.000000	65.200662  
2275.000000	65.203118  
2274.000000	65.201830  
2273.000000	65.196943  
2272.000000	65.189146  
2271.000000	65.179443  
2270.000000	65.168905  
2269.000000	65.158581  
2268.000000	65.149283  
2267.000000	65.141558  
2266.000000	65.135860  
2265.000000	65.132522  
2264.000000	65.131783  
2263.000000	65.133953  
2262.000000	65.139245  
2261.000000	65.147805  
2260.000000	65.159463  
2259.000000	65.173840  
2258.000000	65.190005  
2257.000000	65.206551  
2256.000000	65.221619  
2255.000000	65.233397  
2254.000000	65.240168  
2253.000000	65.240859  
2252.000000	65.235042  
2251.000000	65.223145  
2250.000000	65.206551  
2249.000000	65.187001  
2248.000000	65.166664  
2247.000000	65.147542  
2246.000000	65.131330  
2245.000000	65.119409  
2244.000000	65.112733  
2243.000000	65.111708  
2242.000000	65.116357  
2241.000000	65.126371  
2240.000000	65.140795  
2239.000000	65.158271  
2238.000000	65.177083  
2237.000000	65.195059  
2236.000000	65.210342  
2235.000000	65.221238  
2234.000000	65.226960  
2233.000000	65.227675  
2232.000000	65.224575  
2231.000000	65.219712  
2230.000000	65.215587  
2229.000000	65.214490  
2228.000000	65.218067  
2227.000000	65.226817  
2226.000000	65.240025  
2225.000000	65.255951  
2224.000000	65.272331  
2223.000000	65.286827  
2222.000000	65.297746  
2221.000000	65.304207  
2220.000000	65.306353  
2219.000000	65.304899  
2218.000000	65.300774  
2217.000000	65.294861  
2216.000000	65.287446  
2215.000000	65.278482  
2214.000000	65.267562  
2213.000000	65.254330  
2212.000000	65.238809  
2211.000000	65.221571  
2210.000000	65.203857  
2209.000000	65.187072  
2208.000000	65.172481  
2207.000000	65.161013  
2206.000000	65.152907  
2205.000000	65.147757  
2204.000000	65.144562  
2203.000000	65.142321  
2202.000000	65.140390  
2201.000000	65.138673  
2200.000000	65.137529  
2199.000000	65.137696  
2198.000000	65.139794  
2197.000000	65.144109  
2196.000000	65.150308  
2195.000000	65.157341  
2194.000000	65.163874  
2193.000000	65.168571  
2192.000000	65.170383  
2191.000000	65.168905  
2190.000000	65.164399  
2189.000000	65.157651  
2188.000000	65.149855  
2187.000000	65.142035  
2186.000000	65.135097  
2185.000000	65.129637  
2184.000000	65.126061  
2183.000000	65.124535  
2182.000000	65.125322  
2181.000000	65.128803  
2180.000000	65.135312  
2179.000000	65.144968  
2178.000000	65.157556  
2177.000000	65.172219  
2176.000000	65.187716  
2175.000000	65.202474  
2174.000000	65.214824  
2173.000000	65.223383  
2172.000000	65.227222  
2171.000000	65.225934  
2170.000000	65.219783  
2169.000000	65.209579  
2168.000000	65.196681  
2167.000000	65.182685  
2166.000000	65.169334  
2165.000000	65.158486  
2164.000000	65.151643  
2163.000000	65.149974  
2162.000000	65.154051  
2161.000000	65.163803  
2160.000000	65.178370  
2159.000000	65.196251  
2158.000000	65.215396  
2157.000000	65.233588  
2156.000000	65.248775  
2155.000000	65.259361  
2154.000000	65.264558  
2153.000000	65.264248  
2152.000000	65.258908  
2151.000000	65.249490  
2150.000000	65.237188  
2149.000000	65.223360  
2148.000000	65.209317  
2147.000000	65.196394  
2146.000000	65.185737  
2145.000000	65.178108  
2144.000000	65.173935  
2143.000000	65.173101  
2142.000000	65.175032  
2141.000000	65.178918  
2140.000000	65.183854  
2139.000000	65.189051  
2138.000000	65.194010  
2137.000000	65.198659  
2136.000000	65.203213  
2135.000000	65.208029  
2134.000000	65.213322  
2133.000000	65.218925  
2132.000000	65.224170  
2131.000000	65.227961  
2130.000000	65.229177  
2129.000000	65.226793  
2128.000000	65.220332  
2127.000000	65.210056  
2126.000000	65.197134  
2125.000000	65.183353  
2124.000000	65.170693  
2123.000000	65.161085  
2122.000000	65.155887  
2121.000000	65.155816  
2120.000000	65.160679  
2119.000000	65.169644  
2118.000000	65.181422  
2117.000000	65.194344  
2116.000000	65.206670  
2115.000000	65.217089  
2114.000000	65.224432  
2113.000000	65.228271  
2112.000000	65.228557  
2111.000000	65.225911  
2110.000000	65.221381  
2109.000000	65.216350  
2108.000000	65.212535  
2107.000000	65.211415  
2106.000000	65.214157  
2105.000000	65.221214  
2104.000000	65.232324  
2103.000000	65.246319  
2102.000000	65.261411  
2101.000000	65.275597  
2100.000000	65.286993  
2099.000000	65.294194  
2098.000000	65.296697  
2097.000000	65.294766  
2096.000000	65.289592  
2095.000000	65.282630  
2094.000000	65.275359  
2093.000000	65.268850  
2092.000000	65.263676  
2091.000000	65.259480  
2090.000000	65.255427  
2089.000000	65.250515  
2088.000000	65.243911  
2087.000000	65.235447  
2086.000000	65.225601  
2085.000000	65.215468  
2084.000000	65.206599  
2083.000000	65.200495  
2082.000000	65.198326  
2081.000000	65.200257  
2080.000000	65.205693  
2079.000000	65.213108  
2078.000000	65.220856  
2077.000000	65.227174  
2076.000000	65.231037  
2075.000000	65.232133  
2074.000000	65.231060  
2073.000000	65.229082  
2072.000000	65.227985  
2071.000000	65.229439  
2070.000000	65.234494  
2069.000000	65.243363  
2068.000000	65.255379  
2067.000000	65.269088  
2066.000000	65.282607  
2065.000000	65.294003  
2064.000000	65.301823  
2063.000000	65.305233  
2062.000000	65.304255  
2061.000000	65.299487  
2060.000000	65.291833  
2059.000000	65.282011  
2058.000000	65.270590  
2057.000000	65.257596  
2056.000000	65.242695  
2055.000000	65.225481  
2054.000000	65.205693  
2053.000000	65.183639  
2052.000000	65.160179  
2051.000000	65.136861  
2050.000000	65.115475  
2049.000000	65.098023  
2048.000000	65.086007  
2047.000000	65.080595  
2046.000000	65.081882  
2045.000000	65.089297  
2044.000000	65.101695  
2043.000000	65.117502  
2042.000000	65.135073  
2041.000000	65.152931  
2040.000000	65.169882  
2039.000000	65.185308  
2038.000000	65.198779  
2037.000000	65.210294  
2036.000000	65.220141  
2035.000000	65.228700  
2034.000000	65.236353  
2033.000000	65.243530  
2032.000000	65.250444  
2031.000000	65.257287  
2030.000000	65.263938  
2029.000000	65.270185  
2028.000000	65.275645  
2027.000000	65.279936  
2026.000000	65.282821  
2025.000000	65.283966  
2024.000000	65.283298  
2023.000000	65.280914  
2022.000000	65.277123  
2021.000000	65.272259  
2020.000000	65.266656  
2019.000000	65.260696  
2018.000000	65.254783  
2017.000000	65.249395  
2016.000000	65.245079  
2015.000000	65.242338  
2014.000000	65.241503  
2013.000000	65.242838  
2012.000000	65.246176  
2011.000000	65.250873  
2010.000000	65.255975  
2009.000000	65.260362  
2008.000000	65.262889  
2007.000000	65.262532  
2006.000000	65.258812  
2005.000000	65.251779  
2004.000000	65.242099  
2003.000000	65.230917  
2002.000000	65.219449  
2001.000000	65.208983  
2000.000000	65.200638  
1999.000000	65.195131  
1998.000000	65.192794  
1997.000000	65.193629  
1996.000000	65.197277  
1995.000000	65.203022  
1994.000000	65.209889  
1993.000000	65.216732  
1992.000000	65.222239  
1991.000000	65.225267  
1990.000000	65.224933  
1989.000000	65.220975  
1988.000000	65.213799  
1987.000000	65.204381  
1986.000000	65.194106  
1985.000000	65.184521  
1984.000000	65.177011  
1983.000000	65.172386  
1982.000000	65.170907  
1981.000000	65.172171  
1980.000000	65.175557  
1979.000000	65.180587  
1978.000000	65.187096  
1977.000000	65.195345  
1976.000000	65.206027  
1975.000000	65.219736  
1974.000000	65.236616  
1973.000000	65.255928  
1972.000000	65.275979  
1971.000000	65.294289  
1970.000000	65.307974  
1969.000000	65.314745  
1968.000000	65.312862  
1967.000000	65.302038  
1966.000000	65.283346  
1965.000000	65.259122  
1964.000000	65.232682  
1963.000000	65.207386  
1962.000000	65.186500  
1961.000000	65.172195  
1960.000000	65.165710  
1959.000000	65.166807  
1958.000000	65.174365  
1957.000000	65.186524  
1956.000000	65.201139  
1955.000000	65.216326  
1954.000000	65.230536  
1953.000000	65.242743  
1952.000000	65.252208  
1951.000000	65.258765  
1950.000000	65.262317  
1949.000000	65.262770  
1948.000000	65.260291  
1947.000000	65.255451  
1946.000000	65.248870  
1945.000000	65.241503  
1944.000000	65.234637  
1943.000000	65.229535  
1942.000000	65.227317  
1941.000000	65.228676  
1940.000000	65.233707  
1939.000000	65.241861  
1938.000000	65.252089  
1937.000000	65.262985  
1936.000000	65.273237  
1935.000000	65.281939  
1934.000000	65.288686  
1933.000000	65.293645  
1932.000000	65.297198  
1931.000000	65.300107  
1930.000000	65.302896  
1929.000000	65.305757  
1928.000000	65.308070  
1927.000000	65.308809  
1926.000000	65.306472  
1925.000000	65.299558  
1924.000000	65.286707  
1923.000000	65.267252  
1922.000000	65.241479  
1921.000000	65.210390  
1920.000000	65.176081  
1919.000000	65.141177  
1918.000000	65.108633  
1917.000000	65.081310  
1916.000000	65.061783  
1915.000000	65.051674  
1914.000000	65.051460  
1913.000000	65.060305  
1912.000000	65.076351  
1911.000000	65.096831  
1910.000000	65.118980  
1909.000000	65.140223  
1908.000000	65.158987  
1907.000000	65.174603  
1906.000000	65.187239  
1905.000000	65.197658  
1904.000000	65.206575  
1903.000000	65.214586  
1902.000000	65.221929  
1901.000000	65.228652  
1900.000000	65.234732  
1899.000000	65.240430  
1898.000000	65.246224  
1897.000000	65.252995  
1896.000000	65.261602  
1895.000000	65.272712  
1894.000000	65.286254  
1893.000000	65.301465  
1892.000000	65.316843  
1891.000000	65.330410  
1890.000000	65.340399  
1889.000000	65.345478  
1888.000000	65.345549  
1887.000000	65.341329  
1886.000000	65.334415  
1885.000000	65.326714  
1884.000000	65.320110  
1883.000000	65.316081  
1882.000000	65.315270  
1881.000000	65.317583  
1880.000000	65.322494  
1879.000000	65.329098  
1878.000000	65.336561  
1877.000000	65.343976  
1876.000000	65.350794  
1875.000000	65.356707  
1874.000000	65.361690  
1873.000000	65.365648  
1872.000000	65.368413  
1871.000000	65.369534  
1870.000000	65.368390  
1869.000000	65.364336  
1868.000000	65.356683  
1867.000000	65.344977  
1866.000000	65.329217  
1865.000000	65.310025  
1864.000000	65.288567  
1863.000000	65.266609  
1862.000000	65.246462  
1861.000000	65.230369  
1860.000000	65.220379  
1859.000000	65.217924  
1858.000000	65.223574  
1857.000000	65.236830  
1856.000000	65.256166  
1855.000000	65.279412  
1854.000000	65.303921  
1853.000000	65.327024  
1852.000000	65.346336  
1851.000000	65.359973  
1850.000000	65.366768  
1849.000000	65.366196  
1848.000000	65.358662  
1847.000000	65.345144  
1846.000000	65.327239  
1845.000000	65.306901  
1844.000000	65.286254  
1843.000000	65.267395  
1842.000000	65.252137  
1841.000000	65.241694  
1840.000000	65.236735  
1839.000000	65.237069  
1838.000000	65.242028  
1837.000000	65.250539  
1836.000000	65.261173  
1835.000000	65.272855  
1834.000000	65.284681  
1833.000000	65.296053  
1832.000000	65.306782  
1831.000000	65.316796  
1830.000000	65.326166  
1829.000000	65.334677  
1828.000000	65.341949  
1827.000000	65.347385  
1826.000000	65.350413  
1825.000000	65.350294  
1824.000000	65.346646  
1823.000000	65.339374  
1822.000000	65.328884  
1821.000000	65.316152  
1820.000000	65.302634  
1819.000000	65.289855  
1818.000000	65.279388  
1817.000000	65.272474  
1816.000000	65.269851  
1815.000000	65.271687  
1814.000000	65.277385  
1813.000000	65.285921  
1812.000000	65.295982  
1811.000000	65.306186  
1810.000000	65.315389  
1809.000000	65.322875  
1808.000000	65.328240  
1807.000000	65.331459  
1806.000000	65.332746  
1805.000000	65.332221  
1804.000000	65.330123  
1803.000000	65.326571  
1802.000000	65.321850  
1801.000000	65.316653  
1800.000000	65.311908  
1799.000000	65.308928  
1798.000000	65.308713  
1797.000000	65.312075  
1796.000000	65.318870  
1795.000000	65.328097  
1794.000000	65.337896  
1793.000000	65.345811  
1792.000000	65.349555  
1791.000000	65.347385  
1790.000000	65.338659  
1789.000000	65.324091  
1788.000000	65.305352  
1787.000000	65.284967  
1786.000000	65.265631  
1785.000000	65.249776  
1784.000000	65.239000  
1783.000000	65.234041  
1782.000000	65.235209  
1781.000000	65.242147  
1780.000000	65.254473  
1779.000000	65.271592  
1778.000000	65.292859  
1777.000000	65.317368  
1776.000000	65.343761  
1775.000000	65.370297  
1774.000000	65.394997  
1773.000000	65.416169  
1772.000000	65.432429  
1771.000000	65.443181  
1770.000000	65.448713  
1769.000000	65.450215  
1768.000000	65.449357  
1767.000000	65.447711  
1766.000000	65.446233  
1765.000000	65.445160  
1764.000000	65.443706  
1763.000000	65.440607  
1762.000000	65.434169  
1761.000000	65.423130  
1760.000000	65.406703  
1759.000000	65.385150  
1758.000000	65.359663  
1757.000000	65.331983  
1756.000000	65.304017  
1755.000000	65.277600  
1754.000000	65.254068  
1753.000000	65.234184  
1752.000000	65.218114  
1751.000000	65.205383  
1750.000000	65.195274  
1749.000000	65.187001  
1748.000000	65.180182  
1747.000000	65.174698  
1746.000000	65.171003  
1745.000000	65.169739  
1744.000000	65.172123  
1743.000000	65.179467  
1742.000000	65.192770  
1741.000000	65.212345  
1740.000000	65.237426  
1739.000000	65.265965  
1738.000000	65.294790  
1737.000000	65.319919  
1736.000000	65.337157  
1735.000000	65.342879  
1734.000000	65.334963  
1733.000000	65.313339  
1732.000000	65.279698  
1731.000000	65.237522  
1730.000000	65.191721  
1729.000000	65.147995  
1728.000000	65.111517  
1727.000000	65.086674  
1726.000000	65.076351  
1725.000000	65.081620  
1724.000000	65.101766  
1723.000000	65.134358  
1722.000000	65.175557  
1721.000000	65.220403  
1720.000000	65.263414  
1719.000000	65.299344  
1718.000000	65.323877  
1717.000000	65.334391  
1716.000000	65.330362  
1715.000000	65.313696  
1714.000000	65.288186  
1713.000000	65.259099  
1712.000000	65.232086  
1711.000000	65.212082  
1710.000000	65.202975  
1709.000000	65.207099  
1708.000000	65.225291  
1707.000000	65.257096  
1706.000000	65.301060  
1705.000000	65.355229  
1704.000000	65.416765  
1703.000000	65.482234  
1702.000000	65.547299  
1701.000000	65.606689  
1700.000000	65.654802  
1699.000000	65.686321  
1698.000000	65.697240  
1697.000000	65.685868  
1696.000000	65.653753  
1695.000000	65.605974  
1694.000000	65.550184  
1693.000000	65.495562  
1692.000000	65.450716  
1691.000000	65.422153  
1690.000000	65.412640  
1689.000000	65.420961  
1688.000000	65.442109  
1687.000000	65.468645  
1686.000000	65.492725  
1685.000000	65.507984  
1684.000000	65.510892  
1683.000000	65.501570  
1682.000000	65.483474  
1681.000000	65.462255  
1680.000000	65.444040  
1679.000000	65.433788  
1678.000000	65.434026  
1677.000000	65.444087  
1676.000000	65.460801  
1675.000000	65.478849  
1674.000000	65.492987  
1673.000000	65.498781  
1672.000000	65.493702  
1671.000000	65.477705  
1670.000000	65.453028  
1669.000000	65.423464  
1668.000000	65.393018  
1667.000000	65.365314  
1666.000000	65.342783  
1665.000000	65.326619  
1664.000000	65.316700  
1663.000000	65.312337  
1662.000000	65.312695  
1661.000000	65.317273  
1660.000000	65.326023  
1659.000000	65.338969  
1658.000000	65.355777  
1657.000000	65.375638  
1656.000000	65.396761  
1655.000000	65.416836  
1654.000000	65.433073  
1653.000000	65.443062  
1652.000000	65.445089  
1651.000000	65.438556  
1650.000000	65.423989  
1649.000000	65.403318  
1648.000000	65.378999  
1647.000000	65.353679  
1646.000000	65.329718  
1645.000000	65.308809  
1644.000000	65.291905  
1643.000000	65.279293  
1642.000000	65.270471  
1641.000000	65.264487  
1640.000000	65.260028  
1639.000000	65.255713  
1638.000000	65.250158  
1637.000000	65.242242  
1636.000000	65.231418  
1635.000000	65.217804  
1634.000000	65.202283  
1633.000000	65.186333  
1632.000000	65.171861  
1631.000000	65.160846  
1630.000000	65.154790  
1629.000000	65.154719  
1628.000000	65.161252  
1627.000000	65.174674  
1626.000000	65.194797  
1625.000000	65.221238  
1624.000000	65.253305  
1623.000000	65.289831  
1622.000000	65.328979  
1621.000000	65.367984  
1620.000000	65.403604  
1619.000000	65.432000  
1618.000000	65.449738  
1617.000000	65.453910  
1616.000000	65.443253  
1615.000000	65.418076  
1614.000000	65.381026  
1613.000000	65.336251  
1612.000000	65.288496  
1611.000000	65.242576  
1610.000000	65.202569  
1609.000000	65.171003  
1608.000000	65.148591  
1607.000000	65.134525  
1606.000000	65.126848  
1605.000000	65.123081  
1604.000000	65.120840  
1603.000000	65.118122  
1602.000000	65.113902  
1601.000000	65.107870  
1600.000000	65.100312  
1599.000000	65.091824  
1598.000000	65.082907  
1597.000000	65.073728  
1596.000000	65.064120  
1595.000000	65.053701  
1594.000000	65.042066  
1593.000000	65.029025  
1592.000000	65.015077  
1591.000000	65.001225  
1590.000000	64.989495  
1589.000000	64.982032  
1588.000000	64.981174  
1587.000000	64.988708  
1586.000000	65.005612  
1585.000000	65.031599  
1584.000000	65.065145  
1583.000000	65.103578  
1582.000000	65.143322  
1581.000000	65.180420  
1580.000000	65.211415  
1579.000000	65.233635  
1578.000000	65.245532  
1577.000000	65.246772  
1576.000000	65.238451  
1575.000000	65.222668  
1574.000000	65.201878  
1573.000000	65.178608  
1572.000000	65.155291  
1571.000000	65.134119  
1570.000000	65.117049  
1569.000000	65.105986  
1568.000000	65.102672  
1567.000000	65.108752  
1566.000000	65.125536  
1565.000000	65.153694  
1564.000000	65.192675  
1563.000000	65.240383  
1562.000000	65.293121  
1561.000000	65.345954  
1560.000000	65.393376  
1559.000000	65.430259  
1558.000000	65.452933  
1557.000000	65.459966  
1556.000000	65.452527  
1555.000000	65.433835  
1554.000000	65.408587  
1553.000000	65.382122  
1552.000000	65.359330  
1551.000000	65.344405  
1550.000000	65.340089  
1549.000000	65.347766  
1548.000000	65.366911  
1547.000000	65.395617  
1546.000000	65.430474  
1545.000000	65.466880  
1544.000000	65.499687  
1543.000000	65.523838  
1542.000000	65.535259  
1541.000000	65.531611  
1540.000000	65.512776  
1539.000000	65.480637  
1538.000000	65.438866  
1537.000000	65.392374  
1536.000000	65.346240  
1535.000000	65.305113  
1534.000000	65.272283  
1533.000000	65.249371  
1532.000000	65.236830  
1531.000000	65.234136  
1530.000000	65.240359  
1529.000000	65.254259  
1528.000000	65.274763  
1527.000000	65.300869  
1526.000000	65.331029  
1525.000000	65.362977  
1524.000000	65.393757  
1523.000000	65.420126  
1522.000000	65.438842  
1521.000000	65.447473  
1520.000000	65.445041  
1519.000000	65.432405  
1518.000000	65.412449  
1517.000000	65.389394  
1516.000000	65.368461  
1515.000000	65.354275  
1514.000000	65.350055  
1513.000000	65.356683  
1512.000000	65.372776  
1511.000000	65.394687  
1510.000000	65.417385  
1509.000000	65.435600  
1508.000000	65.444898  
1507.000000	65.442752  
1506.000000	65.429162  
1505.000000	65.406608  
1504.000000	65.379118  
1503.000000	65.351581  
1502.000000	65.328526  
1501.000000	65.312933  
1500.000000	65.305423  
1499.000000	65.304374  
1498.000000	65.306496  
1497.000000	65.307879  
1496.000000	65.304970  
1495.000000	65.295720  
1494.000000	65.279889  
1493.000000	65.258979  
1492.000000	65.235853  
1491.000000	65.213584  
1490.000000	65.194773  
1489.000000	65.180921  
1488.000000	65.172338  
1487.000000	65.168261  
1486.000000	65.167307  
1485.000000	65.168142  
1484.000000	65.170025  
1483.000000	65.172696  
1482.000000	65.176916  
1481.000000	65.183591  
1480.000000	65.193748  
1479.000000	65.207719  
1478.000000	65.225124  
1477.000000	65.244913  
1476.000000	65.265321  
1475.000000	65.284395  
1474.000000	65.300130  
1473.000000	65.311002  
1472.000000	65.316033  
1471.000000	65.315270  
1470.000000	65.309119  
1469.000000	65.298652  
1468.000000	65.285468  
1467.000000	65.271687  
1466.000000	65.259552  
1465.000000	65.251255  
1464.000000	65.248680  
1463.000000	65.252757  
1462.000000	65.263414  
1461.000000	65.278959  
1460.000000	65.296459  
1459.000000	65.312051  
1458.000000	65.321612  
1457.000000	65.321516  
1456.000000	65.309548  
1455.000000	65.285658  
1454.000000	65.251755  
1453.000000	65.211725  
1452.000000	65.170621  
1451.000000	65.133523  
1450.000000	65.104675  
1449.000000	65.086770  
1448.000000	65.080571  
1447.000000	65.085482  
1446.000000	65.099978  
1445.000000	65.122175  
1444.000000	65.150141  
1443.000000	65.182113  
1442.000000	65.216469  
1441.000000	65.251278  
1440.000000	65.284395  
1439.000000	65.313625  
1438.000000	65.336728  
1437.000000	65.352201  
1436.000000	65.359330  
1435.000000	65.358328  
1434.000000	65.350294  
1433.000000	65.337085  
1432.000000	65.320920  
1431.000000	65.304160  
1430.000000	65.288686  
1429.000000	65.276288  
1428.000000	65.268087  
1427.000000	65.264868  
1426.000000	65.266585  
1425.000000	65.272784  
1424.000000	65.282297  
1423.000000	65.293264  
1422.000000	65.303349  
1421.000000	65.309977  
1420.000000	65.311074  
1419.000000	65.305495  
1418.000000	65.293359  
1417.000000	65.276265  
1416.000000	65.257072  
1415.000000	65.239214  
1414.000000	65.226125  
1413.000000	65.220117  
1412.000000	65.222263  
1411.000000	65.232133  
1410.000000	65.247774  
1409.000000	65.266323  
1408.000000	65.284872  
1407.000000	65.301036  
1406.000000	65.313482  
1405.000000	65.322017  
1404.000000	65.327763  
1403.000000	65.332484  
1402.000000	65.338110  
1401.000000	65.346026  
1400.000000	65.356802  
1399.000000	65.369653  
1398.000000	65.383124  
1397.000000	65.394639  
1396.000000	65.401577  
1395.000000	65.401339  
1394.000000	65.392279  
1393.000000	65.373730  
1392.000000	65.346360  
1391.000000	65.311932  
1390.000000	65.273165  
1389.000000	65.233445  
1388.000000	65.196442  
1387.000000	65.165352  
1386.000000	65.142607  
1385.000000	65.129542  
1384.000000	65.126037  
1383.000000	65.130829  
1382.000000	65.141630  
1381.000000	65.155506  
1380.000000	65.169668  
1379.000000	65.181469  
1378.000000	65.189290  
1377.000000	65.192174  
1376.000000	65.190219  
1375.000000	65.183854  
1374.000000	65.174221  
1373.000000	65.162730  
1372.000000	65.150976  
1371.000000	65.140533  
1370.000000	65.132784  
1369.000000	65.128898  
1368.000000	65.129661  
1367.000000	65.135264  
1366.000000	65.145349  
1365.000000	65.159106  
1364.000000	65.175151  
1363.000000	65.191888  
1362.000000	65.207743  
1361.000000	65.221500  
1360.000000	65.232467  
1359.000000	65.240573  
1358.000000	65.246224  
1357.000000	65.250229  
1356.000000	65.253520  
1355.000000	65.257167  
1354.000000	65.261888  
1353.000000	65.268158  
1352.000000	65.276265  
1351.000000	65.285968  
1350.000000	65.296745  
1349.000000	65.307593  
1348.000000	65.317392  
1347.000000	65.324807  
1346.000000	65.328669  
1345.000000	65.328049  
1344.000000	65.322589  
1343.000000	65.312290  
1342.000000	65.297746  
1341.000000	65.279936  
1340.000000	65.260219  
1339.000000	65.239858  
1338.000000	65.219974  
1337.000000	65.201306  
1336.000000	65.184402  
1335.000000	65.169405  
1334.000000	65.156412  
1333.000000	65.145468  
1332.000000	65.136575  
1331.000000	65.129876  
1330.000000	65.125679  
1329.000000	65.124034  
1328.000000	65.125060  
1327.000000	65.128707  
1326.000000	65.135121  
1325.000000	65.143990  
1324.000000	65.155005  
1323.000000	65.167713  
1322.000000	65.181708  
1321.000000	65.196204  
1320.000000	65.210485  
1319.000000	65.223646  
1318.000000	65.235185  
1317.000000	65.244626  
1316.000000	65.251851  
1315.000000	65.257263  
1314.000000	65.261363  
1313.000000	65.264916  
1312.000000	65.268349  
1311.000000	65.271663  
1310.000000	65.274453  
1309.000000	65.276026  
1308.000000	65.275287  
1307.000000	65.271425  
1306.000000	65.264177  
1305.000000	65.253877  
1304.000000	65.241336  
1303.000000	65.227556  
1302.000000	65.213561  
1301.000000	65.200042  
1300.000000	65.187120  
1299.000000	65.174460  
1298.000000	65.161585  
1297.000000	65.147924  
1296.000000	65.133380  
1295.000000	65.118217  
1294.000000	65.103244  
1293.000000	65.089702  
1292.000000	65.078902  
1291.000000	65.072035  
1290.000000	65.069580  
1289.000000	65.071463  
1288.000000	65.077090  
1287.000000	65.085506  
1286.000000	65.095496  
1285.000000	65.106177  
1284.000000	65.116882  
1283.000000	65.127372  
1282.000000	65.137696  
1281.000000	65.147924  
1280.000000	65.157961  
1279.000000	65.167617  
1278.000000	65.176415  
1277.000000	65.183591  
1276.000000	65.188527  
1275.000000	65.190792  
1274.000000	65.190362  
1273.000000	65.187668  
1272.000000	65.183377  
1271.000000	65.178442  
1270.000000	65.173792  
1269.000000	65.169930  
1268.000000	65.166902  
1267.000000	65.164399  
1266.000000	65.161705  
1265.000000	65.158081  
1264.000000	65.152931  
1263.000000	65.146136  
1262.000000	65.138077  
1261.000000	65.129399  
1260.000000	65.121173  
1259.000000	65.114426  
1258.000000	65.110015  
1257.000000	65.108442  
1256.000000	65.109944  
1255.000000	65.114426  
1254.000000	65.121817  
1253.000000	65.132093  
1252.000000	65.145230  
1251.000000	65.161156  
1250.000000	65.179538  
1249.000000	65.199565  
1248.000000	65.219998  
1247.000000	65.238881  
1246.000000	65.254211  
1245.000000	65.264081  
1244.000000	65.267181  
1243.000000	65.263056  
1242.000000	65.252161  
1241.000000	65.235853  
1240.000000	65.216112  
1239.000000	65.195417  
1238.000000	65.176200  
1237.000000	65.160512  
1236.000000	65.149927  
1235.000000	65.145301  
1234.000000	65.146708  
1233.000000	65.153479  
1232.000000	65.164422  
1231.000000	65.178132  
1230.000000	65.193152  
1229.000000	65.208268  
1228.000000	65.222620  
1227.000000	65.235686  
1226.000000	65.247464  
1225.000000	65.258026  
1224.000000	65.267491  
1223.000000	65.276074  
1222.000000	65.283727  
1221.000000	65.290236  
1220.000000	65.295100  
1219.000000	65.298032  
1218.000000	65.298843  
1217.000000	65.297603  
1216.000000	65.294742  
1215.000000	65.291094  
1214.000000	65.287661  
1213.000000	65.285658  
1212.000000	65.286016  
1211.000000	65.289568  
1210.000000	65.296411  
1209.000000	65.306234  
1208.000000	65.317940  
1207.000000	65.329837  
1206.000000	65.339708  
1205.000000	65.345430  
1204.000000	65.344953  
1203.000000	65.336894  
1202.000000	65.320754  
1201.000000	65.297150  
1200.000000	65.267753  
1199.000000	65.234827  
1198.000000	65.200948  
1197.000000	65.168595  
1196.000000	65.139698  
1195.000000	65.115499  
1194.000000	65.096282  
1193.000000	65.081763  
1192.000000	65.070939  
1191.000000	65.062880  
1190.000000	65.056586  
1189.000000	65.051507  
1188.000000	65.047502  
1187.000000	65.044784  
1186.000000	65.043497  
1185.000000	65.043735  
1184.000000	65.045046  
1183.000000	65.046787  
1182.000000	65.047860  
1181.000000	65.047550  
1180.000000	65.045547  
1179.000000	65.042376  
1178.000000	65.039277  
1177.000000	65.038108  
1176.000000	65.040755  
1175.000000	65.048432  
1174.000000	65.061354  
1173.000000	65.078496  
1172.000000	65.097784  
1171.000000	65.116715  
1170.000000	65.132808  
1169.000000	65.144586  
1168.000000	65.151739  
1167.000000	65.155386  
1166.000000	65.157699  
1165.000000	65.161013  
1164.000000	65.167021  
1163.000000	65.176486  
1162.000000	65.188503  
1161.000000	65.200853  
1160.000000	65.210461  
1159.000000	65.214323  
1158.000000	65.210270  
1157.000000	65.197658  
1156.000000	65.177297  
1155.000000	65.151667  
1154.000000	65.123772  
1153.000000	65.096759  
1152.000000	65.073013  
1151.000000	65.053701  
1150.000000	65.038704  
1149.000000	65.026950  
1148.000000	65.016937  
1147.000000	65.007495  
1146.000000	64.997982  
1145.000000	64.988708  
1144.000000	64.980530  
1143.000000	64.974761  
1142.000000	64.972591  
1141.000000	64.974951  
1140.000000	64.981698  
1139.000000	64.991879  
1138.000000	65.003871  
1137.000000	65.015840  
1136.000000	65.025949  
1135.000000	65.032792  
1134.000000	65.035724  
1133.000000	65.034914  
1132.000000	65.031266  
1131.000000	65.026283  
1130.000000	65.021657  
1129.000000	65.019083  
1128.000000	65.019822  
1127.000000	65.024566  
1126.000000	65.033388  
1125.000000	65.045928  
1124.000000	65.061378  
1123.000000	65.078806  
1122.000000	65.097355  
1121.000000	65.116477  
1120.000000	65.135788  
1119.000000	65.154623  
1118.000000	65.171933  
1117.000000	65.186357  
1116.000000	65.196418  
1115.000000	65.200781  
1114.000000	65.198612  
1113.000000	65.190100  
1112.000000	65.176510  
1111.000000	65.160155  
1110.000000	65.143585  
1109.000000	65.129399  
1108.000000	65.119433  
1107.000000	65.114426  
1106.000000	65.113687  
1105.000000	65.115571  
1104.000000	65.117526  
1103.000000	65.117049  
1102.000000	65.111923  
1101.000000	65.100860  
1100.000000	65.083932  
1099.000000	65.062093  
1098.000000	65.037512  
1097.000000	65.012669  
1096.000000	64.990258  
1095.000000	64.972662  
1094.000000	64.961719  
1093.000000	64.958643  
1092.000000	64.963865  
1091.000000	64.977264  
1090.000000	64.997839  
1089.000000	65.024018  
1088.000000	65.053606  
1087.000000	65.084075  
1086.000000	65.112471  
1085.000000	65.136051  
1084.000000	65.152812  
1083.000000	65.161538  
1082.000000	65.162277  
1081.000000	65.156197  
1080.000000	65.145349  
1079.000000	65.132451  
1078.000000	65.120148  
1077.000000	65.110659  
1076.000000	65.105247  
1075.000000	65.104103  
1074.000000	65.106773  
1073.000000	65.112090  
1072.000000	65.118861  
1071.000000	65.126061  
1070.000000	65.133142  
1069.000000	65.139985  
1068.000000	65.146756  
1067.000000	65.153598  
1066.000000	65.160274  
1065.000000	65.166139  
1064.000000	65.170216  
1063.000000	65.171313  
1062.000000	65.168404  
1061.000000	65.161013  
1060.000000	65.149307  
1059.000000	65.134239  
1058.000000	65.117406  
1057.000000	65.100622  
1056.000000	65.085840  
1055.000000	65.074419  
1054.000000	65.067219  
1053.000000	65.064692  
1052.000000	65.066742  
1051.000000	65.072965  
1050.000000	65.082907  
1049.000000	65.096330  
1048.000000	65.112757  
1047.000000	65.131831  
1046.000000	65.152621  
1045.000000	65.173840  
1044.000000	65.193533  
1043.000000	65.209555  
1042.000000	65.219640  
1041.000000	65.221858  
1040.000000	65.215206  
1039.000000	65.199899  
1038.000000	65.177464  
1037.000000	65.150618  
1036.000000	65.122699  
1035.000000	65.097236  
1034.000000	65.077161  
1033.000000	65.064334  
1032.000000	65.059399  
1031.000000	65.061616  
1030.000000	65.069079  
1029.000000	65.079140  
1028.000000	65.089082  
1027.000000	65.096402  
1026.000000	65.099334  
1025.000000	65.096998  
1024.000000	65.089368  
1023.000000	65.077280  
1022.000000	65.062117  
1021.000000	65.045857  
1020.000000	65.030527  
1019.000000	65.018296  
1018.000000	65.011239  
1017.000000	65.010952  
1016.000000	65.018343  
1015.000000	65.033292  
1014.000000	65.054583  
1013.000000	65.079736  
1012.000000	65.105605  
1011.000000	65.128827  
1010.000000	65.146756  
1009.000000	65.157794  
1008.000000	65.162110  
1007.000000	65.161466  
1006.000000	65.159010  
1005.000000	65.158414  
1004.000000	65.162801  
1003.000000	65.173959  
1002.000000	65.191531  
1001.000000	65.213394  
1000.000000	65.235781  
999.000000	 65.254282  
998.000000	 65.265154  
997.000000	 65.266036  
996.000000	 65.256571  
995.000000	 65.238451  
994.000000	 65.215063  
993.000000	 65.190720  
992.000000	 65.169692  
991.000000	 65.155243  
990.000000	 65.149188  
989.000000	 65.151810  
988.000000	 65.161705  
987.000000	 65.176343  
986.000000	 65.192580  
985.000000	 65.207362  
984.000000	 65.218162  
983.000000	 65.223312  
982.000000	 65.222120  
981.000000	 65.214729  
980.000000	 65.202069  
979.000000	 65.185546  
978.000000	 65.166759  
977.000000	 65.147042  
976.000000	 65.127563  
975.000000	 65.109157  
974.000000	 65.092325  
973.000000	 65.077543  
972.000000	 65.065431  
971.000000	 65.056991  
970.000000	 65.053319  
969.000000	 65.055847  
968.000000	 65.065670  
967.000000	 65.083360  
966.000000	 65.108728  
965.000000	 65.140509  
964.000000	 65.176415  
963.000000	 65.213537  
962.000000	 65.248847  
961.000000	 65.279340  
960.000000	 65.302443  
959.000000	 65.316390  
958.000000	 65.320611  
957.000000	 65.315461  
956.000000	 65.302181  
955.000000	 65.282702  
954.000000	 65.259170  
953.000000	 65.234112  
952.000000	 65.209865  
951.000000	 65.188622  
950.000000	 65.171933  
949.000000	 65.160822  
948.000000	 65.155506  
947.000000	 65.155410  
946.000000	 65.159463  
945.000000	 65.166234  
944.000000	 65.174365  
943.000000	 65.182542  
942.000000	 65.190029  
941.000000	 65.196561  
940.000000	 65.202450  
939.000000	 65.208363  
938.000000	 65.215229  
937.000000	 65.223932  
936.000000	 65.235137  
935.000000	 65.249133  
934.000000	 65.265560  
933.000000	 65.283489  
932.000000	 65.301346  
931.000000	 65.317273  
930.000000	 65.329289  
929.000000	 65.335869  
928.000000	 65.336060  
927.000000	 65.329813  
926.000000	 65.318155  
925.000000	 65.302968  
924.000000	 65.286755  
923.000000	 65.271973  
922.000000	 65.260601  
921.000000	 65.253639  
920.000000	 65.251088  
919.000000	 65.252017  
918.000000	 65.254616  
917.000000	 65.257143  
916.000000	 65.258193  
915.000000	 65.257453  
914.000000	 65.255761  
913.000000	 65.254783  
912.000000	 65.256619  
911.000000	 65.263342  
910.000000	 65.276360  
909.000000	 65.296030  
908.000000	 65.321063  
907.000000	 65.349078  
906.000000	 65.376925  
905.000000	 65.401268  
904.000000	 65.419316  
903.000000	 65.429234  
902.000000	 65.430331  
901.000000	 65.422964  
900.000000	 65.408563  
899.000000	 65.388989  
898.000000	 65.366196  
897.000000	 65.342330  
896.000000	 65.319490  
895.000000	 65.299725  
894.000000	 65.285038  
893.000000	 65.277504  
892.000000	 65.278792  
891.000000	 65.289878  
890.000000	 65.310168  
889.000000	 65.337848  
888.000000	 65.369153  
887.000000	 65.398859  
886.000000	 65.420985  
885.000000	 65.429925  
884.000000	 65.421938  
883.000000	 65.395760  
882.000000	 65.353584  
881.000000	 65.300369  
880.000000	 65.243196  
879.000000	 65.189814  
878.000000	 65.147113  
877.000000	 65.119910  
876.000000	 65.110421  
875.000000	 65.118193  
874.000000	 65.140628  
873.000000	 65.173864  
872.000000	 65.213799  
871.000000	 65.256834  
870.000000	 65.299987  
869.000000	 65.341281  
868.000000	 65.378832  
867.000000	 65.411353  
866.000000	 65.437555  
865.000000	 65.456700  
864.000000	 65.468835  
863.000000	 65.474700  
862.000000	 65.476441  
861.000000	 65.476465  
860.000000	 65.477395  
859.000000	 65.480804  
858.000000	 65.487074  
857.000000	 65.495014  
856.000000	 65.502500  
855.000000	 65.506887  
854.000000	 65.505814  
853.000000	 65.497970  
852.000000	 65.483689  
851.000000	 65.464663  
850.000000	 65.443420  
849.000000	 65.422511  
848.000000	 65.403795  
847.000000	 65.388345  
846.000000	 65.376400  
845.000000	 65.367650  
844.000000	 65.361547  
843.000000	 65.358114  
842.000000	 65.357732  
841.000000	 65.361118  
840.000000	 65.368604  
839.000000	 65.379595  
838.000000	 65.392422  
837.000000	 65.404605  
836.000000	 65.412974  
835.000000	 65.414714  
834.000000	 65.407443  
833.000000	 65.390443  
832.000000	 65.363931  
831.000000	 65.329647  
830.000000	 65.289640  
829.000000	 65.245938  
828.000000	 65.200138  
827.000000	 65.153503  
826.000000	 65.107536  
825.000000	 65.064215  
824.000000	 65.026426  
823.000000	 64.997577  
822.000000	 64.981150  
821.000000	 64.979815  
820.000000	 64.994335  
819.000000	 65.023541  
818.000000	 65.064072  
817.000000	 65.111517  
816.000000	 65.161013  
815.000000	 65.208387  
814.000000	 65.250372  
813.000000	 65.285134  
812.000000	 65.312266  
811.000000	 65.332460  
810.000000	 65.346789  
809.000000	 65.356636  
808.000000	 65.363550  
807.000000	 65.368747  
806.000000	 65.373587  
805.000000	 65.378904  
804.000000	 65.385937  
803.000000	 65.395045  
802.000000	 65.406155  
801.000000	 65.418267  
800.000000	 65.429830  
799.000000	 65.438842  
798.000000	 65.443158  
797.000000	 65.441179  
796.000000	 65.432381  
795.000000	 65.417242  
794.000000	 65.397262  
793.000000	 65.374732  
792.000000	 65.352535  
791.000000	 65.333414  
790.000000	 65.319919  
789.000000	 65.313982  
788.000000	 65.316677  
787.000000	 65.328645  
786.000000	 65.349674  
785.000000	 65.378403  
784.000000	 65.412449  
783.000000	 65.448927  
782.000000	 65.484499  
781.000000	 65.515327  
780.000000	 65.538358  
779.000000	 65.552043  
778.000000	 65.556669  
777.000000	 65.554118  
776.000000	 65.547394  
775.000000	 65.539956  
774.000000	 65.534543  
773.000000	 65.532684  
772.000000	 65.534377  
771.000000	 65.538311  
770.000000	 65.542531  
769.000000	 65.545344  
768.000000	 65.545821  
767.000000	 65.543794  
766.000000	 65.539884  
765.000000	 65.534973  
764.000000	 65.529561  
763.000000	 65.523171  
762.000000	 65.514349  
761.000000	 65.500593  
760.000000	 65.479397  
759.000000	 65.448904  
758.000000	 65.408873  
757.000000	 65.360736  
756.000000	 65.307879  
755.000000	 65.254497  
754.000000	 65.204811  
753.000000	 65.162372  
752.000000	 65.129089  
751.000000	 65.105056  
750.000000	 65.088725  
749.000000	 65.078115  
748.000000	 65.071582  
747.000000	 65.068888  
746.000000	 65.070748  
745.000000	 65.079331  
744.000000	 65.096783  
743.000000	 65.124654  
742.000000	 65.162682  
741.000000	 65.208268  
740.000000	 65.256524  
739.000000	 65.301156  
738.000000	 65.335917  
737.000000	 65.355730  
736.000000	 65.357899  
735.000000	 65.342903  
734.000000	 65.314102  
733.000000	 65.277194  
732.000000	 65.238595  
731.000000	 65.204477  
730.000000	 65.179252  
729.000000	 65.164947  
728.000000	 65.161180  
727.000000	 65.165805  
726.000000	 65.175461  
725.000000	 65.186595  
724.000000	 65.196418  
723.000000	 65.203332  
722.000000	 65.207290  
721.000000	 65.209126  
720.000000	 65.210556  
719.000000	 65.213418  
718.000000	 65.219140  
717.000000	 65.228509  
716.000000	 65.241813  
715.000000	 65.258741  
714.000000	 65.279030  
713.000000	 65.302419  
712.000000	 65.328836  
711.000000	 65.357923  
710.000000	 65.388822  
709.000000	 65.419650  
708.000000	 65.447807  
707.000000	 65.469813  
706.000000	 65.482163  
705.000000	 65.481901  
704.000000	 65.467762  
703.000000	 65.440511  
702.000000	 65.402722  
701.000000	 65.358400  
700.000000	 65.312623  
699.000000	 65.270185  
698.000000	 65.234851  
697.000000	 65.208816  
696.000000	 65.192508  
695.000000	 65.185236  
694.000000	 65.185952  
693.000000	 65.193533  
692.000000	 65.207266  
691.000000	 65.226554  
690.000000	 65.250825  
689.000000	 65.278863  
688.000000	 65.308547  
687.000000	 65.337300  
686.000000	 65.362334  
685.000000	 65.381455  
684.000000	 65.393686  
683.000000	 65.399742  
682.000000	 65.402126  
681.000000	 65.404701  
680.000000	 65.411877  
679.000000	 65.427994  
678.000000	 65.455746  
677.000000	 65.496206  
676.000000	 65.547084  
675.000000	 65.603804  
674.000000	 65.659117  
673.000000	 65.705251  
672.000000	 65.734553  
671.000000	 65.741491  
670.000000	 65.723657  
669.000000	 65.682768  
668.000000	 65.624237  
667.000000	 65.556168  
666.000000	 65.487837  
665.000000	 65.428137  
664.000000	 65.383625  
663.000000	 65.357422  
662.000000	 65.348839  
661.000000	 65.353894  
660.000000	 65.366911  
659.000000	 65.382409  
658.000000	 65.395712  
657.000000	 65.404367  
656.000000	 65.407967  
655.000000	 65.408086  
654.000000	 65.406775  
653.000000	 65.406036  
652.000000	 65.406894  
651.000000	 65.409398  
650.000000	 65.412831  
649.000000	 65.416049  
648.000000	 65.418100  
647.000000	 65.418887  
646.000000	 65.419268  
645.000000	 65.420770  
644.000000	 65.424990  
643.000000	 65.433335  
642.000000	 65.446352  
641.000000	 65.463352  
640.000000	 65.482640  
639.000000	 65.501403  
638.000000	 65.516376  
637.000000	 65.523886  
636.000000	 65.520668  
635.000000	 65.504240  
634.000000	 65.473604  
633.000000	 65.429496  
632.000000	 65.374708  
631.000000	 65.314269  
630.000000	 65.254759  
629.000000	 65.203332  
628.000000	 65.166497  
627.000000	 65.148663  
626.000000	 65.151667  
625.000000	 65.173935  
624.000000	 65.211582  
623.000000	 65.258407  
622.000000	 65.308523  
621.000000	 65.356802  
620.000000	 65.400719  
619.000000	 65.440106  
618.000000	 65.477061  
617.000000	 65.514755  
616.000000	 65.555810  
615.000000	 65.600991  
614.000000	 65.647983  
613.000000	 65.692090  
612.000000	 65.726709  
611.000000	 65.745520  
610.000000	 65.744113  
609.000000	 65.721774  
608.000000	 65.682029  
607.000000	 65.632390  
606.000000	 65.582108  
605.000000	 65.540099  
604.000000	 65.513205  
603.000000	 65.504884  
602.000000	 65.514326  
601.000000	 65.537309  
600.000000	 65.568327  
599.000000	 65.602016  
598.000000	 65.634322  
597.000000	 65.663266  
596.000000	 65.688776  
595.000000	 65.711998  
594.000000	 65.734291  
593.000000	 65.755844  
592.000000	 65.774965  
591.000000	 65.788197  
590.000000	 65.791916  
589.000000	 65.782475  
588.000000	 65.757942  
587.000000	 65.718698  
586.000000	 65.667819  
585.000000	 65.611004  
584.000000	 65.555214  
583.000000	 65.508413  
582.000000	 65.478157  
581.000000	 65.470790  
580.000000	 65.490531  
579.000000	 65.539455  
578.000000	 65.617299  
577.000000	 65.721559  
576.000000	 65.847420  
575.000000	 65.988373  
574.000000	 66.135859  
573.000000	 66.280770  
572.000000	 66.413116  
571.000000	 66.522979  
570.000000	 66.600990  
569.000000	 66.639995  
568.000000	 66.635370  
567.000000	 66.587162  
566.000000	 66.499400  
565.000000	 66.380882  
564.000000	 66.243720  
563.000000	 66.102814  
562.000000	 65.972828  
561.000000	 65.867066  
560.000000	 65.794229  
559.000000	 65.757799  
558.000000	 65.755248  
557.000000	 65.779232  
556.000000	 65.819025  
555.000000	 65.862751  
554.000000	 65.900444  
553.000000	 65.925812  
552.000000	 65.937423  
551.000000	 65.938615  
550.000000	 65.935945  
549.000000	 65.937089  
548.000000	 65.948867  
547.000000	 65.974569  
546.000000	 66.013407  
545.000000	 66.059422  
544.000000	 66.103482  
543.000000	 66.134214  
542.000000	 66.141271  
541.000000	 66.117477  
540.000000	 66.060662  
539.000000	 65.974688  
538.000000	 65.868234  
537.000000	 65.754294  
536.000000	 65.646743  
535.000000	 65.559291  
534.000000	 65.502262  
533.000000	 65.482544  
532.000000	 65.502715  
531.000000	 65.561294  
530.000000	 65.653681  
529.000000	 65.771579  
528.000000	 65.903806  
527.000000	 66.037464  
526.000000	 66.159272  
525.000000	 66.257333  
524.000000	 66.322827  
523.000000	 66.351795  
522.000000	 66.345787  
521.000000	 66.311860  
520.000000	 66.261339  
519.000000	 66.207480  
518.000000	 66.163229  
517.000000	 66.140508  
516.000000	 66.146993  
515.000000	 66.186237  
514.000000	 66.255378  
513.000000	 66.346883  
512.000000	 66.448473  
511.000000	 66.545486  
510.000000	 66.623425  
509.000000	 66.670751  
508.000000	 66.680860  
507.000000	 66.652989  
506.000000	 66.592240  
505.000000	 66.507625  
504.000000	 66.411590  
503.000000	 66.317272  
502.000000	 66.237735  
501.000000	 66.184186  
500.000000	 66.164875  
499.000000	 66.183781  
498.000000	 66.239309  
497.000000	 66.323971  
496.000000	 66.423940  
495.000000	 66.521143  
494.000000	 66.596841  
493.000000	 66.634654  
492.000000	 66.623520  
491.000000	 66.560125  
490.000000	 66.449546  
489.000000	 66.304397  
488.000000	 66.141843  
487.000000	 65.980577  
486.000000	 65.837621  
485.000000	 65.725183  
484.000000	 65.649580  
483.000000	 65.610289  
482.000000	 65.601682  
481.000000	 65.614867  
480.000000	 65.639448  
479.000000	 65.667414  
478.000000	 65.693688  
477.000000	 65.717530  
476.000000	 65.740609  
475.000000	 65.766167  
474.000000	 65.796613  
473.000000	 65.832161  
472.000000	 65.869760  
471.000000	 65.904235  
470.000000	 65.929293  
469.000000	 65.939354  
468.000000	 65.930652  
467.000000	 65.901756  
466.000000	 65.853595  
465.000000	 65.789580  
464.000000	 65.714669  
463.000000	 65.634512  
462.000000	 65.554141  
461.000000	 65.478610  
460.000000	 65.411305  
459.000000	 65.352654  
458.000000	 65.301752  
457.000000	 65.257453  
456.000000	 65.219521  
455.000000	 65.187311  
454.000000	 65.162968  
453.000000	 65.151071  
452.000000	 65.156698  
451.000000	 65.183854  
450.000000	 65.231943  
449.000000	 65.294384  
448.000000	 65.358757  
447.000000	 65.408897  
446.000000	 65.428090  
445.000000	 65.403699  
444.000000	 65.328574  
443.000000	 65.203905  
442.000000	 65.045213  
441.000000	 64.879441  
440.000000	 64.733934  
439.000000	 64.632725  
438.000000	 64.594769  
437.000000	 64.629697  
436.000000	 64.732694  
435.000000	 64.890694  
434.000000	 65.082120  
433.000000	 65.288352  
432.000000	 65.499067  
431.000000	 65.713787  
430.000000	 65.939450  
429.000000	 66.184163  
428.000000	 66.453075  
427.000000	 66.737604  
426.000000	 67.017745  
425.000000	 67.256236  
424.000000	 67.404150  
423.000000	 67.418599  
422.000000	 67.277908  
421.000000	 66.990303  
420.000000	 66.596913  
419.000000	 66.178345  
418.000000	 65.840840  
417.000000	 65.710186  
416.000000	 65.906071  
415.000000	 66.504693  
414.000000	 67.518115  
413.000000	 68.908596  
412.000000	 70.575666  
411.000000	 72.367835  
410.000000	 74.096918  
409.000000	 75.563716  
408.000000	 76.590943  
407.000000	 77.068209  
406.000000	 76.962542  
405.000000	 76.301074  
404.000000	 75.189137  
403.000000	 73.818922  
402.000000	 72.410798  
401.000000	 71.153879  
400.000000	 70.209717  
399.000000	 69.683694  
398.000000	 69.645905  
397.000000	 70.139622  
396.000000	 71.174478  
395.000000	 72.734045  
394.000000	 74.724125  
393.000000	 76.967692  
392.000000	 79.182887  
391.000000	 81.012821  
390.000000	 82.059788  
389.000000	 81.963920  
388.000000	 80.476522  
387.000000	 77.547812  
386.000000	 73.325014  
385.000000	 68.203759  
384.000000	 62.770462  
383.000000	 57.780885  
382.000000	 53.953075  
381.000000	 51.958370  
380.000000	 52.330446  
379.000000	 55.371904  
378.000000	 61.092424  
377.000000	 69.161987  
376.000000	 78.906369  
375.000000	 89.403963  
374.000000	 99.638390  
373.000000	 108.613920 
372.000000	 115.451931 
371.000000	 119.602727 
370.000000	 120.947384 

