PE IR       SPECTRUM    SPECTRUM    ASCII       PEDS        1.60        
  -1
BZABFF~1.ASC
17/04/10
09:19:46.00
17/04/10
09:19:46.00
tln
$BZ12041010-4_t0006$<tbV0>[5.2,-9.8,9.0,0.0,22,1,0]
370.000000
64









2002,4.07    
MIRTGS : RIGHTBACK : INTERNAL 2
MIR : ON : INTERNAL 2
OPTKBR

0.200000
8
8.000000
FILLER
RATIO
SPECTRUM
UNLOCKED 256

DOUBLE
64
COMBINED
1
0
0


1.000000
RATIO


1
0
TRUE
51149
0
LEFT NOT FITTED RIGHT NOT FITTED 0
NONE
NONE
15600
12.000000
4.427000
51148
TRUE
1 0 8 72 0 0 0 0 

15798.010000






#HDR
-1
-1
#GR
CM-1
%T
0.00002384185791015625
0.0
5000.000000
-1.000000
4631
8
105.741620
41.409254
#DATA
5000.000000	65.339732  
4999.000000	65.277767  
4998.000000	65.187454  
4997.000000	65.074300  
4996.000000	64.947128  
4995.000000	64.816904  
4994.000000	64.694404  
4993.000000	64.587998  
4992.000000	64.503002  
4991.000000	64.440822  
4990.000000	64.400506  
4989.000000	64.379620  
4988.000000	64.375901  
4987.000000	64.387702  
4986.000000	64.414548  
4985.000000	64.456176  
4984.000000	64.511680  
4983.000000	64.578175  
4982.000000	64.650249  
4981.000000	64.720368  
4980.000000	64.780449  
4979.000000	64.823412  
4978.000000	64.845514  
4977.000000	64.846587  
4976.000000	64.830827  
4975.000000	64.804291  
4974.000000	64.774155  
4973.000000	64.744973  
4972.000000	64.717698  
4971.000000	64.688277  
4970.000000	64.649510  
4969.000000	64.593386  
4968.000000	64.513921  
4967.000000	64.410901  
4966.000000	64.290547  
4965.000000	64.166855  
4964.000000	64.057755  
4963.000000	63.983249  
4962.000000	63.959574  
4961.000000	63.996410  
4960.000000	64.093542  
4959.000000	64.241170  
4958.000000	64.421367  
4957.000000	64.611959  
4956.000000	64.790701  
4955.000000	64.939260  
4954.000000	65.046405  
4953.000000	65.109300  
4952.000000	65.133094  
4951.000000	65.128707  
4950.000000	65.109157  
4949.000000	65.087175  
4948.000000	65.071320  
4947.000000	65.066528  
4946.000000	65.071868  
4945.000000	65.083169  
4944.000000	65.093350  
4943.000000	65.095996  
4942.000000	65.086007  
4941.000000	65.061116  
4940.000000	65.022253  
4939.000000	64.972853  
4938.000000	64.918160  
4937.000000	64.863944  
4936.000000	64.815068  
4935.000000	64.774537  
4934.000000	64.743137  
4933.000000	64.719843  
4932.000000	64.702105  
4931.000000	64.686632  
4930.000000	64.670133  
4929.000000	64.650583  
4928.000000	64.627146  
4927.000000	64.601016  
4926.000000	64.576077  
4925.000000	64.558506  
4924.000000	64.554595  
4923.000000	64.569854  
4922.000000	64.607930  
4921.000000	64.669489  
4920.000000	64.751076  
4919.000000	64.845609  
4918.000000	64.943742  
4917.000000	65.035223  
4916.000000	65.111374  
4915.000000	65.165090  
4914.000000	65.192556  
4913.000000	65.191864  
4912.000000	65.164303  
4911.000000	65.111637  
4910.000000	65.036296  
4909.000000	64.940690  
4908.000000	64.828157  
4907.000000	64.703106  
4906.000000	64.571905  
4905.000000	64.442801  
4904.000000	64.325666  
4903.000000	64.229750  
4902.000000	64.162254  
4901.000000	64.126038  
4900.000000	64.119148  
4899.000000	64.136147  
4898.000000	64.169383  
4897.000000	64.209842  
4896.000000	64.249372  
4895.000000	64.281845  
4894.000000	64.304542  
4893.000000	64.316463  
4892.000000	64.319419  
4891.000000	64.316391  
4890.000000	64.311647  
4889.000000	64.309573  
4888.000000	64.313960  
4887.000000	64.327383  
4886.000000	64.350676  
4885.000000	64.383912  
4884.000000	64.424848  
4883.000000	64.468550  
4882.000000	64.509534  
4881.000000	64.543557  
4880.000000	64.567351  
4879.000000	64.579200  
4878.000000	64.579415  
4877.000000	64.570283  
4876.000000	64.551877  
4875.000000	64.521431  
4874.000000	64.473032  
4873.000000	64.399313  
4872.000000	64.293575  
4871.000000	64.153146  
4870.000000	63.982200  
4869.000000	63.792181  
4868.000000	63.599705  
4867.000000	63.424253  
4866.000000	63.282775  
4865.000000	63.188457  
4864.000000	63.146257  
4863.000000	63.156485  
4862.000000	63.211703  
4861.000000	63.305640  
4860.000000	63.433122  
4859.000000	63.594913  
4858.000000	63.793468  
4857.000000	64.034056  
4856.000000	64.318990  
4855.000000	64.645266  
4854.000000	65.000343  
4853.000000	65.364718  
4852.000000	65.714526  
4851.000000	66.024279  
4850.000000	66.271924  
4849.000000	66.441750  
4848.000000	66.527438  
4847.000000	66.531610  
4846.000000	66.465425  
4845.000000	66.347122  
4844.000000	66.199040  
4843.000000	66.047072  
4842.000000	65.915012  
4841.000000	65.822815  
4840.000000	65.780925  
4839.000000	65.792655  
4838.000000	65.849614  
4837.000000	65.933322  
4836.000000	66.018652  
4835.000000	66.079616  
4834.000000	66.095042  
4833.000000	66.052842  
4832.000000	65.952610  
4831.000000	65.806436  
4830.000000	65.632963  
4829.000000	65.453743  
4828.000000	65.284180  
4827.000000	65.129733  
4826.000000	64.985418  
4825.000000	64.839863  
4824.000000	64.678525  
4823.000000	64.490294  
4822.000000	64.273238  
4821.000000	64.037919  
4820.000000	63.804292  
4819.000000	63.598752  
4818.000000	63.448143  
4817.000000	63.374924  
4816.000000	63.389515  
4815.000000	63.490700  
4814.000000	63.665461  
4813.000000	63.894343  
4812.000000	64.154458  
4811.000000	64.425635  
4810.000000	64.691853  
4809.000000	64.943480  
4808.000000	65.175223  
4807.000000	65.383958  
4806.000000	65.566325  
4805.000000	65.715622  
4804.000000	65.823936  
4803.000000	65.879893  
4802.000000	65.873694  
4801.000000	65.798592  
4800.000000	65.656399  
4799.000000	65.457820  
4798.000000	65.223455  
4797.000000	64.981555  
4796.000000	64.764380  
4795.000000	64.600682  
4794.000000	64.510202  
4793.000000	64.500141  
4792.000000	64.564013  
4791.000000	64.682507  
4790.000000	64.828062  
4789.000000	64.970755  
4788.000000	65.084815  
4787.000000	65.151524  
4786.000000	65.163660  
4785.000000	65.123724  
4784.000000	65.043830  
4783.000000	64.940905  
4782.000000	64.833331  
4781.000000	64.736461  
4780.000000	64.660191  
4779.000000	64.610385  
4778.000000	64.586496  
4777.000000	64.584040  
4776.000000	64.595413  
4775.000000	64.613127  
4774.000000	64.630651  
4773.000000	64.642858  
4772.000000	64.648079  
4771.000000	64.646959  
4770.000000	64.643287  
4769.000000	64.642143  
4768.000000	64.648461  
4767.000000	64.665317  
4766.000000	64.693903  
4765.000000	64.733338  
4764.000000	64.780640  
4763.000000	64.831590  
4762.000000	64.882302  
4761.000000	64.929604  
4760.000000	64.971637  
4759.000000	65.007066  
4758.000000	65.034770  
4757.000000	65.052747  
4756.000000	65.058970  
4755.000000	65.050888  
4754.000000	65.026426  
4753.000000	64.984560  
4752.000000	64.926433  
4751.000000	64.856123  
4750.000000	64.780855  
4749.000000	64.709663  
4748.000000	64.651131  
4747.000000	64.613342  
4746.000000	64.601969  
4745.000000	64.620494  
4744.000000	64.669346  
4743.000000	64.746427  
4742.000000	64.847302  
4741.000000	64.964771  
4740.000000	65.089273  
4739.000000	65.209007  
4738.000000	65.311145  
4737.000000	65.383315  
4736.000000	65.415692  
4735.000000	65.402722  
4734.000000	65.344262  
4733.000000	65.247249  
4732.000000	65.123724  
4731.000000	64.988946  
4730.000000	64.858365  
4729.000000	64.745950  
4728.000000	64.661598  
4727.000000	64.609551  
4726.000000	64.589786  
4725.000000	64.599227  
4724.000000	64.633703  
4723.000000	64.688587  
4722.000000	64.760708  
4721.000000	64.847517  
4720.000000	64.947032  
4719.000000	65.055561  
4718.000000	65.168380  
4717.000000	65.278816  
4716.000000	65.380024  
4715.000000	65.465807  
4714.000000	65.531921  
4713.000000	65.576314  
4712.000000	65.599560  
4711.000000	65.603399  
4710.000000	65.589380  
4709.000000	65.556979  
4708.000000	65.503716  
4707.000000	65.425181  
4706.000000	65.317678  
4705.000000	65.179538  
4704.000000	65.014624  
4703.000000	64.831519  
4702.000000	64.643001  
4701.000000	64.463186  
4700.000000	64.305806  
4699.000000	64.180374  
4698.000000	64.089369  
4697.000000	64.029097  
4696.000000	63.990449  
4695.000000	63.962554  
4694.000000	63.934683  
4693.000000	63.900756  
4692.000000	63.859486  
4691.000000	63.816332  
4690.000000	63.780713  
4689.000000	63.763427  
4688.000000	63.772225  
4687.000000	63.810253  
4686.000000	63.874316  
4685.000000	63.955187  
4684.000000	64.039993  
4683.000000	64.115118  
4682.000000	64.170074  
4681.000000	64.200282  
4680.000000	64.208936  
4679.000000	64.205145  
4678.000000	64.202690  
4677.000000	64.216709  
4676.000000	64.259791  
4675.000000	64.337992  
4674.000000	64.449763  
4673.000000	64.587092  
4672.000000	64.736747  
4671.000000	64.883923  
4670.000000	65.014791  
4669.000000	65.120291  
4668.000000	65.196180  
4667.000000	65.243387  
4666.000000	65.265941  
4665.000000	65.269374  
4664.000000	65.258193  
4663.000000	65.234875  
4662.000000	65.200281  
4661.000000	65.154886  
4660.000000	65.100789  
4659.000000	65.043163  
4658.000000	64.990615  
4657.000000	64.954447  
4656.000000	64.946460  
4655.000000	64.976668  
4654.000000	65.049481  
4653.000000	65.163207  
4652.000000	65.311074  
4651.000000	65.481853  
4650.000000	65.662240  
4649.000000	65.837478  
4648.000000	65.994620  
4647.000000	66.121363  
4646.000000	66.208338  
4645.000000	66.247820  
4644.000000	66.234993  
4643.000000	66.168093  
4642.000000	66.050171  
4641.000000	65.889286  
4640.000000	65.699672  
4639.000000	65.499854  
4638.000000	65.310955  
4637.000000	65.153479  
4636.000000	65.044593  
4635.000000	64.993810  
4634.000000	65.001416  
4633.000000	65.057826  
4632.000000	65.145754  
4631.000000	65.242624  
4630.000000	65.325331  
4629.000000	65.373802  
4628.000000	65.375375  
4627.000000	65.325260  
4626.000000	65.228462  
4625.000000	65.098190  
4624.000000	64.953851  
4623.000000	64.816784  
4622.000000	64.706730  
4621.000000	64.638590  
4620.000000	64.619326  
4619.000000	64.648127  
4618.000000	64.716219  
4617.000000	64.810466  
4616.000000	64.914846  
4615.000000	65.013456  
4614.000000	65.093159  
4613.000000	65.144658  
4612.000000	65.163993  
4611.000000	65.151476  
4610.000000	65.111780  
4609.000000	65.051817  
4608.000000	64.980459  
4607.000000	64.907360  
4606.000000	64.840245  
4605.000000	64.783859  
4604.000000	64.739847  
4603.000000	64.706897  
4602.000000	64.680099  
4601.000000	64.653158  
4600.000000	64.619541  
4599.000000	64.575481  
4598.000000	64.521074  
4597.000000	64.461636  
4596.000000	64.406085  
4595.000000	64.365530  
4594.000000	64.349627  
4593.000000	64.364337  
4592.000000	64.409804  
4591.000000	64.480042  
4590.000000	64.563798  
4589.000000	64.647364  
4588.000000	64.717960  
4587.000000	64.766550  
4586.000000	64.789414  
4585.000000	64.788961  
4584.000000	64.771962  
4583.000000	64.748239  
4582.000000	64.727735  
4581.000000	64.718699  
4580.000000	64.725875  
4579.000000	64.749979  
4578.000000	64.788079  
4577.000000	64.835190  
4576.000000	64.885759  
4575.000000	64.934825  
4574.000000	64.978933  
4573.000000	65.016436  
4572.000000	65.047454  
4571.000000	65.072584  
4570.000000	65.092849  
4569.000000	65.108585  
4568.000000	65.119910  
4567.000000	65.127515  
4566.000000	65.131974  
4565.000000	65.134620  
4564.000000	65.136146  
4563.000000	65.136694  
4562.000000	65.135908  
4561.000000	65.132403  
4560.000000	65.125584  
4559.000000	65.116167  
4558.000000	65.106821  
4557.000000	65.101909  
4556.000000	65.106439  
4555.000000	65.124678  
4554.000000	65.158200  
4553.000000	65.204691  
4552.000000	65.258812  
4551.000000	65.313339  
4550.000000	65.360951  
4549.000000	65.395951  
4548.000000	65.415430  
4547.000000	65.419030  
4546.000000	65.409231  
4545.000000	65.389251  
4544.000000	65.361261  
4543.000000	65.325284  
4542.000000	65.279507  
4541.000000	65.220904  
4540.000000	65.147233  
4539.000000	65.058612  
4538.000000	64.959287  
4537.000000	64.857101  
4536.000000	64.762210  
4535.000000	64.685153  
4534.000000	64.633798  
4533.000000	64.612364  
4532.000000	64.620542  
4531.000000	64.653253  
4530.000000	64.701604  
4529.000000	64.754080  
4528.000000	64.799022  
4527.000000	64.825654  
4526.000000	64.824914  
4525.000000	64.795780  
4524.000000	64.745879  
4523.000000	64.687657  
4522.000000	64.635944  
4521.000000	64.607286  
4520.000000	64.615964  
4519.000000	64.668941  
4518.000000	64.764761  
4517.000000	64.895081  
4516.000000	65.046072  
4515.000000	65.201783  
4514.000000	65.346813  
4513.000000	65.469551  
4512.000000	65.562653  
4511.000000	65.622925  
4510.000000	65.650677  
4509.000000	65.647649  
4508.000000	65.617012  
4507.000000	65.562820  
4506.000000	65.489792  
4505.000000	65.407919  
4504.000000	65.323686  
4503.000000	65.243840  
4502.000000	65.163254  
4501.000000	65.069675  
4500.000000	64.933276  
4499.000000	64.714050  
4498.000000	64.371967  
4497.000000	63.879179  
4496.000000	63.235545  
4495.000000	62.474942  
4494.000000	61.650252  
4493.000000	60.828566  
4492.000000	60.088348  
4491.000000	59.503483  
4490.000000	59.122729  
4489.000000	58.963227  
4488.000000	59.011602  
4487.000000	59.224820  
4486.000000	59.535169  
4485.000000	59.868550  
4484.000000	60.149574  
4483.000000	60.326218  
4482.000000	60.378813  
4481.000000	60.316538  
4480.000000	60.175204  
4479.000000	59.988760  
4478.000000	59.781742  
4477.000000	59.542894  
4476.000000	59.228467  
4475.000000	58.772301  
4474.000000	58.108472  
4473.000000	57.212615  
4472.000000	56.122279  
4471.000000	54.972982  
4470.000000	53.983402  
4469.000000	53.430199  
4468.000000	53.585791  
4467.000000	54.657959  
4466.000000	56.724476  
4465.000000	59.699130  
4464.000000	63.325858  
4463.000000	67.217898  
4462.000000	70.923662  
4461.000000	74.018478  
4460.000000	76.179003  
4459.000000	77.240920  
4458.000000	77.215743  
4457.000000	76.281857  
4456.000000	74.719953  
4455.000000	72.856473  
4454.000000	70.981025  
4453.000000	69.321465  
4452.000000	67.990136  
4451.000000	67.018103  
4450.000000	66.351628  
4449.000000	65.917992  
4448.000000	65.632605  
4447.000000	65.436291  
4446.000000	65.295338  
4445.000000	65.197873  
4444.000000	65.148782  
4443.000000	65.152525  
4442.000000	65.208625  
4441.000000	65.303707  
4440.000000	65.419745  
4439.000000	65.535593  
4438.000000	65.634775  
4437.000000	65.706276  
4436.000000	65.747046  
4435.000000	65.759301  
4434.000000	65.740108  
4433.000000	65.686130  
4432.000000	65.601754  
4431.000000	65.494680  
4430.000000	65.369725  
4429.000000	65.234780  
4428.000000	65.108728  
4427.000000	65.009546  
4426.000000	64.948177  
4425.000000	64.928841  
4424.000000	64.944815  
4423.000000	64.986109  
4422.000000	65.045762  
4421.000000	65.115714  
4420.000000	65.185832  
4419.000000	65.251088  
4418.000000	65.311694  
4417.000000	65.370059  
4416.000000	65.428304  
4415.000000	65.487694  
4414.000000	65.546464  
4413.000000	65.599226  
4412.000000	65.637278  
4411.000000	65.651869  
4410.000000	65.635633  
4409.000000	65.585637  
4408.000000	65.503740  
4407.000000	65.397381  
4406.000000	65.277600  
4405.000000	65.156912  
4404.000000	65.047073  
4403.000000	64.956903  
4402.000000	64.891099  
4401.000000	64.850354  
4400.000000	64.831972  
4399.000000	64.831662  
4398.000000	64.844393  
4397.000000	64.865469  
4396.000000	64.891147  
4395.000000	64.918112  
4394.000000	64.943504  
4393.000000	64.963960  
4392.000000	64.976239  
4391.000000	64.977073  
4390.000000	64.964675  
4389.000000	64.939403  
4388.000000	64.903831  
4387.000000	64.862728  
4386.000000	64.821910  
4385.000000	64.787435  
4384.000000	64.763998  
4383.000000	64.754557  
4382.000000	64.760327  
4381.000000	64.780735  
4380.000000	64.814519  
4379.000000	64.859342  
4378.000000	64.911937  
4377.000000	64.968061  
4376.000000	65.022826  
4375.000000	65.070796  
4374.000000	65.106344  
4373.000000	65.124893  
4372.000000	65.124368  
4371.000000	65.104985  
4370.000000	65.069174  
4369.000000	65.021228  
4368.000000	64.966964  
4367.000000	64.912009  
4366.000000	64.861297  
4365.000000	64.818072  
4364.000000	64.784002  
4363.000000	64.759159  
4362.000000	64.742660  
4361.000000	64.733147  
4360.000000	64.729595  
4359.000000	64.731478  
4358.000000	64.739012  
4357.000000	64.752006  
4356.000000	64.770102  
4355.000000	64.792418  
4354.000000	64.817786  
4353.000000	64.844465  
4352.000000	64.870834  
4351.000000	64.895868  
4350.000000	64.919352  
4349.000000	64.941835  
4348.000000	64.964485  
4347.000000	64.988493  
4346.000000	65.014505  
4345.000000	65.042233  
4344.000000	65.070056  
4343.000000	65.095496  
4342.000000	65.115690  
4341.000000	65.128540  
4340.000000	65.133523  
4339.000000	65.131902  
4338.000000	65.126872  
4337.000000	65.122628  
4336.000000	65.122580  
4335.000000	65.128135  
4334.000000	65.137696  
4333.000000	65.146732  
4332.000000	65.148186  
4331.000000	65.134239  
4330.000000	65.098595  
4329.000000	65.038323  
4328.000000	64.954948  
4327.000000	64.854812  
4326.000000	64.747786  
4325.000000	64.645671  
4324.000000	64.559698  
4323.000000	64.498662  
4322.000000	64.466714  
4321.000000	64.463734  
4320.000000	64.485907  
4319.000000	64.527082  
4318.000000	64.579582  
4317.000000	64.636611  
4316.000000	64.692783  
4315.000000	64.744758  
4314.000000	64.790296  
4313.000000	64.828491  
4312.000000	64.858651  
4311.000000	64.880323  
4310.000000	64.893007  
4309.000000	64.896559  
4308.000000	64.891386  
4307.000000	64.879155  
4306.000000	64.862751  
4305.000000	64.846014  
4304.000000	64.833164  
4303.000000	64.828300  
4302.000000	64.834332  
4301.000000	64.852237  
4300.000000	64.880585  
4299.000000	64.915919  
4298.000000	64.952731  
4297.000000	64.984631  
4296.000000	65.005207  
4295.000000	65.009427  
4294.000000	64.994454  
4293.000000	64.959573  
4292.000000	64.907169  
4291.000000	64.842367  
4290.000000	64.772319  
4289.000000	64.705276  
4288.000000	64.649176  
4287.000000	64.610457  
4286.000000	64.592957  
4285.000000	64.597225  
4284.000000	64.620709  
4283.000000	64.658164  
4282.000000	64.703440  
4281.000000	64.750599  
4280.000000	64.795351  
4279.000000	64.835453  
4278.000000	64.870595  
4277.000000	64.901566  
4276.000000	64.929366  
4275.000000	64.953899  
4274.000000	64.973664  
4273.000000	64.985704  
4272.000000	64.986777  
4271.000000	64.974331  
4270.000000	64.948225  
4269.000000	64.910745  
4268.000000	64.867377  
4267.000000	64.824843  
4266.000000	64.790034  
4265.000000	64.768099  
4264.000000	64.760923  
4263.000000	64.767289  
4262.000000	64.783430  
4261.000000	64.804363  
4260.000000	64.825510  
4259.000000	64.843678  
4258.000000	64.857602  
4257.000000	64.868187  
4256.000000	64.877748  
4255.000000	64.889025  
4254.000000	64.904046  
4253.000000	64.923739  
4252.000000	64.947414  
4251.000000	64.973020  
4250.000000	64.997506  
4249.000000	65.017628  
4248.000000	65.030741  
4247.000000	65.035724  
4246.000000	65.033030  
4245.000000	65.024256  
4244.000000	65.012121  
4243.000000	64.999604  
4242.000000	64.989185  
4241.000000	64.982676  
4240.000000	64.980125  
4239.000000	64.980435  
4238.000000	64.981389  
4237.000000	64.980268  
4236.000000	64.975070  
4235.000000	64.965105  
4234.000000	64.951491  
4233.000000	64.936923  
4232.000000	64.924931  
4231.000000	64.918732  
4230.000000	64.920425  
4229.000000	64.930486  
4228.000000	64.947986  
4227.000000	64.971065  
4226.000000	64.997458  
4225.000000	65.024900  
4224.000000	65.051054  
4223.000000	65.073609  
4222.000000	65.090370  
4221.000000	65.099358  
4220.000000	65.099287  
4219.000000	65.089535  
4218.000000	65.070962  
4217.000000	65.045380  
4216.000000	65.015983  
4215.000000	64.985704  
4214.000000	64.957523  
4213.000000	64.932560  
4212.000000	64.910507  
4211.000000	64.889597  
4210.000000	64.867091  
4209.000000	64.841270  
4208.000000	64.811897  
4207.000000	64.780974  
4206.000000	64.752554  
4205.000000	64.731502  
4204.000000	64.721870  
4203.000000	64.725899  
4202.000000	64.743041  
4201.000000	64.770865  
4200.000000	64.805746  
4199.000000	64.844465  
4198.000000	64.885044  
4197.000000	64.927291  
4196.000000	64.972257  
4195.000000	65.020918  
4194.000000	65.073108  
4193.000000	65.126752  
4192.000000	65.177798  
4191.000000	65.220785  
4190.000000	65.250182  
4189.000000	65.262532  
4188.000000	65.257024  
4187.000000	65.236806  
4186.000000	65.207409  
4185.000000	65.175795  
4184.000000	65.148472  
4183.000000	65.129733  
4182.000000	65.121173  
4181.000000	65.121650  
4180.000000	65.128135  
4179.000000	65.137386  
4178.000000	65.146541  
4177.000000	65.153837  
4176.000000	65.158820  
4175.000000	65.162158  
4174.000000	65.164470  
4173.000000	65.165758  
4172.000000	65.165209  
4171.000000	65.161275  
4170.000000	65.151810  
4169.000000	65.134954  
4168.000000	65.109610  
4167.000000	65.076065  
4166.000000	65.036296  
4165.000000	64.993715  
4164.000000	64.952063  
4163.000000	64.914989  
4162.000000	64.885473  
4161.000000	64.865207  
4160.000000	64.854073  
4159.000000	64.850592  
4158.000000	64.852237  
4157.000000	64.856219  
4156.000000	64.859366  
4155.000000	64.859890  
4154.000000	64.857101  
4153.000000	64.852595  
4152.000000	64.849019  
4151.000000	64.850687  
4150.000000	64.862275  
4149.000000	64.887833  
4148.000000	64.929723  
4147.000000	64.987874  
4146.000000	65.059304  
4145.000000	65.138483  
4144.000000	65.217900  
4143.000000	65.289044  
4142.000000	65.343880  
4141.000000	65.376710  
4140.000000	65.385127  
4139.000000	65.370225  
4138.000000	65.336060  
4137.000000	65.289449  
4136.000000	65.237784  
4135.000000	65.188121  
4134.000000	65.145301  
4133.000000	65.112233  
4132.000000	65.088987  
4131.000000	65.073871  
4130.000000	65.063905  
4129.000000	65.056419  
4128.000000	65.049219  
4127.000000	65.041160  
4126.000000	65.031814  
4125.000000	65.020847  
4124.000000	65.008163  
4123.000000	64.993333  
4122.000000	64.976239  
4121.000000	64.956617  
4120.000000	64.936137  
4119.000000	64.918208  
4118.000000	64.908051  
4117.000000	64.911603  
4116.000000	64.934563  
4115.000000	64.980530  
4114.000000	65.049338  
4113.000000	65.136289  
4112.000000	65.232682  
4111.000000	65.327262  
4110.000000	65.408158  
4109.000000	65.465736  
4108.000000	65.494656  
4107.000000	65.494966  
4106.000000	65.472292  
4105.000000	65.435600  
4104.000000	65.394854  
4103.000000	65.358328  
4102.000000	65.331697  
4101.000000	65.315675  
4100.000000	65.307283  
4099.000000	65.300416  
4098.000000	65.289139  
4097.000000	65.268063  
4096.000000	65.234613  
4095.000000	65.188884  
4094.000000	65.133690  
4093.000000	65.073442  
4092.000000	65.012979  
4091.000000	64.956665  
4090.000000	64.907646  
4089.000000	64.868307  
4088.000000	64.840054  
4087.000000	64.823651  
4086.000000	64.819478  
4085.000000	64.827370  
4084.000000	64.846944  
4083.000000	64.876246  
4082.000000	64.912939  
4081.000000	64.954233  
4080.000000	64.997887  
4079.000000	65.041637  
4078.000000	65.084338  
4077.000000	65.125656  
4076.000000	65.165972  
4075.000000	65.205693  
4074.000000	65.244865  
4073.000000	65.282797  
4072.000000	65.318155  
4071.000000	65.349411  
4070.000000	65.374827  
4069.000000	65.393209  
4068.000000	65.403842  
4067.000000	65.407276  
4066.000000	65.404295  
4065.000000	65.395784  
4064.000000	65.382528  
4063.000000	65.365147  
4062.000000	65.343904  
4061.000000	65.318679  
4060.000000	65.290021  
4059.000000	65.258884  
4058.000000	65.226435  
4057.000000	65.193986  
4056.000000	65.162825  
4055.000000	65.134191  
4054.000000	65.108942  
4053.000000	65.088152  
4052.000000	65.072441  
4051.000000	65.062475  
4050.000000	65.058588  
4049.000000	65.060615  
4048.000000	65.067577  
4047.000000	65.077781  
4046.000000	65.088748  
4045.000000	65.097904  
4044.000000	65.102601  
4043.000000	65.101575  
4042.000000	65.095043  
4041.000000	65.085053  
4040.000000	65.074777  
4039.000000	65.068125  
4038.000000	65.068483  
4037.000000	65.077686  
4036.000000	65.095424  
4035.000000	65.119361  
4034.000000	65.145659  
4033.000000	65.169882  
4032.000000	65.187907  
4031.000000	65.196990  
4030.000000	65.196442  
4029.000000	65.187191  
4028.000000	65.172243  
4027.000000	65.155148  
4026.000000	65.140414  
4025.000000	65.131735  
4024.000000	65.132141  
4023.000000	65.143465  
4022.000000	65.166020  
4021.000000	65.199089  
4020.000000	65.240383  
4019.000000	65.286469  
4018.000000	65.333127  
4017.000000	65.375709  
4016.000000	65.409731  
4015.000000	65.431523  
4014.000000	65.438914  
4013.000000	65.431571  
4012.000000	65.410995  
4011.000000	65.380096  
4010.000000	65.342593  
4009.000000	65.302395  
4008.000000	65.262603  
4007.000000	65.224933  
4006.000000	65.189862  
4005.000000	65.156555  
4004.000000	65.123701  
4003.000000	65.090060  
4002.000000	65.054798  
4001.000000	65.018272  
4000.000000	64.981818  
3999.000000	64.947915  
3998.000000	64.918661  
3997.000000	64.896273  
3996.000000	64.881753  
3995.000000	64.875435  
3994.000000	64.876317  
3993.000000	64.882850  
3992.000000	64.893174  
3991.000000	64.905738  
3990.000000	64.919447  
3989.000000	64.933848  
3988.000000	64.949083  
3987.000000	64.965510  
3986.000000	64.983153  
3985.000000	65.001869  
3984.000000	65.021061  
3983.000000	65.039825  
3982.000000	65.056896  
3981.000000	65.071082  
3980.000000	65.081405  
3979.000000	65.087628  
3978.000000	65.089893  
3977.000000	65.088462  
3976.000000	65.083622  
3975.000000	65.075826  
3974.000000	65.065622  
3973.000000	65.053296  
3972.000000	65.039229  
3971.000000	65.024232  
3970.000000	65.009498  
3969.000000	64.996266  
3968.000000	64.986062  
3967.000000	64.980483  
3966.000000	64.980769  
3965.000000	64.987659  
3964.000000	65.000891  
3963.000000	65.019369  
3962.000000	65.040612  
3961.000000	65.060973  
3960.000000	65.076208  
3959.000000	65.082168  
3958.000000	65.075635  
3957.000000	65.055370  
3956.000000	65.022611  
3955.000000	64.981126  
3954.000000	64.936995  
3953.000000	64.897441  
3952.000000	64.869499  
3951.000000	64.858531  
3950.000000	64.867186  
3949.000000	64.894700  
3948.000000	64.937305  
3947.000000	64.989018  
3946.000000	65.043187  
3945.000000	65.093874  
3944.000000	65.136718  
3943.000000	65.169906  
3942.000000	65.193414  
3941.000000	65.208983  
3940.000000	65.218710  
3939.000000	65.224814  
3938.000000	65.229129  
3937.000000	65.232849  
3936.000000	65.237021  
3935.000000	65.242052  
3934.000000	65.248107  
3933.000000	65.254950  
3932.000000	65.262174  
3931.000000	65.268945  
3930.000000	65.274333  
3929.000000	65.277147  
3928.000000	65.276479  
3927.000000	65.272116  
3926.000000	65.264821  
3925.000000	65.256190  
3924.000000	65.248322  
3923.000000	65.243601  
3922.000000	65.243554  
3921.000000	65.248727  
3920.000000	65.258049  
3919.000000	65.269207  
3918.000000	65.278887  
3917.000000	65.283656  
3916.000000	65.280866  
3915.000000	65.269327  
3914.000000	65.250134  
3913.000000	65.225815  
3912.000000	65.200948  
3911.000000	65.180921  
3910.000000	65.171194  
3909.000000	65.175724  
3908.000000	65.196228  
3907.000000	65.231466  
3906.000000	65.277266  
3905.000000	65.327382  
3904.000000	65.374374  
3903.000000	65.411138  
3902.000000	65.432405  
3901.000000	65.435481  
3900.000000	65.420722  
3899.000000	65.391135  
3898.000000	65.351700  
3897.000000	65.307855  
3896.000000	65.264701  
3895.000000	65.225696  
3894.000000	65.192675  
3893.000000	65.165519  
3892.000000	65.143132  
3891.000000	65.124034  
3890.000000	65.106892  
3889.000000	65.091276  
3888.000000	65.077185  
3887.000000	65.065622  
3886.000000	65.057277  
3885.000000	65.053129  
3884.000000	65.053391  
3883.000000	65.058159  
3882.000000	65.066981  
3881.000000	65.079545  
3880.000000	65.095639  
3879.000000	65.115284  
3878.000000	65.138506  
3877.000000	65.165138  
3876.000000	65.194511  
3875.000000	65.225195  
3874.000000	65.254998  
3873.000000	65.281367  
3872.000000	65.301680  
3871.000000	65.313816  
3870.000000	65.316343  
3869.000000	65.308856  
3868.000000	65.291905  
3867.000000	65.266966  
3866.000000	65.236496  
3865.000000	65.203332  
3864.000000	65.170812  
3863.000000	65.142512  
3862.000000	65.121769  
3861.000000	65.111660  
3860.000000	65.113949  
3859.000000	65.129017  
3858.000000	65.155386  
3857.000000	65.189623  
3856.000000	65.226840  
3855.000000	65.261292  
3854.000000	65.287446  
3853.000000	65.300965  
3852.000000	65.299916  
3851.000000	65.284943  
3850.000000	65.259265  
3849.000000	65.227985  
3848.000000	65.196895  
3847.000000	65.171337  
3846.000000	65.155339  
3845.000000	65.151119  
3844.000000	65.158653  
3843.000000	65.175986  
3842.000000	65.199995  
3841.000000	65.227079  
3840.000000	65.253686  
3839.000000	65.276718  
3838.000000	65.293884  
3837.000000	65.303945  
3836.000000	65.306186  
3835.000000	65.300559  
3834.000000	65.287160  
3833.000000	65.266609  
3832.000000	65.240359  
3831.000000	65.210795  
3830.000000	65.181422  
3829.000000	65.156579  
3828.000000	65.140914  
3827.000000	65.138411  
3826.000000	65.151619  
3825.000000	65.180492  
3824.000000	65.222167  
3823.000000	65.271186  
3822.000000	65.320611  
3821.000000	65.362930  
3820.000000	65.391683  
3819.000000	65.402626  
3818.000000	65.394330  
3817.000000	65.368580  
3816.000000	65.329575  
3815.000000	65.282940  
3814.000000	65.234565  
3813.000000	65.189766  
3812.000000	65.152502  
3811.000000	65.125250  
3810.000000	65.108871  
3809.000000	65.103268  
3808.000000	65.107369  
3807.000000	65.119361  
3806.000000	65.136933  
3805.000000	65.157294  
3804.000000	65.177631  
3803.000000	65.195155  
3802.000000	65.207695  
3801.000000	65.213871  
3800.000000	65.213322  
3799.000000	65.206480  
3798.000000	65.194582  
3797.000000	65.179419  
3796.000000	65.162920  
3795.000000	65.146827  
3794.000000	65.132570  
3793.000000	65.121054  
3792.000000	65.112709  
3791.000000	65.107464  
3790.000000	65.104913  
3789.000000	65.104508  
3788.000000	65.105915  
3787.000000	65.109205  
3786.000000	65.114521  
3785.000000	65.122652  
3784.000000	65.134239  
3783.000000	65.149855  
3782.000000	65.169978  
3781.000000	65.194416  
3780.000000	65.221929  
3779.000000	65.250611  
3778.000000	65.278196  
3777.000000	65.302109  
3776.000000	65.319967  
3775.000000	65.330052  
3774.000000	65.331792  
3773.000000	65.325856  
3772.000000	65.314173  
3771.000000	65.299582  
3770.000000	65.285181  
3769.000000	65.273833  
3768.000000	65.267801  
3767.000000	65.268182  
3766.000000	65.274691  
3765.000000	65.285849  
3764.000000	65.299367  
3763.000000	65.312528  
3762.000000	65.323090  
3761.000000	65.329551  
3760.000000	65.331912  
3759.000000	65.331125  
3758.000000	65.329432  
3757.000000	65.329718  
3756.000000	65.334916  
3755.000000	65.347337  
3754.000000	65.368461  
3753.000000	65.398669  
3752.000000	65.437197  
3751.000000	65.482211  
3750.000000	65.530753  
3749.000000	65.579247  
3748.000000	65.623688  
3747.000000	65.660285  
3746.000000	65.685796  
3745.000000	65.698218  
3744.000000	65.696811  
3743.000000	65.682482  
3742.000000	65.657305  
3741.000000	65.624189  
3740.000000	65.586280  
3739.000000	65.546417  
3738.000000	65.506911  
3737.000000	65.469193  
3736.000000	65.434145  
3735.000000	65.402078  
3734.000000	65.373277  
3733.000000	65.348052  
3732.000000	65.326762  
3731.000000	65.309643  
3730.000000	65.296673  
3729.000000	65.287518  
3728.000000	65.281224  
3727.000000	65.276694  
3726.000000	65.272784  
3725.000000	65.269279  
3724.000000	65.266418  
3723.000000	65.265536  
3722.000000	65.268445  
3721.000000	65.277028  
3720.000000	65.292215  
3719.000000	65.313863  
3718.000000	65.340447  
3717.000000	65.368866  
3716.000000	65.394926  
3715.000000	65.414261  
3714.000000	65.423274  
3713.000000	65.419626  
3712.000000	65.402889  
3711.000000	65.374636  
3710.000000	65.338182  
3709.000000	65.298104  
3708.000000	65.259504  
3707.000000	65.226507  
3706.000000	65.201997  
3705.000000	65.187788  
3704.000000	65.184330  
3703.000000	65.190649  
3702.000000	65.205001  
3701.000000	65.225505  
3700.000000	65.250205  
3699.000000	65.277338  
3698.000000	65.305137  
3697.000000	65.331673  
3696.000000	65.354895  
3695.000000	65.372824  
3694.000000	65.383529  
3693.000000	65.385246  
3692.000000	65.376639  
3691.000000	65.357184  
3690.000000	65.326976  
3689.000000	65.287160  
3688.000000	65.239620  
3687.000000	65.186977  
3686.000000	65.132427  
3685.000000	65.079855  
3684.000000	65.033841  
3683.000000	64.999651  
3682.000000	64.982438  
3681.000000	64.986753  
3680.000000	65.015673  
3679.000000	65.070009  
3678.000000	65.147495  
3677.000000	65.242481  
3676.000000	65.346670  
3675.000000	65.449762  
3674.000000	65.541219  
3673.000000	65.611386  
3672.000000	65.653276  
3671.000000	65.663552  
3670.000000	65.643119  
3669.000000	65.596866  
3668.000000	65.532898  
3667.000000	65.460848  
3666.000000	65.390658  
3665.000000	65.330672  
3664.000000	65.286564  
3663.000000	65.260744  
3662.000000	65.252566  
3661.000000	65.258741  
3660.000000	65.274739  
3659.000000	65.295648  
3658.000000	65.317416  
3657.000000	65.337109  
3656.000000	65.353155  
3655.000000	65.365123  
3654.000000	65.372729  
3653.000000	65.375256  
3652.000000	65.371322  
3651.000000	65.358972  
3650.000000	65.336704  
3649.000000	65.304207  
3648.000000	65.263128  
3647.000000	65.217256  
3646.000000	65.172028  
3645.000000	65.133619  
3644.000000	65.107488  
3643.000000	65.096688  
3642.000000	65.101742  
3641.000000	65.120673  
3640.000000	65.149474  
3639.000000	65.182948  
3638.000000	65.215992  
3637.000000	65.244722  
3636.000000	65.266799  
3635.000000	65.281629  
3634.000000	65.289735  
3633.000000	65.292310  
3632.000000	65.290856  
3631.000000	65.286707  
3630.000000	65.281057  
3629.000000	65.274786  
3628.000000	65.268826  
3627.000000	65.264153  
3626.000000	65.261483  
3625.000000	65.261387  
3624.000000	65.263938  
3623.000000	65.269041  
3622.000000	65.276336  
3621.000000	65.285468  
3620.000000	65.296578  
3619.000000	65.309643  
3618.000000	65.324664  
3617.000000	65.340995  
3616.000000	65.357494  
3615.000000	65.371942  
3614.000000	65.381503  
3613.000000	65.383076  
3612.000000	65.374469  
3611.000000	65.354752  
3610.000000	65.324783  
3609.000000	65.287375  
3608.000000	65.246772  
3607.000000	65.207719  
3606.000000	65.174627  
3605.000000	65.150260  
3604.000000	65.135407  
3603.000000	65.129089  
3602.000000	65.129017  
3601.000000	65.132689  
3600.000000	65.138030  
3599.000000	65.143942  
3598.000000	65.150690  
3597.000000	65.159273  
3596.000000	65.171003  
3595.000000	65.186715  
3594.000000	65.206050  
3593.000000	65.227627  
3592.000000	65.248894  
3591.000000	65.266847  
3590.000000	65.278625  
3589.000000	65.282559  
3588.000000	65.278697  
3587.000000	65.268659  
3586.000000	65.255451  
3585.000000	65.242791  
3584.000000	65.234017  
3583.000000	65.231275  
3582.000000	65.234851  
3581.000000	65.243363  
3580.000000	65.253996  
3579.000000	65.263319  
3578.000000	65.268373  
3577.000000	65.267300  
3576.000000	65.260171  
3575.000000	65.248799  
3574.000000	65.236449  
3573.000000	65.226936  
3572.000000	65.223836  
3571.000000	65.229535  
3570.000000	65.244626  
3569.000000	65.268087  
3568.000000	65.297365  
3567.000000	65.329384  
3566.000000	65.360879  
3565.000000	65.389227  
3564.000000	65.413069  
3563.000000	65.432095  
3562.000000	65.446925  
3561.000000	65.458703  
3560.000000	65.468835  
3559.000000	65.478420  
3558.000000	65.488028  
3557.000000	65.497612  
3556.000000	65.506553  
3555.000000	65.513801  
3554.000000	65.518260  
3553.000000	65.518546  
3552.000000	65.513443  
3551.000000	65.501928  
3550.000000	65.483522  
3549.000000	65.458393  
3548.000000	65.427541  
3547.000000	65.392684  
3546.000000	65.356445  
3545.000000	65.322017  
3544.000000	65.292620  
3543.000000	65.271091  
3542.000000	65.259075  
3541.000000	65.256881  
3540.000000	65.263295  
3539.000000	65.275669  
3538.000000	65.290451  
3537.000000	65.303778  
3536.000000	65.312528  
3535.000000	65.314269  
3534.000000	65.308332  
3533.000000	65.295648  
3532.000000	65.278410  
3531.000000	65.259575  
3530.000000	65.241909  
3529.000000	65.227365  
3528.000000	65.216732  
3527.000000	65.209531  
3526.000000	65.204405  
3525.000000	65.199637  
3524.000000	65.193629  
3523.000000	65.185546  
3522.000000	65.175032  
3521.000000	65.162420  
3520.000000	65.148353  
3519.000000	65.133738  
3518.000000	65.119361  
3517.000000	65.105819  
3516.000000	65.093612  
3515.000000	65.083074  
3514.000000	65.074443  
3513.000000	65.067887  
3512.000000	65.063428  
3511.000000	65.061187  
3510.000000	65.061068  
3509.000000	65.063357  
3508.000000	65.068173  
3507.000000	65.075945  
3506.000000	65.087223  
3505.000000	65.102338  
3504.000000	65.121269  
3503.000000	65.143275  
3502.000000	65.166807  
3501.000000	65.189695  
3500.000000	65.209388  
3499.000000	65.223741  
3498.000000	65.231466  
3497.000000	65.232801  
3496.000000	65.229535  
3495.000000	65.224432  
3494.000000	65.220379  
3493.000000	65.219688  
3492.000000	65.223336  
3491.000000	65.230607  
3490.000000	65.239238  
3489.000000	65.246057  
3488.000000	65.248131  
3487.000000	65.243291  
3486.000000	65.231156  
3485.000000	65.213346  
3484.000000	65.193009  
3483.000000	65.174078  
3482.000000	65.160322  
3481.000000	65.154218  
3480.000000	65.156531  
3479.000000	65.166091  
3478.000000	65.180063  
3477.000000	65.194964  
3476.000000	65.207433  
3475.000000	65.215015  
3474.000000	65.216946  
3473.000000	65.214180  
3472.000000	65.209412  
3471.000000	65.206122  
3470.000000	65.207719  
3469.000000	65.216469  
3468.000000	65.232729  
3467.000000	65.254473  
3466.000000	65.277886  
3465.000000	65.298008  
3464.000000	65.310168  
3463.000000	65.311193  
3462.000000	65.300202  
3461.000000	65.279006  
3460.000000	65.251421  
3459.000000	65.222454  
3458.000000	65.196990  
3457.000000	65.178489  
3456.000000	65.168547  
3455.000000	65.166616  
3454.000000	65.170574  
3453.000000	65.177845  
3452.000000	65.186476  
3451.000000	65.195798  
3450.000000	65.206480  
3449.000000	65.220260  
3448.000000	65.238785  
3447.000000	65.262866  
3446.000000	65.291476  
3445.000000	65.322232  
3444.000000	65.351819  
3443.000000	65.376758  
3442.000000	65.394186  
3441.000000	65.402913  
3440.000000	65.403270  
3439.000000	65.397071  
3438.000000	65.386772  
3437.000000	65.374851  
3436.000000	65.363073  
3435.000000	65.352320  
3434.000000	65.342426  
3433.000000	65.332746  
3432.000000	65.322494  
3431.000000	65.311288  
3430.000000	65.299367  
3429.000000	65.287232  
3428.000000	65.276074  
3427.000000	65.266633  
3426.000000	65.259742  
3425.000000	65.255498  
3424.000000	65.253782  
3423.000000	65.254092  
3422.000000	65.255594  
3421.000000	65.257239  
3420.000000	65.257787  
3419.000000	65.255880  
3418.000000	65.250301  
3417.000000	65.240430  
3416.000000	65.226244  
3415.000000	65.208458  
3414.000000	65.188550  
3413.000000	65.168642  
3412.000000	65.150809  
3411.000000	65.136981  
3410.000000	65.128302  
3409.000000	65.124940  
3408.000000	65.126156  
3407.000000	65.130448  
3406.000000	65.135884  
3405.000000	65.140700  
3404.000000	65.143799  
3403.000000	65.144824  
3402.000000	65.144014  
3401.000000	65.141868  
3400.000000	65.139102  
3399.000000	65.136003  
3398.000000	65.132331  
3397.000000	65.127205  
3396.000000	65.119647  
3395.000000	65.108609  
3394.000000	65.093350  
3393.000000	65.073871  
3392.000000	65.051007  
3391.000000	65.026521  
3390.000000	65.002751  
3389.000000	64.982366  
3388.000000	64.967918  
3387.000000	64.961409  
3386.000000	64.964151  
3385.000000	64.976358  
3384.000000	64.997434  
3383.000000	65.025663  
3382.000000	65.058732  
3381.000000	65.093898  
3380.000000	65.128660  
3379.000000	65.160512  
3378.000000	65.187788  
3377.000000	65.209507  
3376.000000	65.225625  
3375.000000	65.236687  
3374.000000	65.243864  
3373.000000	65.248537  
3372.000000	65.251994  
3371.000000	65.255379  
3370.000000	65.259194  
3369.000000	65.263485  
3368.000000	65.267634  
3367.000000	65.270662  
3366.000000	65.271401  
3365.000000	65.269017  
3364.000000	65.262937  
3363.000000	65.253305  
3362.000000	65.240979  
3361.000000	65.227413  
3360.000000	65.214323  
3359.000000	65.203166  
3358.000000	65.195012  
3357.000000	65.189838  
3356.000000	65.186858  
3355.000000	65.184521  
3354.000000	65.180706  
3353.000000	65.173768  
3352.000000	65.163016  
3351.000000	65.148830  
3350.000000	65.132975  
3349.000000	65.117740  
3348.000000	65.105891  
3347.000000	65.099334  
3346.000000	65.098619  
3345.000000	65.102601  
3344.000000	65.108728  
3343.000000	65.113902  
3342.000000	65.115118  
3341.000000	65.110850  
3340.000000	65.101480  
3339.000000	65.089535  
3338.000000	65.078973  
3337.000000	65.074133  
3336.000000	65.078425  
3335.000000	65.093183  
3334.000000	65.117192  
3333.000000	65.146803  
3332.000000	65.176725  
3331.000000	65.201497  
3330.000000	65.216755  
3329.000000	65.220332  
3328.000000	65.212702  
3327.000000	65.196681  
3326.000000	65.176606  
3325.000000	65.156674  
3324.000000	65.140080  
3323.000000	65.128445  
3322.000000	65.121459  
3321.000000	65.117502  
3320.000000	65.114307  
3319.000000	65.110325  
3318.000000	65.104842  
3317.000000	65.098166  
3316.000000	65.091562  
3315.000000	65.086603  
3314.000000	65.084648  
3313.000000	65.086150  
3312.000000	65.090727  
3311.000000	65.097117  
3310.000000	65.103745  
3309.000000	65.109086  
3308.000000	65.112018  
3307.000000	65.112042  
3306.000000	65.108919  
3305.000000	65.102744  
3304.000000	65.093731  
3303.000000	65.082335  
3302.000000	65.069198  
3301.000000	65.055537  
3300.000000	65.042924  
3299.000000	65.033459  
3298.000000	65.029025  
3297.000000	65.031218  
3296.000000	65.040683  
3295.000000	65.057063  
3294.000000	65.079045  
3293.000000	65.104699  
3292.000000	65.132212  
3291.000000	65.159869  
3290.000000	65.186524  
3289.000000	65.211224  
3288.000000	65.233492  
3287.000000	65.252685  
3286.000000	65.268063  
3285.000000	65.278553  
3284.000000	65.282893  
3283.000000	65.280270  
3282.000000	65.270662  
3281.000000	65.255093  
3280.000000	65.235829  
3279.000000	65.216064  
3278.000000	65.199136  
3277.000000	65.188050  
3276.000000	65.184545  
3275.000000	65.189027  
3274.000000	65.200638  
3273.000000	65.217304  
3272.000000	65.236663  
3271.000000	65.256667  
3270.000000	65.275931  
3269.000000	65.294027  
3268.000000	65.311455  
3267.000000	65.329146  
3266.000000	65.347695  
3265.000000	65.367317  
3264.000000	65.386652  
3263.000000	65.403461  
3262.000000	65.414547  
3261.000000	65.416836  
3260.000000	65.408062  
3259.000000	65.387940  
3258.000000	65.358209  
3257.000000	65.322446  
3256.000000	65.285468  
3255.000000	65.252280  
3254.000000	65.226888  
3253.000000	65.211439  
3252.000000	65.205860  
3251.000000	65.208292  
3250.000000	65.215396  
3249.000000	65.223598  
3248.000000	65.229773  
3247.000000	65.232133  
3246.000000	65.230369  
3245.000000	65.225601  
3244.000000	65.219616  
3243.000000	65.214347  
3242.000000	65.211248  
3241.000000	65.210938  
3240.000000	65.213298  
3239.000000	65.217280  
3238.000000	65.221524  
3237.000000	65.224432  
3236.000000	65.224695  
3235.000000	65.221381  
3234.000000	65.214109  
3233.000000	65.203213  
3232.000000	65.189695  
3231.000000	65.175175  
3230.000000	65.161418  
3229.000000	65.149712  
3228.000000	65.140557  
3227.000000	65.133595  
3226.000000	65.127563  
3225.000000	65.120720  
3224.000000	65.111541  
3223.000000	65.099287  
3222.000000	65.084600  
3221.000000	65.069437  
3220.000000	65.056633  
3219.000000	65.049195  
3218.000000	65.049576  
3217.000000	65.058684  
3216.000000	65.075731  
3215.000000	65.098047  
3214.000000	65.121912  
3213.000000	65.143418  
3212.000000	65.159463  
3211.000000	65.168452  
3210.000000	65.170359  
3209.000000	65.166330  
3208.000000	65.158462  
3207.000000	65.148854  
3206.000000	65.139412  
3205.000000	65.131640  
3204.000000	65.126681  
3203.000000	65.125370  
3202.000000	65.128397  
3201.000000	65.136218  
3200.000000	65.148687  
3199.000000	65.165209  
3198.000000	65.184235  
3197.000000	65.203380  
3196.000000	65.219855  
3195.000000	65.230894  
3194.000000	65.234494  
3193.000000	65.229701  
3192.000000	65.217280  
3191.000000	65.199303  
3190.000000	65.178608  
3189.000000	65.158271  
3188.000000	65.140628  
3187.000000	65.127110  
3186.000000	65.118026  
3185.000000	65.112662  
3184.000000	65.109777  
3183.000000	65.108036  
3182.000000	65.106463  
3181.000000	65.104413  
3180.000000	65.101647  
3179.000000	65.098476  
3178.000000	65.095520  
3177.000000	65.093636  
3176.000000	65.093445  
3175.000000	65.095758  
3174.000000	65.101027  
3173.000000	65.109562  
3172.000000	65.121507  
3171.000000	65.136575  
3170.000000	65.154242  
3169.000000	65.173506  
3168.000000	65.192961  
3167.000000	65.211200  
3166.000000	65.226674  
3165.000000	65.238165  
3164.000000	65.244698  
3163.000000	65.245985  
3162.000000	65.242123  
3161.000000	65.233707  
3160.000000	65.221881  
3159.000000	65.207982  
3158.000000	65.193414  
3157.000000	65.179562  
3156.000000	65.167522  
3155.000000	65.158128  
3154.000000	65.151596  
3153.000000	65.147781  
3152.000000	65.146112  
3151.000000	65.146112  
3150.000000	65.147376  
3149.000000	65.149497  
3148.000000	65.152454  
3147.000000	65.156340  
3146.000000	65.161156  
3145.000000	65.166807  
3144.000000	65.172743  
3143.000000	65.178060  
3142.000000	65.181565  
3141.000000	65.182256  
3140.000000	65.179419  
3139.000000	65.173125  
3138.000000	65.164256  
3137.000000	65.154385  
3136.000000	65.145587  
3135.000000	65.139627  
3134.000000	65.137815  
3133.000000	65.140223  
3132.000000	65.145468  
3131.000000	65.151000  
3130.000000	65.153765  
3129.000000	65.150570  
3128.000000	65.139198  
3127.000000	65.118694  
3126.000000	65.089893  
3125.000000	65.055179  
3124.000000	65.017962  
3123.000000	64.982342  
3122.000000	64.952158  
3121.000000	64.930796  
3120.000000	64.920687  
3119.000000	64.923238  
3118.000000	64.938592  
3117.000000	64.965891  
3116.000000	65.002989  
3115.000000	65.046811  
3114.000000	65.093374  
3113.000000	65.138077  
3112.000000	65.176582  
3111.000000	65.204977  
3110.000000	65.220880  
3109.000000	65.223979  
3108.000000	65.216112  
3107.000000	65.200996  
3106.000000	65.183186  
3105.000000	65.167260  
3104.000000	65.156412  
3103.000000	65.152096  
3102.000000	65.153574  
3101.000000	65.158605  
3100.000000	65.164089  
3099.000000	65.167284  
3098.000000	65.166497  
3097.000000	65.161538  
3096.000000	65.153789  
3095.000000	65.145611  
3094.000000	65.139698  
3093.000000	65.137982  
3092.000000	65.141415  
3091.000000	65.149688  
3090.000000	65.161442  
3089.000000	65.174531  
3088.000000	65.186858  
3087.000000	65.196537  
3086.000000	65.202498  
3085.000000	65.204143  
3084.000000	65.201497  
3083.000000	65.194702  
3082.000000	65.184426  
3081.000000	65.171289  
3080.000000	65.156126  
3079.000000	65.139603  
3078.000000	65.122389  
3077.000000	65.105104  
3076.000000	65.088009  
3075.000000	65.071415  
3074.000000	65.055537  
3073.000000	65.041065  
3072.000000	65.028834  
3071.000000	65.020012  
3070.000000	65.016031  
3069.000000	65.018272  
3068.000000	65.027618  
3067.000000	65.044307  
3066.000000	65.067601  
3065.000000	65.095663  
3064.000000	65.125727  
3063.000000	65.154385  
3062.000000	65.178346  
3061.000000	65.194988  
3060.000000	65.202927  
3059.000000	65.202236  
3058.000000	65.194272  
3057.000000	65.181636  
3056.000000	65.167188  
3055.000000	65.153932  
3054.000000	65.143871  
3053.000000	65.138077  
3052.000000	65.136265  
3051.000000	65.137052  
3050.000000	65.138483  
3049.000000	65.138602  
3048.000000	65.136146  
3047.000000	65.130901  
3046.000000	65.123748  
3045.000000	65.116190  
3044.000000	65.109872  
3043.000000	65.105795  
3042.000000	65.104079  
3041.000000	65.103650  
3040.000000	65.102863  
3039.000000	65.100026  
3038.000000	65.094256  
3037.000000	65.085959  
3036.000000	65.076947  
3035.000000	65.069961  
3034.000000	65.067863  
3033.000000	65.072846  
3032.000000	65.085387  
3031.000000	65.104055  
3030.000000	65.125656  
3029.000000	65.145993  
3028.000000	65.161252  
3027.000000	65.168881  
3026.000000	65.168285  
3025.000000	65.161013  
3024.000000	65.149927  
3023.000000	65.138578  
3022.000000	65.129804  
3021.000000	65.125179  
3020.000000	65.124559  
3019.000000	65.126514  
3018.000000	65.128731  
3017.000000	65.128993  
3016.000000	65.126013  
3015.000000	65.119576  
3014.000000	65.110802  
3013.000000	65.101623  
3012.000000	65.094304  
3011.000000	65.090847  
3010.000000	65.092468  
3009.000000	65.099334  
3008.000000	65.110635  
3007.000000	65.125131  
3006.000000	65.141224  
3005.000000	65.157318  
3004.000000	65.171885  
3003.000000	65.183734  
3002.000000	65.192198  
3001.000000	65.196847  
3000.000000	65.197944  
2999.000000	65.195965  
2998.000000	65.191793  
2997.000000	65.186476  
2996.000000	65.180754  
2995.000000	65.175223  
2994.000000	65.169811  
2993.000000	65.164017  
2992.000000	65.156960  
2991.000000	65.147686  
2990.000000	65.135598  
2989.000000	65.120530  
2988.000000	65.103220  
2987.000000	65.085172  
2986.000000	65.068507  
2985.000000	65.055656  
2984.000000	65.048956  
2983.000000	65.050101  
2982.000000	65.060019  
2981.000000	65.078783  
2980.000000	65.105557  
2979.000000	65.138649  
2978.000000	65.175652  
2977.000000	65.213561  
2976.000000	65.249204  
2975.000000	65.279483  
2974.000000	65.301561  
2973.000000	65.313434  
2972.000000	65.314149  
2971.000000	65.303921  
2970.000000	65.284276  
2969.000000	65.257477  
2968.000000	65.226578  
2967.000000	65.194582  
2966.000000	65.164375  
2965.000000	65.138006  
2964.000000	65.116620  
2963.000000	65.100479  
2962.000000	65.089035  
2961.000000	65.081334  
2960.000000	65.076303  
2959.000000	65.073037  
2958.000000	65.071034  
2957.000000	65.070080  
2956.000000	65.070104  
2955.000000	65.070891  
2954.000000	65.072107  
2953.000000	65.073180  
2952.000000	65.073347  
2951.000000	65.072202  
2950.000000	65.069890  
2949.000000	65.067148  
2948.000000	65.065264  
2947.000000	65.065741  
2946.000000	65.069818  
2945.000000	65.077900  
2944.000000	65.089321  
2943.000000	65.102434  
2942.000000	65.114712  
2941.000000	65.123486  
2940.000000	65.126371  
2939.000000	65.121746  
2938.000000	65.109443  
2937.000000	65.090656  
2936.000000	65.067934  
2935.000000	65.044546  
2934.000000	65.023946  
2933.000000	65.009140  
2932.000000	65.001988  
2931.000000	65.002799  
2930.000000	65.010380  
2929.000000	65.022420  
2928.000000	65.036034  
2927.000000	65.048527  
2926.000000	65.057873  
2925.000000	65.063118  
2924.000000	65.064573  
2923.000000	65.063524  
2922.000000	65.061712  
2921.000000	65.060877  
2920.000000	65.062475  
2919.000000	65.067386  
2918.000000	65.075826  
2917.000000	65.087246  
2916.000000	65.100884  
2915.000000	65.115666  
2914.000000	65.130591  
2913.000000	65.144562  
2912.000000	65.156722  
2911.000000	65.166091  
2910.000000	65.172123  
2909.000000	65.174388  
2908.000000	65.173077  
2907.000000	65.168929  
2906.000000	65.163302  
2905.000000	65.157771  
2904.000000	65.153670  
2903.000000	65.152049  
2902.000000	65.153074  
2901.000000	65.156030  
2900.000000	65.159392  
2899.000000	65.161132  
2898.000000	65.159273  
2897.000000	65.152120  
2896.000000	65.139031  
2895.000000	65.120148  
2894.000000	65.096879  
2893.000000	65.071558  
2892.000000	65.047073  
2891.000000	65.026450  
2890.000000	65.012240  
2889.000000	65.006113  
2888.000000	65.008664  
2887.000000	65.019297  
2886.000000	65.036559  
2885.000000	65.058135  
2884.000000	65.081596  
2883.000000	65.104627  
2882.000000	65.125274  
2881.000000	65.142226  
2880.000000	65.154743  
2879.000000	65.162611  
2878.000000	65.165686  
2877.000000	65.163946  
2876.000000	65.157413  
2875.000000	65.146183  
2874.000000	65.130710  
2873.000000	65.111732  
2872.000000	65.090727  
2871.000000	65.069675  
2870.000000	65.050578  
2869.000000	65.035581  
2868.000000	65.026092  
2867.000000	65.023016  
2866.000000	65.026283  
2865.000000	65.035295  
2864.000000	65.048766  
2863.000000	65.065550  
2862.000000	65.084528  
2861.000000	65.104794  
2860.000000	65.125727  
2859.000000	65.146899  
2858.000000	65.167617  
2857.000000	65.187239  
2856.000000	65.204572  
2855.000000	65.218782  
2854.000000	65.229320  
2853.000000	65.236282  
2852.000000	65.240406  
2851.000000	65.242815  
2850.000000	65.244841  
2849.000000	65.247654  
2848.000000	65.251564  
2847.000000	65.256142  
2846.000000	65.260124  
2845.000000	65.261936  
2844.000000	65.260004  
2843.000000	65.253138  
2842.000000	65.240979  
2841.000000	65.224289  
2840.000000	65.204691  
2839.000000	65.184283  
2838.000000	65.165281  
2837.000000	65.149569  
2836.000000	65.138173  
2835.000000	65.131378  
2834.000000	65.128517  
2833.000000	65.128517  
2832.000000	65.129709  
2831.000000	65.130472  
2830.000000	65.129446  
2829.000000	65.125513  
2828.000000	65.118479  
2827.000000	65.108656  
2826.000000	65.097212  
2825.000000	65.085601  
2824.000000	65.075588  
2823.000000	65.068745  
2822.000000	65.066242  
2821.000000	65.068864  
2820.000000	65.076828  
2819.000000	65.089869  
2818.000000	65.107417  
2817.000000	65.128588  
2816.000000	65.152120  
2815.000000	65.176558  
2814.000000	65.200281  
2813.000000	65.221405  
2812.000000	65.238404  
2811.000000	65.250039  
2810.000000	65.255856  
2809.000000	65.256023  
2808.000000	65.251684  
2807.000000	65.244174  
2806.000000	65.235567  
2805.000000	65.227460  
2804.000000	65.221118  
2803.000000	65.216994  
2802.000000	65.214920  
2801.000000	65.214133  
2800.000000	65.213775  
2799.000000	65.213084  
2798.000000	65.211796  
2797.000000	65.210247  
2796.000000	65.209078  
2795.000000	65.209245  
2794.000000	65.211534  
2793.000000	65.216279  
2792.000000	65.223240  
2791.000000	65.231490  
2790.000000	65.239596  
2789.000000	65.246081  
2788.000000	65.249586  
2787.000000	65.249180  
2786.000000	65.244626  
2785.000000	65.236687  
2784.000000	65.226578  
2783.000000	65.215849  
2782.000000	65.205812  
2781.000000	65.197539  
2780.000000	65.191268  
2779.000000	65.186691  
2778.000000	65.182924  
2777.000000	65.179204  
2776.000000	65.174984  
2775.000000	65.170311  
2774.000000	65.166091  
2773.000000	65.163516  
2772.000000	65.164065  
2771.000000	65.168881  
2770.000000	65.178561  
2769.000000	65.192532  
2768.000000	65.209507  
2767.000000	65.227460  
2766.000000	65.244221  
2765.000000	65.257930  
2764.000000	65.267324  
2763.000000	65.272021  
2762.000000	65.272355  
2761.000000	65.269207  
2760.000000	65.263581  
2759.000000	65.256524  
2758.000000	65.248847  
2757.000000	65.241217  
2756.000000	65.234208  
2755.000000	65.228080  
2754.000000	65.223193  
2753.000000	65.219759  
2752.000000	65.217828  
2751.000000	65.217494  
2750.000000	65.218567  
2749.000000	65.220880  
2748.000000	65.224218  
2747.000000	65.228772  
2746.000000	65.234851  
2745.000000	65.243053  
2744.000000	65.253877  
2743.000000	65.267539  
2742.000000	65.283751  
2741.000000	65.301442  
2740.000000	65.318799  
2739.000000	65.333771  
2738.000000	65.344405  
2737.000000	65.349197  
2736.000000	65.347552  
2735.000000	65.339708  
2734.000000	65.326571  
2733.000000	65.309596  
2732.000000	65.290355  
2731.000000	65.270304  
2730.000000	65.250563  
2729.000000	65.232086  
2728.000000	65.215563  
2727.000000	65.201711  
2726.000000	65.191030  
2725.000000	65.184020  
2724.000000	65.180993  
2723.000000	65.181803  
2722.000000	65.186023  
2721.000000	65.192651  
2720.000000	65.200471  
2719.000000	65.208172  
2718.000000	65.214633  
2717.000000	65.219068  
2716.000000	65.221142  
2715.000000	65.220904  
2714.000000	65.218734  
2713.000000	65.215134  
2712.000000	65.210795  
2711.000000	65.206670  
2710.000000	65.203762  
2709.000000	65.203332  
2708.000000	65.206599  
2707.000000	65.214538  
2706.000000	65.227842  
2705.000000	65.246152  
2704.000000	65.268301  
2703.000000	65.291976  
2702.000000	65.314292  
2701.000000	65.332007  
2700.000000	65.342426  
2699.000000	65.343737  
2698.000000	65.335679  
2697.000000	65.319466  
2696.000000	65.297651  
2695.000000	65.273380  
2694.000000	65.250039  
2693.000000	65.230298  
2692.000000	65.215849  
2691.000000	65.207147  
2690.000000	65.203523  
2689.000000	65.203547  
2688.000000	65.205478  
2687.000000	65.207791  
2686.000000	65.209341  
2685.000000	65.209698  
2684.000000	65.209293  
2683.000000	65.208864  
2682.000000	65.209412  
2681.000000	65.211915  
2680.000000	65.216875  
2679.000000	65.224456  
2678.000000	65.234065  
2677.000000	65.244698  
2676.000000	65.254974  
2675.000000	65.263533  
2674.000000	65.269184  
2673.000000	65.271162  
2672.000000	65.269398  
2671.000000	65.264320  
2670.000000	65.256834  
2669.000000	65.248346  
2668.000000	65.240144  
2667.000000	65.233349  
2666.000000	65.228772  
2665.000000	65.226840  
2664.000000	65.227532  
2663.000000	65.230679  
2662.000000	65.235710  
2661.000000	65.241980  
2660.000000	65.248727  
2659.000000	65.255236  
2658.000000	65.260672  
2657.000000	65.264320  
2656.000000	65.265512  
2655.000000	65.263628  
2654.000000	65.258336  
2653.000000	65.249681  
2652.000000	65.238261  
2651.000000	65.225028  
2650.000000	65.211272  
2649.000000	65.198445  
2648.000000	65.188050  
2647.000000	65.181231  
2646.000000	65.178680  
2645.000000	65.180420  
2644.000000	65.185832  
2643.000000	65.193867  
2642.000000	65.203189  
2641.000000	65.212535  
2640.000000	65.220880  
2639.000000	65.227580  
2638.000000	65.232610  
2637.000000	65.236282  
2636.000000	65.239071  
2635.000000	65.240955  
2634.000000	65.241503  
2633.000000	65.239572  
2632.000000	65.233731  
2631.000000	65.222644  
2630.000000	65.205669  
2629.000000	65.183115  
2628.000000	65.156817  
2627.000000	65.129542  
2626.000000	65.104866  
2625.000000	65.086412  
2624.000000	65.077018  
2623.000000	65.078210  
2622.000000	65.089917  
2621.000000	65.110349  
2620.000000	65.136408  
2619.000000	65.164232  
2618.000000	65.189933  
2617.000000	65.210032  
2616.000000	65.222287  
2615.000000	65.225744  
2614.000000	65.220808  
2613.000000	65.209007  
2612.000000	65.192794  
2611.000000	65.174937  
2610.000000	65.158271  
2609.000000	65.145134  
2608.000000	65.136981  
2607.000000	65.134239  
2606.000000	65.136313  
2605.000000	65.141868  
2604.000000	65.149235  
2603.000000	65.156769  
2602.000000	65.163326  
2601.000000	65.168333  
2600.000000	65.171909  
2599.000000	65.174293  
2598.000000	65.176153  
2597.000000	65.177726  
2596.000000	65.179157  
2595.000000	65.180110  
2594.000000	65.180134  
2593.000000	65.178680  
2592.000000	65.175294  
2591.000000	65.169692  
2590.000000	65.161895  
2589.000000	65.152335  
2588.000000	65.141963  
2587.000000	65.131974  
2586.000000	65.123677  
2585.000000	65.118527  
2584.000000	65.117859  
2583.000000	65.122699  
2582.000000	65.133547  
2581.000000	65.149879  
2580.000000	65.170335  
2579.000000	65.192532  
2578.000000	65.213680  
2577.000000	65.230989  
2576.000000	65.242075  
2575.000000	65.245699  
2574.000000	65.242099  
2573.000000	65.232634  
2572.000000	65.219712  
2571.000000	65.206098  
2570.000000	65.194559  
2569.000000	65.187191  
2568.000000	65.185141  
2567.000000	65.188550  
2566.000000	65.196442  
2565.000000	65.207195  
2564.000000	65.218472  
2563.000000	65.228056  
2562.000000	65.233874  
2561.000000	65.234637  
2560.000000	65.229916  
2559.000000	65.220141  
2558.000000	65.206742  
2557.000000	65.191626  
2556.000000	65.177202  
2555.000000	65.165662  
2554.000000	65.158939  
2553.000000	65.158247  
2552.000000	65.163898  
2551.000000	65.175318  
2550.000000	65.191102  
2549.000000	65.209364  
2548.000000	65.227818  
2547.000000	65.244483  
2546.000000	65.257740  
2545.000000	65.266799  
2544.000000	65.271544  
2543.000000	65.272545  
2542.000000	65.270590  
2541.000000	65.266299  
2540.000000	65.260362  
2539.000000	65.252923  
2538.000000	65.244078  
2537.000000	65.233778  
2536.000000	65.222215  
2535.000000	65.209865  
2534.000000	65.197467  
2533.000000	65.185856  
2532.000000	65.175890  
2531.000000	65.168142  
2530.000000	65.162825  
2529.000000	65.159606  
2528.000000	65.157914  
2527.000000	65.156912  
2526.000000	65.155577  
2525.000000	65.153145  
2524.000000	65.149188  
2523.000000	65.143704  
2522.000000	65.137362  
2521.000000	65.131092  
2520.000000	65.126228  
2519.000000	65.124249  
2518.000000	65.126538  
2517.000000	65.134096  
2516.000000	65.147209  
2515.000000	65.165424  
2514.000000	65.187478  
2513.000000	65.211272  
2512.000000	65.234160  
2511.000000	65.253376  
2510.000000	65.266585  
2509.000000	65.272116  
2508.000000	65.269660  
2507.000000	65.259909  
2506.000000	65.244674  
2505.000000	65.226745  
2504.000000	65.209221  
2503.000000	65.194797  
2502.000000	65.185451  
2501.000000	65.182209  
2500.000000	65.184998  
2499.000000	65.192890  
2498.000000	65.204334  
2497.000000	65.217471  
2496.000000	65.230607  
2495.000000	65.242171  
2494.000000	65.250945  
2493.000000	65.256094  
2492.000000	65.256953  
2491.000000	65.253186  
2490.000000	65.244817  
2489.000000	65.232300  
2488.000000	65.216469  
2487.000000	65.198755  
2486.000000	65.180993  
2485.000000	65.165400  
2484.000000	65.154290  
2483.000000	65.149617  
2482.000000	65.152621  
2481.000000	65.163445  
2480.000000	65.181398  
2479.000000	65.204429  
2478.000000	65.229868  
2477.000000	65.254402  
2476.000000	65.274715  
2475.000000	65.287995  
2474.000000	65.292453  
2473.000000	65.287470  
2472.000000	65.273690  
2471.000000	65.253138  
2470.000000	65.228748  
2469.000000	65.203976  
2468.000000	65.182280  
2467.000000	65.166544  
2466.000000	65.158820  
2465.000000	65.159964  
2464.000000	65.169668  
2463.000000	65.186691  
2462.000000	65.209102  
2461.000000	65.234398  
2460.000000	65.260362  
2459.000000	65.284824  
2458.000000	65.306138  
2457.000000	65.323138  
2456.000000	65.335178  
2455.000000	65.342116  
2454.000000	65.344190  
2453.000000	65.341687  
2452.000000	65.335059  
2451.000000	65.325069  
2450.000000	65.312504  
2449.000000	65.298461  
2448.000000	65.283942  
2447.000000	65.269994  
2446.000000	65.257358  
2445.000000	65.246701  
2444.000000	65.238070  
2443.000000	65.231204  
2442.000000	65.225720  
2441.000000	65.221405  
2440.000000	65.218210  
2439.000000	65.216493  
2438.000000	65.216898  
2437.000000	65.220236  
2436.000000	65.227055  
2435.000000	65.237331  
2434.000000	65.250587  
2433.000000	65.265679  
2432.000000	65.280842  
2431.000000	65.294456  
2430.000000	65.305352  
2429.000000	65.313029  
2428.000000	65.317845  
2427.000000	65.320730  
2426.000000	65.323114  
2425.000000	65.326094  
2424.000000	65.330314  
2423.000000	65.335369  
2422.000000	65.340089  
2421.000000	65.342688  
2420.000000	65.341472  
2419.000000	65.335083  
2418.000000	65.322995  
2417.000000	65.305662  
2416.000000	65.284490  
2415.000000	65.261149  
2414.000000	65.237522  
2413.000000	65.215063  
2412.000000	65.194654  
2411.000000	65.176391  
2410.000000	65.160083  
2409.000000	65.145373  
2408.000000	65.132260  
2407.000000	65.121102  
2406.000000	65.112805  
2405.000000	65.108299  
2404.000000	65.108537  
2403.000000	65.114116  
2402.000000	65.124964  
2401.000000	65.140104  
2400.000000	65.157961  
2399.000000	65.176510  
2398.000000	65.193843  
2397.000000	65.208292  
2396.000000	65.219116  
2395.000000	65.226387  
2394.000000	65.230822  
2393.000000	65.233683  
2392.000000	65.236020  
2391.000000	65.238308  
2390.000000	65.240478  
2389.000000	65.241909  
2388.000000	65.241909  
2387.000000	65.240049  
2386.000000	65.236735  
2385.000000	65.233325  
2384.000000	65.231800  
2383.000000	65.234279  
2382.000000	65.242290  
2381.000000	65.256357  
2380.000000	65.275192  
2379.000000	65.296316  
2378.000000	65.316152  
2377.000000	65.331244  
2376.000000	65.339016  
2375.000000	65.338468  
2374.000000	65.330529  
2373.000000	65.317559  
2372.000000	65.302705  
2371.000000	65.289092  
2370.000000	65.278673  
2369.000000	65.272188  
2368.000000	65.269136  
2367.000000	65.268015  
2366.000000	65.267181  
2365.000000	65.265703  
2364.000000	65.263700  
2363.000000	65.262436  
2362.000000	65.263676  
2361.000000	65.269374  
2360.000000	65.280556  
2359.000000	65.296936  
2358.000000	65.316820  
2357.000000	65.337228  
2356.000000	65.354633  
2355.000000	65.365815  
2354.000000	65.368723  
2353.000000	65.362906  
2352.000000	65.349602  
2351.000000	65.331482  
2350.000000	65.311908  
2349.000000	65.294218  
2348.000000	65.281057  
2347.000000	65.273833  
2346.000000	65.272498  
2345.000000	65.276026  
2344.000000	65.282368  
2343.000000	65.289521  
2342.000000	65.295553  
2341.000000	65.299320  
2340.000000	65.300393  
2339.000000	65.299129  
2338.000000	65.296435  
2337.000000	65.293288  
2336.000000	65.290713  
2335.000000	65.289354  
2334.000000	65.289592  
2333.000000	65.291452  
2332.000000	65.294742  
2331.000000	65.299010  
2330.000000	65.303659  
2329.000000	65.308070  
2328.000000	65.311503  
2327.000000	65.313196  
2326.000000	65.312457  
2325.000000	65.308904  
2324.000000	65.302181  
2323.000000	65.292525  
2322.000000	65.280699  
2321.000000	65.268111  
2320.000000	65.256404  
2319.000000	65.247488  
2318.000000	65.243005  
2317.000000	65.244245  
2316.000000	65.251851  
2315.000000	65.265607  
2314.000000	65.284395  
2313.000000	65.306520  
2312.000000	65.329766  
2311.000000	65.351843  
2310.000000	65.370655  
2309.000000	65.384435  
2308.000000	65.392255  
2307.000000	65.393781  
2306.000000	65.389418  
2305.000000	65.380263  
2304.000000	65.367841  
2303.000000	65.353703  
2302.000000	65.339326  
2301.000000	65.325832  
2300.000000	65.313720  
2299.000000	65.302991  
2298.000000	65.293216  
2297.000000	65.283679  
2296.000000	65.273690  
2295.000000	65.262913  
2294.000000	65.251564  
2293.000000	65.240216  
2292.000000	65.229964  
2291.000000	65.221905  
2290.000000	65.217256  
2289.000000	65.216660  
2288.000000	65.220546  
2287.000000	65.228891  
2286.000000	65.241360  
2285.000000	65.257358  
2284.000000	65.276241  
2283.000000	65.297174  
2282.000000	65.319061  
2281.000000	65.340542  
2280.000000	65.360093  
2279.000000	65.376186  
2278.000000	65.387201  
2277.000000	65.391802  
2276.000000	65.389347  
2275.000000	65.379977  
2274.000000	65.364766  
2273.000000	65.345287  
2272.000000	65.323925  
2271.000000	65.303063  
2270.000000	65.284967  
2269.000000	65.271353  
2268.000000	65.263319  
2267.000000	65.261173  
2266.000000	65.264558  
2265.000000	65.272569  
2264.000000	65.283870  
2263.000000	65.297079  
2262.000000	65.310692  
2261.000000	65.323686  
2260.000000	65.335249  
2259.000000	65.344882  
2258.000000	65.352368  
2257.000000	65.357589  
2256.000000	65.360307  
2255.000000	65.359973  
2254.000000	65.356111  
2253.000000	65.348076  
2252.000000	65.335559  
2251.000000	65.318751  
2250.000000	65.298366  
2249.000000	65.275835  
2248.000000	65.252971  
2247.000000	65.231800  
2246.000000	65.214037  
2245.000000	65.200591  
2244.000000	65.191745  
2243.000000	65.186691  
2242.000000	65.184235  
2241.000000	65.182995  
2240.000000	65.182232  
2239.000000	65.181493  
2238.000000	65.181350  
2237.000000	65.182781  
2236.000000	65.187072  
2235.000000	65.194988  
2234.000000	65.206909  
2233.000000	65.222358  
2232.000000	65.240240  
2231.000000	65.259027  
2230.000000	65.277028  
2229.000000	65.292930  
2228.000000	65.305900  
2227.000000	65.315747  
2226.000000	65.322756  
2225.000000	65.327358  
2224.000000	65.330266  
2223.000000	65.332198  
2222.000000	65.333747  
2221.000000	65.335154  
2220.000000	65.336823  
2219.000000	65.338897  
2218.000000	65.341377  
2217.000000	65.343713  
2216.000000	65.345358  
2215.000000	65.345406  
2214.000000	65.342998  
2213.000000	65.337347  
2212.000000	65.328288  
2211.000000	65.315985  
2210.000000	65.301132  
2209.000000	65.284657  
2208.000000	65.267753  
2207.000000	65.251350  
2206.000000	65.236139  
2205.000000	65.222334  
2204.000000	65.209889  
2203.000000	65.198755  
2202.000000	65.188932  
2201.000000	65.180754  
2200.000000	65.174698  
2199.000000	65.171432  
2198.000000	65.171480  
2197.000000	65.174770  
2196.000000	65.180826  
2195.000000	65.188670  
2194.000000	65.197086  
2193.000000	65.204858  
2192.000000	65.211009  
2191.000000	65.215063  
2190.000000	65.217018  
2189.000000	65.217256  
2188.000000	65.216326  
2187.000000	65.214824  
2186.000000	65.213274  
2185.000000	65.212035  
2184.000000	65.211367  
2183.000000	65.211367  
2182.000000	65.212225  
2181.000000	65.214252  
2180.000000	65.217828  
2179.000000	65.223073  
2178.000000	65.230011  
2177.000000	65.238332  
2176.000000	65.247273  
2175.000000	65.255761  
2174.000000	65.262651  
2173.000000	65.266847  
2172.000000	65.267705  
2171.000000	65.264987  
2170.000000	65.259146  
2169.000000	65.251088  
2168.000000	65.242052  
2167.000000	65.233254  
2166.000000	65.225696  
2165.000000	65.219759  
2164.000000	65.215277  
2163.000000	65.211725  
2162.000000	65.208101  
2161.000000	65.203762  
2160.000000	65.198612  
2159.000000	65.193414  
2158.000000	65.189480  
2157.000000	65.188646  
2156.000000	65.192484  
2155.000000	65.202069  
2154.000000	65.217351  
2153.000000	65.237116  
2152.000000	65.258955  
2151.000000	65.280055  
2150.000000	65.297603  
2149.000000	65.309476  
2148.000000	65.314698  
2147.000000	65.313506  
2146.000000	65.307092  
2145.000000	65.297341  
2144.000000	65.285849  
2143.000000	65.273833  
2142.000000	65.261483  
2141.000000	65.248513  
2140.000000	65.234017  
2139.000000	65.217256  
2138.000000	65.197873  
2137.000000	65.176081  
2136.000000	65.153002  
2135.000000	65.130019  
2134.000000	65.109181  
2133.000000	65.092039  
2132.000000	65.080118  
2131.000000	65.074157  
2130.000000	65.074372  
2129.000000	65.080118  
2128.000000	65.090608  
2127.000000	65.104556  
2126.000000	65.120863  
2125.000000	65.138530  
2124.000000	65.156817  
2123.000000	65.175127  
2122.000000	65.193128  
2121.000000	65.210366  
2120.000000	65.226244  
2119.000000	65.239906  
2118.000000	65.250372  
2117.000000	65.256595  
2116.000000	65.257644  
2115.000000	65.252995  
2114.000000	65.242552  
2113.000000	65.226888  
2112.000000	65.207314  
2111.000000	65.185856  
2110.000000	65.164709  
2109.000000	65.146207  
2108.000000	65.132427  
2107.000000	65.124988  
2106.000000	65.124917  
2105.000000	65.132284  
2104.000000	65.146470  
2103.000000	65.166091  
2102.000000	65.189218  
2101.000000	65.213632  
2100.000000	65.237116  
2099.000000	65.257716  
2098.000000	65.274047  
2097.000000	65.285301  
2096.000000	65.291380  
2095.000000	65.292644  
2094.000000	65.289783  
2093.000000	65.283775  
2092.000000	65.275645  
2091.000000	65.266561  
2090.000000	65.257668  
2089.000000	65.250229  
2088.000000	65.245509  
2087.000000	65.244722  
2086.000000	65.248537  
2085.000000	65.257215  
2084.000000	65.270137  
2083.000000	65.285754  
2082.000000	65.301823  
2081.000000	65.315675  
2080.000000	65.324902  
2079.000000	65.327906  
2078.000000	65.324258  
2077.000000	65.314841  
2076.000000	65.301847  
2075.000000	65.287995  
2074.000000	65.276288  
2073.000000	65.268898  
2072.000000	65.267038  
2071.000000	65.270686  
2070.000000	65.278601  
2069.000000	65.288853  
2068.000000	65.299129  
2067.000000	65.307497  
2066.000000	65.312504  
2065.000000	65.313553  
2064.000000	65.310931  
2063.000000	65.305638  
2062.000000	65.299081  
2061.000000	65.292811  
2060.000000	65.288281  
2059.000000	65.286469  
2058.000000	65.288090  
2057.000000	65.292930  
2056.000000	65.300083  
2055.000000	65.307617  
2054.000000	65.313220  
2053.000000	65.314364  
2052.000000	65.308690  
2051.000000	65.294694  
2050.000000	65.272068  
2049.000000	65.242099  
2048.000000	65.207743  
2047.000000	65.173006  
2046.000000	65.142226  
2045.000000	65.119433  
2044.000000	65.107250  
2043.000000	65.106511  
2042.000000	65.115976  
2041.000000	65.132904  
2040.000000	65.153431  
2039.000000	65.173697  
2038.000000	65.190744  
2037.000000	65.202879  
2036.000000	65.210151  
2035.000000	65.213894  
2034.000000	65.216255  
2033.000000	65.219593  
2032.000000	65.225744  
2031.000000	65.235686  
2030.000000	65.249228  
2029.000000	65.265440  
2028.000000	65.282630  
2027.000000	65.299201  
2026.000000	65.313720  
2025.000000	65.325331  
2024.000000	65.333580  
2023.000000	65.338635  
2022.000000	65.340876  
2021.000000	65.340662  
2020.000000	65.338325  
2019.000000	65.334177  
2018.000000	65.328335  
2017.000000	65.320968  
2016.000000	65.312433  
2015.000000	65.303373  
2014.000000	65.294861  
2013.000000	65.288186  
2012.000000	65.284585  
2011.000000	65.285134  
2010.000000	65.290260  
2009.000000	65.299415  
2008.000000	65.311264  
2007.000000	65.323567  
2006.000000	65.333867  
2005.000000	65.339922  
2004.000000	65.340161  
2003.000000	65.334033  
2002.000000	65.322065  
2001.000000	65.305972  
2000.000000	65.287923  
1999.000000	65.270376  
1998.000000	65.255475  
1997.000000	65.244793  
1996.000000	65.238952  
1995.000000	65.237808  
1994.000000	65.240693  
1993.000000	65.246534  
1992.000000	65.254044  
1991.000000	65.262126  
1990.000000	65.269899  
1989.000000	65.276789  
1988.000000	65.282440  
1987.000000	65.286946  
1986.000000	65.290570  
1985.000000	65.293931  
1984.000000	65.297555  
1983.000000	65.301799  
1982.000000	65.306735  
1981.000000	65.311980  
1980.000000	65.316867  
1979.000000	65.320563  
1978.000000	65.322351  
1977.000000	65.321969  
1976.000000	65.319466  
1975.000000	65.315485  
1974.000000	65.310597  
1973.000000	65.305495  
1972.000000	65.300512  
1971.000000	65.295481  
1970.000000	65.289902  
1969.000000	65.283107  
1968.000000	65.274500  
1967.000000	65.263891  
1966.000000	65.251827  
1965.000000	65.239500  
1964.000000	65.228533  
1963.000000	65.220546  
1962.000000	65.216588  
1961.000000	65.216898  
1960.000000	65.220832  
1959.000000	65.226769  
1958.000000	65.232658  
1957.000000	65.236449  
1956.000000	65.236568  
1955.000000	65.232229  
1954.000000	65.223789  
1953.000000	65.212655  
1952.000000	65.200996  
1951.000000	65.191149  
1950.000000	65.185260  
1949.000000	65.184712  
1948.000000	65.189909  
1947.000000	65.200090  
1946.000000	65.213561  
1945.000000	65.228152  
1944.000000	65.241670  
1943.000000	65.252637  
1942.000000	65.260148  
1941.000000	65.264272  
1940.000000	65.265703  
1939.000000	65.265417  
1938.000000	65.264320  
1937.000000	65.263080  
1936.000000	65.261745  
1935.000000	65.260076  
1934.000000	65.257740  
1933.000000	65.254664  
1932.000000	65.251088  
1931.000000	65.247869  
1930.000000	65.246272  
1929.000000	65.247559  
1928.000000	65.252661  
1927.000000	65.261816  
1926.000000	65.274333  
1925.000000	65.288567  
1924.000000	65.302228  
1923.000000	65.312910  
1922.000000	65.318465  
1921.000000	65.317440  
1920.000000	65.309262  
1919.000000	65.294480  
1918.000000	65.274453  
1917.000000	65.251183  
1916.000000	65.226793  
1915.000000	65.203380  
1914.000000	65.182566  
1913.000000	65.165305  
1912.000000	65.152001  
1911.000000	65.142488  
1910.000000	65.136528  
1909.000000	65.133738  
1908.000000	65.134072  
1907.000000	65.137481  
1906.000000	65.143918  
1905.000000	65.153193  
1904.000000	65.164804  
1903.000000	65.177774  
1902.000000	65.190982  
1901.000000	65.203237  
1900.000000	65.213584  
1899.000000	65.221595  
1898.000000	65.227317  
1897.000000	65.231394  
1896.000000	65.234589  
1895.000000	65.237760  
1894.000000	65.241265  
1893.000000	65.244817  
1892.000000	65.247535  
1891.000000	65.248560  
1890.000000	65.247035  
1889.000000	65.242767  
1888.000000	65.236186  
1887.000000	65.228414  
1886.000000	65.220880  
1885.000000	65.214920  
1884.000000	65.211415  
1883.000000	65.210604  
1882.000000	65.211892  
1881.000000	65.214300  
1880.000000	65.216898  
1879.000000	65.218830  
1878.000000	65.219688  
1877.000000	65.219640  
1876.000000	65.219140  
1875.000000	65.218806  
1874.000000	65.219068  
1873.000000	65.220069  
1872.000000	65.221667  
1871.000000	65.223765  
1870.000000	65.226268  
1869.000000	65.229487  
1868.000000	65.233826  
1867.000000	65.239953  
1866.000000	65.248346  
1865.000000	65.258955  
1864.000000	65.271186  
1863.000000	65.283846  
1862.000000	65.295386  
1861.000000	65.304255  
1860.000000	65.309357  
1859.000000	65.310406  
1858.000000	65.308046  
1857.000000	65.303730  
1856.000000	65.299534  
1855.000000	65.297651  
1854.000000	65.299987  
1853.000000	65.307641  
1852.000000	65.320682  
1851.000000	65.338230  
1850.000000	65.358448  
1849.000000	65.378904  
1848.000000	65.396904  
1847.000000	65.409994  
1846.000000	65.416359  
1845.000000	65.414881  
1844.000000	65.405774  
1843.000000	65.390348  
1842.000000	65.370893  
1841.000000	65.350317  
1840.000000	65.331697  
1839.000000	65.317416  
1838.000000	65.309357  
1837.000000	65.307950  
1836.000000	65.312671  
1835.000000	65.322017  
1834.000000	65.333938  
1833.000000	65.346312  
1832.000000	65.357255  
1831.000000	65.365672  
1830.000000	65.370893  
1829.000000	65.373134  
1828.000000	65.372920  
1827.000000	65.371155  
1826.000000	65.368604  
1825.000000	65.365767  
1824.000000	65.362763  
1823.000000	65.359401  
1822.000000	65.355300  
1821.000000	65.349936  
1820.000000	65.342807  
1819.000000	65.333628  
1818.000000	65.322399  
1817.000000	65.309596  
1816.000000	65.296244  
1815.000000	65.283584  
1814.000000	65.273070  
1813.000000	65.266180  
1812.000000	65.264201  
1811.000000	65.267992  
1810.000000	65.277719  
1809.000000	65.292882  
1808.000000	65.312290  
1807.000000	65.334343  
1806.000000	65.356922  
1805.000000	65.377831  
1804.000000	65.394997  
1803.000000	65.406751  
1802.000000	65.412330  
1801.000000	65.411806  
1800.000000	65.406203  
1799.000000	65.397405  
1798.000000	65.387582  
1797.000000	65.378880  
1796.000000	65.373039  
1795.000000	65.371060  
1794.000000	65.372824  
1793.000000	65.377259  
1792.000000	65.382647  
1791.000000	65.386795  
1790.000000	65.387535  
1789.000000	65.383124  
1788.000000	65.372538  
1787.000000	65.355634  
1786.000000	65.333294  
1785.000000	65.307378  
1784.000000	65.280365  
1783.000000	65.255045  
1782.000000	65.234088  
1781.000000	65.219759  
1780.000000	65.213322  
1779.000000	65.215277  
1778.000000	65.225076  
1777.000000	65.241408  
1776.000000	65.262150  
1775.000000	65.284919  
1774.000000	65.307497  
1773.000000	65.327954  
1772.000000	65.344858  
1771.000000	65.357518  
1770.000000	65.366005  
1769.000000	65.370988  
1768.000000	65.373516  
1767.000000	65.374565  
1766.000000	65.374803  
1765.000000	65.374588  
1764.000000	65.373706  
1763.000000	65.371775  
1762.000000	65.368103  
1761.000000	65.362167  
1760.000000	65.353703  
1759.000000	65.342760  
1758.000000	65.329957  
1757.000000	65.316200  
1756.000000	65.302467  
1755.000000	65.289783  
1754.000000	65.279030  
1753.000000	65.270876  
1752.000000	65.265369  
1751.000000	65.262031  
1750.000000	65.259838  
1749.000000	65.257692  
1748.000000	65.254497  
1747.000000	65.249276  
1746.000000	65.241742  
1745.000000	65.232181  
1744.000000	65.221858  
1743.000000	65.212535  
1742.000000	65.206098  
1741.000000	65.204000  
1740.000000	65.206718  
1739.000000	65.213513  
1738.000000	65.222549  
1737.000000	65.231084  
1736.000000	65.236139  
1735.000000	65.235114  
1734.000000	65.226793  
1733.000000	65.211367  
1732.000000	65.190291  
1731.000000	65.166115  
1730.000000	65.141749  
1729.000000	65.120029  
1728.000000	65.103030  
1727.000000	65.092134  
1726.000000	65.087699  
1725.000000	65.089702  
1724.000000	65.097856  
1723.000000	65.111923  
1722.000000	65.131449  
1721.000000	65.155720  
1720.000000	65.183424  
1719.000000	65.212559  
1718.000000	65.240406  
1717.000000	65.264034  
1716.000000	65.280747  
1715.000000	65.288853  
1714.000000	65.288209  
1713.000000	65.280318  
1712.000000	65.268015  
1711.000000	65.255045  
1710.000000	65.245437  
1709.000000	65.242600  
1708.000000	65.248703  
1707.000000	65.264654  
1706.000000	65.289449  
1705.000000	65.320944  
1704.000000	65.355706  
1703.000000	65.389943  
1702.000000	65.419769  
1701.000000	65.441823  
1700.000000	65.453600  
1699.000000	65.453767  
1698.000000	65.442371  
1697.000000	65.420794  
1696.000000	65.391659  
1695.000000	65.358662  
1694.000000	65.325999  
1693.000000	65.297961  
1692.000000	65.278005  
1691.000000	65.268468  
1690.000000	65.269947  
1689.000000	65.281319  
1688.000000	65.299963  
1687.000000	65.322470  
1686.000000	65.345048  
1685.000000	65.364551  
1684.000000	65.378999  
1683.000000	65.387773  
1682.000000	65.391588  
1681.000000	65.391921  
1680.000000	65.390443  
1679.000000	65.388321  
1678.000000	65.385913  
1677.000000	65.382385  
1676.000000	65.376400  
1675.000000	65.366363  
1674.000000	65.351462  
1673.000000	65.331888  
1672.000000	65.308952  
1671.000000	65.285062  
1670.000000	65.263009  
1669.000000	65.245413  
1668.000000	65.233826  
1667.000000	65.228939  
1666.000000	65.230202  
1665.000000	65.236544  
1664.000000	65.246701  
1663.000000	65.260004  
1662.000000	65.276575  
1661.000000	65.297293  
1660.000000	65.323376  
1659.000000	65.355753  
1658.000000	65.394377  
1657.000000	65.437722  
1656.000000	65.482783  
1655.000000	65.525650  
1654.000000	65.561890  
1653.000000	65.587615  
1652.000000	65.599894  
1651.000000	65.597438  
1650.000000	65.580534  
1649.000000	65.551209  
1648.000000	65.512752  
1647.000000	65.469384  
1646.000000	65.425634  
1645.000000	65.386104  
1644.000000	65.354633  
1643.000000	65.333914  
1642.000000	65.324926  
1641.000000	65.327048  
1640.000000	65.337753  
1639.000000	65.353178  
1638.000000	65.368723  
1637.000000	65.379929  
1636.000000	65.383410  
1635.000000	65.377354  
1634.000000	65.362048  
1633.000000	65.339279  
1632.000000	65.312027  
1631.000000	65.283489  
1630.000000	65.256333  
1629.000000	65.232300  
1628.000000	65.212202  
1627.000000	65.196228  
1626.000000	65.184235  
1625.000000	65.175962  
1624.000000	65.171360  
1623.000000	65.170454  
1622.000000	65.172791  
1621.000000	65.177774  
1620.000000	65.184354  
1619.000000	65.191340  
1618.000000	65.197658  
1617.000000	65.202379  
1616.000000	65.204858  
1615.000000	65.204977  
1614.000000	65.203356  
1613.000000	65.200614  
1612.000000	65.197253  
1611.000000	65.193629  
1610.000000	65.189957  
1609.000000	65.186285  
1608.000000	65.182518  
1607.000000	65.178823  
1606.000000	65.175628  
1605.000000	65.173268  
1604.000000	65.171957  
1603.000000	65.171527  
1602.000000	65.171194  
1601.000000	65.169620  
1600.000000	65.165328  
1599.000000	65.157151  
1598.000000	65.144538  
1597.000000	65.127754  
1596.000000	65.108203  
1595.000000	65.088152  
1594.000000	65.070462  
1593.000000	65.057516  
1592.000000	65.051245  
1591.000000	65.052533  
1590.000000	65.061473  
1589.000000	65.077185  
1588.000000	65.098500  
1587.000000	65.124058  
1586.000000	65.153002  
1585.000000	65.185022  
1584.000000	65.220141  
1583.000000	65.258097  
1582.000000	65.298175  
1581.000000	65.338873  
1580.000000	65.377807  
1579.000000	65.412044  
1578.000000	65.438699  
1577.000000	65.455484  
1576.000000	65.461421  
1575.000000	65.457081  
1574.000000	65.444278  
1573.000000	65.425920  
1572.000000	65.405488  
1571.000000	65.386795  
1570.000000	65.373563  
1569.000000	65.369248  
1568.000000	65.376830  
1567.000000	65.398168  
1566.000000	65.434098  
1565.000000	65.483188  
1564.000000	65.542411  
1563.000000	65.606307  
1562.000000	65.667963  
1561.000000	65.719532  
1560.000000	65.753889  
1559.000000	65.766024  
1558.000000	65.754055  
1557.000000	65.719819  
1556.000000	65.668678  
1555.000000	65.608119  
1554.000000	65.546369  
1553.000000	65.490603  
1552.000000	65.445923  
1551.000000	65.415000  
1550.000000	65.398144  
1549.000000	65.393948  
1548.000000	65.399789  
1547.000000	65.412783  
1546.000000	65.429997  
1545.000000	65.448427  
1544.000000	65.465378  
1543.000000	65.478491  
1542.000000	65.486097  
1541.000000	65.487051  
1540.000000	65.481066  
1539.000000	65.468621  
1538.000000	65.450859  
1537.000000	65.429401  
1536.000000	65.406227  
1535.000000	65.383386  
1534.000000	65.362811  
1533.000000	65.345978  
1532.000000	65.334343  
1531.000000	65.329289  
1530.000000	65.332055  
1529.000000	65.343451  
1528.000000	65.363574  
1527.000000	65.391707  
1526.000000	65.425825  
1525.000000	65.462589  
1524.000000	65.497756  
1523.000000	65.526604  
1522.000000	65.545058  
1521.000000	65.550637  
1520.000000	65.542674  
1519.000000	65.522718  
1518.000000	65.494418  
1517.000000	65.462636  
1516.000000	65.432691  
1515.000000	65.409135  
1514.000000	65.395092  
1513.000000	65.391254  
1512.000000	65.396499  
1511.000000	65.407800  
1510.000000	65.421319  
1509.000000	65.433096  
1508.000000	65.440011  
1507.000000	65.440416  
1506.000000	65.434217  
1505.000000	65.423083  
1504.000000	65.409541  
1503.000000	65.396642  
1502.000000	65.387058  
1501.000000	65.382552  
1500.000000	65.383601  
1499.000000	65.389418  
1498.000000	65.398144  
1497.000000	65.407347  
1496.000000	65.414571  
1495.000000	65.417814  
1494.000000	65.415668  
1493.000000	65.407609  
1492.000000	65.393543  
1491.000000	65.374112  
1490.000000	65.350174  
1489.000000	65.322732  
1488.000000	65.292859  
1487.000000	65.261769  
1486.000000	65.230846  
1485.000000	65.201568  
1484.000000	65.175747  
1483.000000	65.154981  
1482.000000	65.140771  
1481.000000	65.134119  
1480.000000	65.135431  
1479.000000	65.144062  
1478.000000	65.158557  
1477.000000	65.176582  
1476.000000	65.195441  
1475.000000	65.212130  
1474.000000	65.223956  
1473.000000	65.229129  
1472.000000	65.227055  
1471.000000	65.218567  
1470.000000	65.206098  
1469.000000	65.193128  
1468.000000	65.184020  
1467.000000	65.183091  
1466.000000	65.193819  
1465.000000	65.217828  
1464.000000	65.254902  
1463.000000	65.301966  
1462.000000	65.353798  
1461.000000	65.403366  
1460.000000	65.443420  
1459.000000	65.467500  
1458.000000	65.471053  
1457.000000	65.452384  
1456.000000	65.413236  
1455.000000	65.358281  
1454.000000	65.294098  
1453.000000	65.228080  
1452.000000	65.167331  
1451.000000	65.117216  
1450.000000	65.080738  
1449.000000	65.058374  
1448.000000	65.048503  
1447.000000	65.048170  
1446.000000	65.054297  
1445.000000	65.064072  
1444.000000	65.075445  
1443.000000	65.087532  
1442.000000	65.100336  
1441.000000	65.114188  
1440.000000	65.129351  
1439.000000	65.145850  
1438.000000	65.163540  
1437.000000	65.182042  
1436.000000	65.200686  
1435.000000	65.219044  
1434.000000	65.236854  
1433.000000	65.253973  
1432.000000	65.270566  
1431.000000	65.287041  
1430.000000	65.303778  
1429.000000	65.321111  
1428.000000	65.338945  
1427.000000	65.356969  
1426.000000	65.374135  
1425.000000	65.389251  
1424.000000	65.400457  
1423.000000	65.405654  
1422.000000	65.402913  
1421.000000	65.391063  
1420.000000	65.369725  
1419.000000	65.339708  
1418.000000	65.302991  
1417.000000	65.262770  
1416.000000	65.222811  
1415.000000	65.186786  
1414.000000	65.157818  
1413.000000	65.137672  
1412.000000	65.126895  
1411.000000	65.124535  
1410.000000	65.128374  
1409.000000	65.135765  
1408.000000	65.143799  
1407.000000	65.150475  
1406.000000	65.154075  
1405.000000	65.154337  
1404.000000	65.151500  
1403.000000	65.146851  
1402.000000	65.141654  
1401.000000	65.137362  
1400.000000	65.135288  
1399.000000	65.136361  
1398.000000	65.140914  
1397.000000	65.148544  
1396.000000	65.158581  
1395.000000	65.169596  
1394.000000	65.180039  
1393.000000	65.188217  
1392.000000	65.192794  
1391.000000	65.192937  
1390.000000	65.188431  
1389.000000	65.179753  
1388.000000	65.167856  
1387.000000	65.154075  
1386.000000	65.139818  
1385.000000	65.126085  
1384.000000	65.113520  
1383.000000	65.102529  
1382.000000	65.093398  
1381.000000	65.086364  
1380.000000	65.081834  
1379.000000	65.080451  
1378.000000	65.082740  
1377.000000	65.088868  
1376.000000	65.098381  
1375.000000	65.109753  
1374.000000	65.121054  
1373.000000	65.129971  
1372.000000	65.134620  
1371.000000	65.133786  
1370.000000	65.127539  
1369.000000	65.117073  
1368.000000	65.104436  
1367.000000	65.092158  
1366.000000	65.082430  
1365.000000	65.076613  
1364.000000	65.074872  
1363.000000	65.076303  
1362.000000	65.079355  
1361.000000	65.082192  
1360.000000	65.083599  
1359.000000	65.082979  
1358.000000	65.080833  
1357.000000	65.078449  
1356.000000	65.077376  
1355.000000	65.079164  
1354.000000	65.084552  
1353.000000	65.093374  
1352.000000	65.104627  
1351.000000	65.116596  
1350.000000	65.127015  
1349.000000	65.133810  
1348.000000	65.135407  
1347.000000	65.131282  
1346.000000	65.121960  
1345.000000	65.109014  
1344.000000	65.094590  
1343.000000	65.081071  
1342.000000	65.070581  
1341.000000	65.064406  
1340.000000	65.063023  
1339.000000	65.065884  
1338.000000	65.071678  
1337.000000	65.078759  
1336.000000	65.085649  
1335.000000	65.091204  
1334.000000	65.094900  
1333.000000	65.096926  
1332.000000	65.098071  
1331.000000	65.099310  
1330.000000	65.101814  
1329.000000	65.106344  
1328.000000	65.113353  
1327.000000	65.122914  
1326.000000	65.134572  
1325.000000	65.147662  
1324.000000	65.161061  
1323.000000	65.173768  
1322.000000	65.184259  
1321.000000	65.191292  
1320.000000	65.193486  
1319.000000	65.189790  
1318.000000	65.179634  
1317.000000	65.162968  
1316.000000	65.140986  
1315.000000	65.115904  
1314.000000	65.090823  
1313.000000	65.069317  
1312.000000	65.054726  
1311.000000	65.049481  
1310.000000	65.054559  
1309.000000	65.069293  
1308.000000	65.091681  
1307.000000	65.118813  
1306.000000	65.147471  
1305.000000	65.174770  
1304.000000	65.198445  
1303.000000	65.217089  
1302.000000	65.230035  
1301.000000	65.237045  
1300.000000	65.238380  
1299.000000	65.234231  
1298.000000	65.225315  
1297.000000	65.212345  
1296.000000	65.196442  
1295.000000	65.178894  
1294.000000	65.161514  
1293.000000	65.145659  
1292.000000	65.132355  
1291.000000	65.121984  
1290.000000	65.114140  
1289.000000	65.107941  
1288.000000	65.102267  
1287.000000	65.096282  
1286.000000	65.089726  
1285.000000	65.082955  
1284.000000	65.076971  
1283.000000	65.073013  
1282.000000	65.072107  
1281.000000	65.074825  
1280.000000	65.080857  
1279.000000	65.089225  
1278.000000	65.098309  
1277.000000	65.106225  
1276.000000	65.111303  
1275.000000	65.112376  
1274.000000	65.109205  
1273.000000	65.102291  
1272.000000	65.093183  
1271.000000	65.083742  
1270.000000	65.076088  
1269.000000	65.072250  
1268.000000	65.073823  
1267.000000	65.081620  
1266.000000	65.095520  
1265.000000	65.114378  
1264.000000	65.136146  
1263.000000	65.158176  
1262.000000	65.177750  
1261.000000	65.192317  
1260.000000	65.200066  
1259.000000	65.200233  
1258.000000	65.193057  
1257.000000	65.179610  
1256.000000	65.161728  
1255.000000	65.141582  
1254.000000	65.121364  
1253.000000	65.103077  
1252.000000	65.088391  
1251.000000	65.078496  
1250.000000	65.074181  
1249.000000	65.075659  
1248.000000	65.082454  
1247.000000	65.093445  
1246.000000	65.107035  
1245.000000	65.121173  
1244.000000	65.133500  
1243.000000	65.141844  
1242.000000	65.144610  
1241.000000	65.141105  
1240.000000	65.131807  
1239.000000	65.118217  
1238.000000	65.102696  
1237.000000	65.088009  
1236.000000	65.076804  
1235.000000	65.071034  
1234.000000	65.071606  
1233.000000	65.078163  
1232.000000	65.089535  
1231.000000	65.103840  
1230.000000	65.119171  
1229.000000	65.133857  
1228.000000	65.146708  
1227.000000	65.156865  
1226.000000	65.163779  
1225.000000	65.166974  
1224.000000	65.166044  
1223.000000	65.160655  
1222.000000	65.150761  
1221.000000	65.136909  
1220.000000	65.120291  
1219.000000	65.102696  
1218.000000	65.086364  
1217.000000	65.073418  
1216.000000	65.065741  
1215.000000	65.064311  
1214.000000	65.069365  
1213.000000	65.080094  
1212.000000	65.095162  
1211.000000	65.112829  
1210.000000	65.131545  
1209.000000	65.149855  
1208.000000	65.166759  
1207.000000	65.181422  
1206.000000	65.193319  
1205.000000	65.201902  
1204.000000	65.206694  
1203.000000	65.207338  
1202.000000	65.203785  
1201.000000	65.196299  
1200.000000	65.185427  
1199.000000	65.171861  
1198.000000	65.156245  
1197.000000	65.138936  
1196.000000	65.120053  
1195.000000	65.099358  
1194.000000	65.076661  
1193.000000	65.051889  
1192.000000	65.025544  
1191.000000	64.998769  
1190.000000	64.973449  
1189.000000	64.951872  
1188.000000	64.936351  
1187.000000	64.928817  
1186.000000	64.930129  
1185.000000	64.939951  
1184.000000	64.956545  
1183.000000	64.977478  
1182.000000	64.999532  
1181.000000	65.019726  
1180.000000	65.035843  
1179.000000	65.046644  
1178.000000	65.052103  
1177.000000	65.053176  
1176.000000	65.051341  
1175.000000	65.048122  
1174.000000	65.044808  
1173.000000	65.042185  
1172.000000	65.040588  
1171.000000	65.040063  
1170.000000	65.040540  
1169.000000	65.042090  
1168.000000	65.044760  
1167.000000	65.048861  
1166.000000	65.054655  
1165.000000	65.061974  
1164.000000	65.070152  
1163.000000	65.078210  
1162.000000	65.084767  
1161.000000	65.087985  
1160.000000	65.086102  
1159.000000	65.077996  
1158.000000	65.063691  
1157.000000	65.044140  
1156.000000	65.021514  
1155.000000	64.998912  
1154.000000	64.979863  
1153.000000	64.967465  
1152.000000	64.963889  
1151.000000	64.969754  
1150.000000	64.983963  
1149.000000	65.004158  
1148.000000	65.026807  
1147.000000	65.048050  
1146.000000	65.064311  
1145.000000	65.073132  
1144.000000	65.073370  
1143.000000	65.065383  
1142.000000	65.050911  
1141.000000	65.032958  
1140.000000	65.014767  
1139.000000	64.999794  
1138.000000	64.991068  
1137.000000	64.990997  
1136.000000	65.001058  
1135.000000	65.021347  
1134.000000	65.051054  
1133.000000	65.088081  
1132.000000	65.129494  
1131.000000	65.171670  
1130.000000	65.210986  
1129.000000	65.244007  
1128.000000	65.268087  
1127.000000	65.281391  
1126.000000	65.283060  
1125.000000	65.273404  
1124.000000	65.253806  
1123.000000	65.226554  
1122.000000	65.194725  
1121.000000	65.161824  
1120.000000	65.131211  
1119.000000	65.105390  
1118.000000	65.085482  
1117.000000	65.071153  
1116.000000	65.060544  
1115.000000	65.050649  
1114.000000	65.038418  
1113.000000	65.021252  
1112.000000	64.997863  
1111.000000	64.968466  
1110.000000	64.934992  
1109.000000	64.900350  
1108.000000	64.868092  
1107.000000	64.841246  
1106.000000	64.822053  
1105.000000	64.811086  
1104.000000	64.807772  
1103.000000	64.810371  
1102.000000	64.816617  
1101.000000	64.824032  
1100.000000	64.830780  
1099.000000	64.835596  
1098.000000	64.838075  
1097.000000	64.838314  
1096.000000	64.836931  
1095.000000	64.834737  
1094.000000	64.832735  
1093.000000	64.832043  
1092.000000	64.833688  
1091.000000	64.838624  
1090.000000	64.847731  
1089.000000	64.861583  
1088.000000	64.880299  
1087.000000	64.903044  
1086.000000	64.928555  
1085.000000	64.954829  
1084.000000	64.979314  
1083.000000	64.999485  
1082.000000	65.013170  
1081.000000	65.019249  
1080.000000	65.017271  
1079.000000	65.007972  
1078.000000	64.993095  
1077.000000	64.974904  
1076.000000	64.956092  
1075.000000	64.939045  
1074.000000	64.925813  
1073.000000	64.917778  
1072.000000	64.915633  
1071.000000	64.919519  
1070.000000	64.928913  
1069.000000	64.943003  
1068.000000	64.960813  
1067.000000	64.981198  
1066.000000	65.002846  
1065.000000	65.024542  
1064.000000	65.045285  
1063.000000	65.064263  
1062.000000	65.081143  
1061.000000	65.096163  
1060.000000	65.110087  
1059.000000	65.124249  
1058.000000	65.140104  
1057.000000	65.158939  
1056.000000	65.181279  
1055.000000	65.206909  
1054.000000	65.234088  
1053.000000	65.260004  
1052.000000	65.280985  
1051.000000	65.293288  
1050.000000	65.293979  
1049.000000	65.281891  
1048.000000	65.257811  
1047.000000	65.224719  
1046.000000	65.186762  
1045.000000	65.148806  
1044.000000	65.114998  
1043.000000	65.088129  
1042.000000	65.069031  
1041.000000	65.056681  
1040.000000	65.048694  
1039.000000	65.042328  
1038.000000	65.034937  
1037.000000	65.024995  
1036.000000	65.012121  
1035.000000	64.997363  
1034.000000	64.982843  
1033.000000	64.971518  
1032.000000	64.966320  
1031.000000	64.969587  
1030.000000	64.982867  
1029.000000	65.006446  
1028.000000	65.039229  
1027.000000	65.078759  
1026.000000	65.121722  
1025.000000	65.164279  
1024.000000	65.202283  
1023.000000	65.231871  
1022.000000	65.250086  
1021.000000	65.255284  
1020.000000	65.247344  
1019.000000	65.227699  
1018.000000	65.199255  
1017.000000	65.165901  
1016.000000	65.131974  
1015.000000	65.101480  
1014.000000	65.077519  
1013.000000	65.062117  
1012.000000	65.056133  
1011.000000	65.059161  
1010.000000	65.069794  
1009.000000	65.086269  
1008.000000	65.106630  
1007.000000	65.129113  
1006.000000	65.152025  
1005.000000	65.173649  
1004.000000	65.192151  
1003.000000	65.205550  
1002.000000	65.211963  
1001.000000	65.209889  
1000.000000	65.198516  
999.000000	 65.178465  
998.000000	 65.151476  
997.000000	 65.120768  
996.000000	 65.090227  
995.000000	 65.063786  
994.000000	 65.044403  
993.000000	 65.033698  
992.000000	 65.031504  
991.000000	 65.036177  
990.000000	 65.045309  
989.000000	 65.056276  
988.000000	 65.067195  
987.000000	 65.077161  
986.000000	 65.086436  
985.000000	 65.095996  
984.000000	 65.106463  
983.000000	 65.117526  
982.000000	 65.127921  
981.000000	 65.135455  
980.000000	 65.137648  
979.000000	 65.132546  
978.000000	 65.119647  
977.000000	 65.100359  
976.000000	 65.077733  
975.000000	 65.055942  
974.000000	 65.038895  
973.000000	 65.029716  
972.000000	 65.029883  
971.000000	 65.039277  
970.000000	 65.056085  
969.000000	 65.077781  
968.000000	 65.101695  
967.000000	 65.125846  
966.000000	 65.149164  
965.000000	 65.171527  
964.000000	 65.193200  
963.000000	 65.214657  
962.000000	 65.235900  
961.000000	 65.256476  
960.000000	 65.275549  
959.000000	 65.292453  
958.000000	 65.306901  
957.000000	 65.319657  
956.000000	 65.332198  
955.000000	 65.346360  
954.000000	 65.363478  
953.000000	 65.384149  
952.000000	 65.407419  
951.000000	 65.430784  
950.000000	 65.450406  
949.000000	 65.462327  
948.000000	 65.463232  
947.000000	 65.451574  
946.000000	 65.427899  
945.000000	 65.395092  
944.000000	 65.357637  
943.000000	 65.320873  
942.000000	 65.289759  
941.000000	 65.267801  
940.000000	 65.256500  
939.000000	 65.255403  
938.000000	 65.262341  
937.000000	 65.274405  
936.000000	 65.288639  
935.000000	 65.302729  
934.000000	 65.315341  
933.000000	 65.325951  
932.000000	 65.334510  
931.000000	 65.340948  
930.000000	 65.344882  
929.000000	 65.345239  
928.000000	 65.340518  
927.000000	 65.329051  
926.000000	 65.309524  
925.000000	 65.281534  
924.000000	 65.245842  
923.000000	 65.204596  
922.000000	 65.161085  
921.000000	 65.119361  
920.000000	 65.083479  
919.000000	 65.056896  
918.000000	 65.041947  
917.000000	 65.039420  
916.000000	 65.048265  
915.000000	 65.066003  
914.000000	 65.088939  
913.000000	 65.113401  
912.000000	 65.135812  
911.000000	 65.154242  
910.000000	 65.168261  
909.000000	 65.179228  
908.000000	 65.189743  
907.000000	 65.202569  
906.000000	 65.219664  
905.000000	 65.241479  
904.000000	 65.266537  
903.000000	 65.291714  
902.000000	 65.313100  
901.000000	 65.327167  
900.000000	 65.331649  
899.000000	 65.326046  
898.000000	 65.311837  
897.000000	 65.292239  
896.000000	 65.271282  
895.000000	 65.252542  
894.000000	 65.238332  
893.000000	 65.229487  
892.000000	 65.225148  
891.000000	 65.223455  
890.000000	 65.221977  
889.000000	 65.218877  
888.000000	 65.212988  
887.000000	 65.204119  
886.000000	 65.193176  
885.000000	 65.181398  
884.000000	 65.170741  
883.000000	 65.163278  
882.000000	 65.161061  
881.000000	 65.165424  
880.000000	 65.177369  
879.000000	 65.196990  
878.000000	 65.223431  
877.000000	 65.254878  
876.000000	 65.288949  
875.000000	 65.323352  
874.000000	 65.356111  
873.000000	 65.386009  
872.000000	 65.412902  
871.000000	 65.437412  
870.000000	 65.460681  
869.000000	 65.483474  
868.000000	 65.505981  
867.000000	 65.526986  
866.000000	 65.544295  
865.000000	 65.555000  
864.000000	 65.556645  
863.000000	 65.547370  
862.000000	 65.527558  
861.000000	 65.498971  
860.000000	 65.464925  
859.000000	 65.429115  
858.000000	 65.395212  
857.000000	 65.365719  
856.000000	 65.341472  
855.000000	 65.321898  
854.000000	 65.305590  
853.000000	 65.290594  
852.000000	 65.275406  
851.000000	 65.259385  
850.000000	 65.242958  
849.000000	 65.227365  
848.000000	 65.214157  
847.000000	 65.204644  
846.000000	 65.199255  
845.000000	 65.197515  
844.000000	 65.197849  
843.000000	 65.198159  
842.000000	 65.196156  
841.000000	 65.190029  
840.000000	 65.178966  
839.000000	 65.162849  
838.000000	 65.142893  
837.000000	 65.120768  
836.000000	 65.099287  
835.000000	 65.080952  
834.000000	 65.068745  
833.000000	 65.065598  
832.000000	 65.074181  
831.000000	 65.096330  
830.000000	 65.132451  
829.000000	 65.181112  
828.000000	 65.238857  
827.000000	 65.300607  
826.000000	 65.360331  
825.000000	 65.411996  
824.000000	 65.451025  
823.000000	 65.475273  
822.000000	 65.485262  
821.000000	 65.484070  
820.000000	 65.476584  
819.000000	 65.468430  
818.000000	 65.464425  
817.000000	 65.467691  
816.000000	 65.479302  
815.000000	 65.497875  
814.000000	 65.520477  
813.000000	 65.542960  
812.000000	 65.561532  
811.000000	 65.572977  
810.000000	 65.575242  
809.000000	 65.567517  
808.000000	 65.550351  
807.000000	 65.525484  
806.000000	 65.495157  
805.000000	 65.462493  
804.000000	 65.430712  
803.000000	 65.403366  
802.000000	 65.383958  
801.000000	 65.375280  
800.000000	 65.378856  
799.000000	 65.395045  
798.000000	 65.422749  
797.000000	 65.459108  
796.000000	 65.499782  
795.000000	 65.539860  
794.000000	 65.574836  
793.000000	 65.600943  
792.000000	 65.616059  
791.000000	 65.619730  
790.000000	 65.613603  
789.000000	 65.600728  
788.000000	 65.585184  
787.000000	 65.571451  
786.000000	 65.563488  
785.000000	 65.564537  
784.000000	 65.576386  
783.000000	 65.599465  
782.000000	 65.632438  
781.000000	 65.672707  
780.000000	 65.716171  
779.000000	 65.758347  
778.000000	 65.794205  
777.000000	 65.819144  
776.000000	 65.829253  
775.000000	 65.821981  
774.000000	 65.796422  
773.000000	 65.753698  
772.000000	 65.696883  
771.000000	 65.630745  
770.000000	 65.561318  
769.000000	 65.495157  
768.000000	 65.438389  
767.000000	 65.395975  
766.000000	 65.371084  
765.000000	 65.364599  
764.000000	 65.375256  
763.000000	 65.400099  
762.000000	 65.434575  
761.000000	 65.473413  
760.000000	 65.511393  
759.000000	 65.544033  
758.000000	 65.567636  
757.000000	 65.580058  
756.000000	 65.580439  
755.000000	 65.569448  
754.000000	 65.548920  
753.000000	 65.521478  
752.000000	 65.490484  
751.000000	 65.459036  
750.000000	 65.429925  
749.000000	 65.404891  
748.000000	 65.384650  
747.000000	 65.368747  
746.000000	 65.355992  
745.000000	 65.345001  
744.000000	 65.334868  
743.000000	 65.325689  
742.000000	 65.318465  
741.000000	 65.314912  
740.000000	 65.316963  
739.000000	 65.326046  
738.000000	 65.342712  
737.000000	 65.366172  
736.000000	 65.394115  
735.000000	 65.423560  
734.000000	 65.451216  
733.000000	 65.474200  
732.000000	 65.490341  
731.000000	 65.498590  
730.000000	 65.498828  
729.000000	 65.491819  
728.000000	 65.478777  
727.000000	 65.461206  
726.000000	 65.440607  
725.000000	 65.418410  
724.000000	 65.395951  
723.000000	 65.374827  
722.000000	 65.356373  
721.000000	 65.341615  
720.000000	 65.330982  
719.000000	 65.324354  
718.000000	 65.320944  
717.000000	 65.319395  
716.000000	 65.318346  
715.000000	 65.316748  
714.000000	 65.314292  
713.000000	 65.311431  
712.000000	 65.309333  
711.000000	 65.309166  
710.000000	 65.311598  
709.000000	 65.316104  
708.000000	 65.320873  
707.000000	 65.323257  
706.000000	 65.320062  
705.000000	 65.308642  
704.000000	 65.288209  
703.000000	 65.260291  
702.000000	 65.228438  
701.000000	 65.198087  
700.000000	 65.175223  
699.000000	 65.165162  
698.000000	 65.170907  
697.000000	 65.192651  
696.000000	 65.227460  
695.000000	 65.269756  
694.000000	 65.312528  
693.000000	 65.348911  
692.000000	 65.373682  
691.000000	 65.384244  
690.000000	 65.380692  
689.000000	 65.365982  
688.000000	 65.344715  
687.000000	 65.322113  
686.000000	 65.302848  
685.000000	 65.290117  
684.000000	 65.285658  
683.000000	 65.289521  
682.000000	 65.301060  
681.000000	 65.319156  
680.000000	 65.343189  
679.000000	 65.373325  
678.000000	 65.410351  
677.000000	 65.455126  
676.000000	 65.507793  
675.000000	 65.567159  
674.000000	 65.630388  
673.000000	 65.693187  
672.000000	 65.750193  
671.000000	 65.795993  
670.000000	 65.826082  
669.000000	 65.838408  
668.000000	 65.833234  
667.000000	 65.813326  
666.000000	 65.783262  
665.000000	 65.748500  
664.000000	 65.714502  
663.000000	 65.685820  
662.000000	 65.665149  
661.000000	 65.653085  
660.000000	 65.648484  
659.000000	 65.648913  
658.000000	 65.651035  
657.000000	 65.651464  
656.000000	 65.647244  
655.000000	 65.636420  
654.000000	 65.617847  
653.000000	 65.591907  
652.000000	 65.559458  
651.000000	 65.522861  
650.000000	 65.484857  
649.000000	 65.449357  
648.000000	 65.420651  
647.000000	 65.403366  
646.000000	 65.401768  
645.000000	 65.418386  
644.000000	 65.453553  
643.000000	 65.504455  
642.000000	 65.565347  
641.000000	 65.628027  
640.000000	 65.683245  
639.000000	 65.721869  
638.000000	 65.736794  
637.000000	 65.724182  
636.000000	 65.684080  
635.000000	 65.620470  
634.000000	 65.540480  
633.000000	 65.452742  
632.000000	 65.366244  
631.000000	 65.288877  
630.000000	 65.226578  
629.000000	 65.182518  
628.000000	 65.157294  
627.000000	 65.149497  
626.000000	 65.156793  
625.000000	 65.175867  
624.000000	 65.204262  
623.000000	 65.239596  
622.000000	 65.281057  
621.000000	 65.328264  
620.000000	 65.381622  
619.000000	 65.441346  
618.000000	 65.506768  
617.000000	 65.575885  
616.000000	 65.644788  
615.000000	 65.708374  
614.000000	 65.760588  
613.000000	 65.795588  
612.000000	 65.808844  
611.000000	 65.798687  
610.000000	 65.766501  
609.000000	 65.716934  
608.000000	 65.657067  
607.000000	 65.595197  
606.000000	 65.539574  
605.000000	 65.497040  
604.000000	 65.472030  
603.000000	 65.466213  
602.000000	 65.478014  
601.000000	 65.503644  
600.000000	 65.538454  
599.000000	 65.577983  
598.000000	 65.618824  
597.000000	 65.658855  
596.000000	 65.697360  
595.000000	 65.734028  
594.000000	 65.768003  
593.000000	 65.797662  
592.000000	 65.820121  
591.000000	 65.832948  
590.000000	 65.835404  
589.000000	 65.828776  
588.000000	 65.817093  
587.000000	 65.805172  
586.000000	 65.797901  
585.000000	 65.797781  
584.000000	 65.804123  
583.000000	 65.813374  
582.000000	 65.820550  
581.000000	 65.820908  
580.000000	 65.811681  
579.000000	 65.793156  
578.000000	 65.768980  
577.000000	 65.745544  
576.000000	 65.730333  
575.000000	 65.729618  
574.000000	 65.746927  
573.000000	 65.782403  
572.000000	 65.832281  
571.000000	 65.890049  
570.000000	 65.947175  
569.000000	 65.995502  
568.000000	 66.028070  
567.000000	 66.041135  
566.000000	 66.033792  
565.000000	 66.007447  
564.000000	 65.965747  
563.000000	 65.914011  
562.000000	 65.857577  
561.000000	 65.801262  
560.000000	 65.748119  
559.000000	 65.699958  
558.000000	 65.656805  
557.000000	 65.617918  
556.000000	 65.582609  
555.000000	 65.551114  
554.000000	 65.525364  
553.000000	 65.508937  
552.000000	 65.506601  
551.000000	 65.523171  
550.000000	 65.561985  
549.000000	 65.623545  
548.000000	 65.704965  
547.000000	 65.799665  
546.000000	 65.898609  
545.000000	 65.991020  
544.000000	 66.066336  
543.000000	 66.114950  
542.000000	 66.131567  
541.000000	 66.113853  
540.000000	 66.062974  
539.000000	 65.982651  
538.000000	 65.879440  
537.000000	 65.761017  
536.000000	 65.635776  
535.000000	 65.512108  
534.000000	 65.398240  
533.000000	 65.302038  
532.000000	 65.230870  
531.000000	 65.190315  
530.000000	 65.183115  
529.000000	 65.208148  
528.000000	 65.260028  
527.000000	 65.329432  
526.000000	 65.404343  
525.000000	 65.472435  
524.000000	 65.523934  
523.000000	 65.553355  
522.000000	 65.561342  
521.000000	 65.553236  
520.000000	 65.539121  
519.000000	 65.529847  
518.000000	 65.536546  
517.000000	 65.568614  
516.000000	 65.632104  
515.000000	 65.729761  
514.000000	 65.859031  
513.000000	 66.013669  
512.000000	 66.182470  
511.000000	 66.351771  
510.000000	 66.505432  
509.000000	 66.628289  
508.000000	 66.706776  
507.000000	 66.732454  
506.000000	 66.701507  
505.000000	 66.615891  
504.000000	 66.483473  
503.000000	 66.317725  
502.000000	 66.136813  
501.000000	 65.961790  
500.000000	 65.813612  
499.000000	 65.709853  
498.000000	 65.662240  
497.000000	 65.674352  
496.000000	 65.739417  
495.000000	 65.841960  
494.000000	 65.961241  
493.000000	 66.075873  
492.000000	 66.166830  
491.000000	 66.221904  
490.000000	 66.237306  
489.000000	 66.217994  
488.000000	 66.175150  
487.000000	 66.123032  
486.000000	 66.074538  
485.000000	 66.038465  
484.000000	 66.018939  
483.000000	 66.014313  
482.000000	 66.020059  
481.000000	 66.029381  
480.000000	 66.037082  
479.000000	 66.038918  
478.000000	 66.033577  
477.000000	 66.019582  
476.000000	 65.995287  
475.000000	 65.956044  
474.000000	 65.894365  
473.000000	 65.801954  
472.000000	 65.672516  
471.000000	 65.502643  
470.000000	 65.294384  
469.000000	 65.058088  
468.000000	 64.811944  
467.000000	 64.578008  
466.000000	 64.380145  
465.000000	 64.237451  
464.000000	 64.163446  
463.000000	 64.163947  
462.000000	 64.237618  
461.000000	 64.373826  
460.000000	 64.557337  
459.000000	 64.770960  
458.000000	 64.997506  
457.000000	 65.219092  
456.000000	 65.420389  
455.000000	 65.587806  
454.000000	 65.712022  
453.000000	 65.787601  
452.000000	 65.814638  
451.000000	 65.796732  
450.000000	 65.745854  
449.000000	 65.680932  
448.000000	 65.627431  
447.000000	 65.612769  
446.000000	 65.662240  
445.000000	 65.792942  
444.000000	 66.009378  
443.000000	 66.299772  
442.000000	 66.636753  
441.000000	 66.979813  
440.000000	 67.279458  
439.000000	 67.485833  
438.000000	 67.564249  
437.000000	 67.497324  
436.000000	 67.287039  
435.000000	 66.952967  
434.000000	 66.526985  
433.000000	 66.047978  
432.000000	 65.561270  
431.000000	 65.108561  
430.000000	 64.714169  
429.000000	 64.398145  
428.000000	 64.178562  
427.000000	 64.074325  
426.000000	 64.105439  
425.000000	 64.285922  
424.000000	 64.612221  
423.000000	 65.066742  
422.000000	 65.621924  
421.000000	 66.216206  
420.000000	 66.755175  
419.000000	 67.150521  
418.000000	 67.341971  
417.000000	 67.297291  
416.000000	 67.029809  
415.000000	 66.604590  
414.000000	 66.129779  
413.000000	 65.769314  
412.000000	 65.683698  
411.000000	 65.992212  
410.000000	 66.707873  
409.000000	 67.747831  
408.000000	 68.905305  
407.000000	 69.872117  
406.000000	 70.319724  
405.000000	 69.991850  
404.000000	 68.774175  
403.000000	 66.724228  
402.000000	 64.092087  
401.000000	 61.223340  
400.000000	 58.570885  
399.000000	 56.556248  
398.000000	 55.584430  
397.000000	 55.952501  
396.000000	 57.847380  
395.000000	 61.285424  
394.000000	 66.173982  
393.000000	 72.319221  
392.000000	 79.345774  
391.000000	 86.704277  
390.000000	 93.723511  
389.000000	 99.670958  
388.000000	 103.859949 
387.000000	 105.741620 
386.000000	 104.994177 
385.000000	 101.562690 
384.000000	 95.783257  
383.000000	 88.248896  
382.000000	 79.684233  
381.000000	 70.839619  
380.000000	 62.368464  
379.000000	 54.821562  
378.000000	 48.642158  
377.000000	 44.189262  
376.000000	 41.721105  
375.000000	 41.409254  
374.000000	 43.372583  
373.000000	 47.473478  
372.000000	 53.363299  
371.000000	 60.197305  
370.000000	 66.688489  

