PE IR       SPECTRUM    SPECTRUM    ASCII       PEDS        1.60        
  -1
BZ2CFF~1.ASC
17/04/10
10:13:56.00
17/04/10
10:13:56.00
tln
$BZ12041010-4_t0016$<tbV0>[5.2,-4.6,9.0,0.0,22,1,0]
370.000000
64









2002,4.07    
MIRTGS : RIGHTBACK : INTERNAL 2
MIR : ON : INTERNAL 2
OPTKBR

0.200000
8
8.000000
FILLER
RATIO
SPECTRUM
UNLOCKED 256

DOUBLE
64
COMBINED
1
0
0


1.000000
RATIO


1
0
TRUE
51149
0
LEFT NOT FITTED RIGHT NOT FITTED 0
NONE
NONE
15600
12.000000
4.427000
51148
TRUE
1 0 8 72 0 0 0 0 

15798.010000






#HDR
-1
-1
#GR
CM-1
%T
0.00002384185791015625
0.0
5000.000000
-1.000000
4631
8
80.666184
3.688955
#DATA
5000.000000	64.909076 
4999.000000	64.852213 
4998.000000	64.802360 
4997.000000	64.768671 
4996.000000	64.756250 
4995.000000	64.765787 
4994.000000	64.793395 
4993.000000	64.832496 
4992.000000	64.874863 
4991.000000	64.913010 
4990.000000	64.940834 
4989.000000	64.954853 
4988.000000	64.953708 
4987.000000	64.937806 
4986.000000	64.908480 
4985.000000	64.867305 
4984.000000	64.816856 
4983.000000	64.760923 
4982.000000	64.705038 
4981.000000	64.656400 
4980.000000	64.624118 
4979.000000	64.617300 
4978.000000	64.642643 
4977.000000	64.702868 
4976.000000	64.795446 
4975.000000	64.912629 
4974.000000	65.041399 
4973.000000	65.167069 
4972.000000	65.276265 
4971.000000	65.359568 
4970.000000	65.413331 
4969.000000	65.439033 
4968.000000	65.442681 
4967.000000	65.431666 
4966.000000	65.413022 
4965.000000	65.390634 
4964.000000	65.365004 
4963.000000	65.333342 
4962.000000	65.292549 
4961.000000	65.239620 
4960.000000	65.174245 
4959.000000	65.098714 
4958.000000	65.018439 
4957.000000	64.939546 
4956.000000	64.867401 
4955.000000	64.805412 
4954.000000	64.754104 
4953.000000	64.711451 
4952.000000	64.673733 
4951.000000	64.637613 
4950.000000	64.600801 
4949.000000	64.562630 
4948.000000	64.524149 
4947.000000	64.486789 
4946.000000	64.452290 
4945.000000	64.421248 
4944.000000	64.393568 
4943.000000	64.367532 
4942.000000	64.341807 
4941.000000	64.316201 
4940.000000	64.292311 
4939.000000	64.272642 
4938.000000	64.261150 
4937.000000	64.261794 
4936.000000	64.277887 
4935.000000	64.310312 
4934.000000	64.358592 
4933.000000	64.420533 
4932.000000	64.493250 
4931.000000	64.573407 
4930.000000	64.657521 
4929.000000	64.742302 
4928.000000	64.824485 
4927.000000	64.901065 
4926.000000	64.969682 
4925.000000	65.028738 
4924.000000	65.078234 
4923.000000	65.118908 
4922.000000	65.152072 
4921.000000	65.178322 
4920.000000	65.198612 
4919.000000	65.212631 
4918.000000	65.219068 
4917.000000	65.215468 
4916.000000	65.200853 
4915.000000	65.174579 
4914.000000	65.137577 
4913.000000	65.091657 
4912.000000	65.040898 
4911.000000	64.988660 
4910.000000	64.937090 
4909.000000	64.886474 
4908.000000	64.835786 
4907.000000	64.783287 
4906.000000	64.728164 
4905.000000	64.670586 
4904.000000	64.612102 
4903.000000	64.555072 
4902.000000	64.502525 
4901.000000	64.454960 
4900.000000	64.410710 
4899.000000	64.368009 
4898.000000	64.326429 
4897.000000	64.286279 
4896.000000	64.250826 
4895.000000	64.226341 
4894.000000	64.221620 
4893.000000	64.245295 
4892.000000	64.304566 
4891.000000	64.400482 
4890.000000	64.529871 
4889.000000	64.684987 
4888.000000	64.855885 
4887.000000	65.031075 
4886.000000	65.200662 
4885.000000	65.358543 
4884.000000	65.500879 
4883.000000	65.626335 
4882.000000	65.732979 
4881.000000	65.818142 
4880.000000	65.875816 
4879.000000	65.898299 
4878.000000	65.876388 
4877.000000	65.803265 
4876.000000	65.674161 
4875.000000	65.488910 
4874.000000	65.251636 
4873.000000	64.972043 
4872.000000	64.663386 
4871.000000	64.344048 
4870.000000	64.034366 
4869.000000	63.758826 
4868.000000	63.542032 
4867.000000	63.409996 
4866.000000	63.384962 
4865.000000	63.483548 
4864.000000	63.711428 
4863.000000	64.060425 
4862.000000	64.505696 
4861.000000	65.007948 
4860.000000	65.516448 
4859.000000	65.977525 
4858.000000	66.340661 
4857.000000	66.570448 
4856.000000	66.652750 
4855.000000	66.596627 
4854.000000	66.431999 
4853.000000	66.201305 
4852.000000	65.951514 
4851.000000	65.721464 
4850.000000	65.536594 
4849.000000	65.403318 
4848.000000	65.312647 
4847.000000	65.245604 
4846.000000	65.182614 
4845.000000	65.110373 
4844.000000	65.028429 
4843.000000	64.948010 
4842.000000	64.890766 
4841.000000	64.880943 
4840.000000	64.938616 
4839.000000	65.072488 
4838.000000	65.275573 
4837.000000	65.524864 
4836.000000	65.784859 
4835.000000	66.017508 
4834.000000	66.187548 
4833.000000	66.271185 
4832.000000	66.258502 
4831.000000	66.154551 
4830.000000	65.977025 
4829.000000	65.751957 
4828.000000	65.507340 
4827.000000	65.266823 
4826.000000	65.049576 
4825.000000	64.870119 
4824.000000	64.737629 
4823.000000	64.657711 
4822.000000	64.630889 
4821.000000	64.652872 
4820.000000	64.713382 
4819.000000	64.796876 
4818.000000	64.881253 
4817.000000	64.942836 
4816.000000	64.959025 
4815.000000	64.916419 
4814.000000	64.813351 
4813.000000	64.664053 
4812.000000	64.496088 
4811.000000	64.345836 
4810.000000	64.250707 
4809.000000	64.238595 
4808.000000	64.322686 
4807.000000	64.494395 
4806.000000	64.726448 
4805.000000	64.975881 
4804.000000	65.194392 
4803.000000	65.338826 
4802.000000	65.381217 
4801.000000	65.315151 
4800.000000	65.155577 
4799.000000	64.935922 
4798.000000	64.698457 
4797.000000	64.485931 
4796.000000	64.331793 
4795.000000	64.253449 
4794.000000	64.250278 
4793.000000	64.306521 
4792.000000	64.397311 
4791.000000	64.494991 
4790.000000	64.577198 
4789.000000	64.630198 
4788.000000	64.652800 
4787.000000	64.653801 
4786.000000	64.649319 
4785.000000	64.655971 
4784.000000	64.685773 
4783.000000	64.742374 
4782.000000	64.819598 
4781.000000	64.903998 
4780.000000	64.978241 
4779.000000	65.026402 
4778.000000	65.038728 
4777.000000	65.015459 
4776.000000	64.966106 
4775.000000	64.906477 
4774.000000	64.854145 
4773.000000	64.823317 
4772.000000	64.820981 
4771.000000	64.845299 
4770.000000	64.885878 
4769.000000	64.927053 
4768.000000	64.952373 
4767.000000	64.949560 
4766.000000	64.914059 
4765.000000	64.850330 
4764.000000	64.769339 
4763.000000	64.685773 
4762.000000	64.613819 
4761.000000	64.563941 
4760.000000	64.540505 
4759.000000	64.541912 
4758.000000	64.561510 
4757.000000	64.590859 
4756.000000	64.621901 
4755.000000	64.650416 
4754.000000	64.675426 
4753.000000	64.701056 
4752.000000	64.733648 
4751.000000	64.780545 
4750.000000	64.846658 
4749.000000	64.932990 
4748.000000	65.035390 
4747.000000	65.144515 
4746.000000	65.247917 
4745.000000	65.331864 
4744.000000	65.385103 
4743.000000	65.400767 
4742.000000	65.378403 
4741.000000	65.323305 
4740.000000	65.245342 
4739.000000	65.156936 
4738.000000	65.070605 
4737.000000	64.997076 
4736.000000	64.943766 
4735.000000	64.913988 
4734.000000	64.907407 
4733.000000	64.921164 
4732.000000	64.951372 
4731.000000	64.993619 
4730.000000	65.044164 
4729.000000	65.099549 
4728.000000	65.157008 
4727.000000	65.213108 
4726.000000	65.264582 
4725.000000	65.307998 
4724.000000	65.340304 
4723.000000	65.358829 
4722.000000	65.362644 
4721.000000	65.353131 
4720.000000	65.333700 
4719.000000	65.309500 
4718.000000	65.286564 
4717.000000	65.270900 
4716.000000	65.266847 
4715.000000	65.276169 
4714.000000	65.297031 
4713.000000	65.324544 
4712.000000	65.350914 
4711.000000	65.367341 
4710.000000	65.366077 
4709.000000	65.342330 
4708.000000	65.295433 
4707.000000	65.229058 
4706.000000	65.149903 
4705.000000	65.066194 
4704.000000	64.986634 
4703.000000	64.917969 
4702.000000	64.864492 
4701.000000	64.826631 
4700.000000	64.802241 
4699.000000	64.786577 
4698.000000	64.773654 
4697.000000	64.757800 
4696.000000	64.734101 
4695.000000	64.700818 
4694.000000	64.658784 
4693.000000	64.612436 
4692.000000	64.567923 
4691.000000	64.532709 
4690.000000	64.513659 
4689.000000	64.515042 
4688.000000	64.537453 
4687.000000	64.576911 
4686.000000	64.625644 
4685.000000	64.673662 
4684.000000	64.711308 
4683.000000	64.732313 
4682.000000	64.735436 
4681.000000	64.725089 
4680.000000	64.709711 
4679.000000	64.699268 
4678.000000	64.702153 
4677.000000	64.722132 
4676.000000	64.757680 
4675.000000	64.802742 
4674.000000	64.848804 
4673.000000	64.888095 
4672.000000	64.915275 
4671.000000	64.929223 
4670.000000	64.932775 
4669.000000	64.931869 
4668.000000	64.932990 
4667.000000	64.940810 
4666.000000	64.956665 
4665.000000	64.978289 
4664.000000	65.000033 
4663.000000	65.014863 
4662.000000	65.016365 
4661.000000	65.001273 
4660.000000	64.969491 
4659.000000	64.924216 
4658.000000	64.871144 
4657.000000	64.816737 
4656.000000	64.766931 
4655.000000	64.725279 
4654.000000	64.692687 
4653.000000	64.666819 
4652.000000	64.643096 
4651.000000	64.615988 
4650.000000	64.579868 
4649.000000	64.531230 
4648.000000	64.469814 
4647.000000	64.399218 
4646.000000	64.325833 
4645.000000	64.257860 
4644.000000	64.203000 
4643.000000	64.167428 
4642.000000	64.153218 
4641.000000	64.159703 
4640.000000	64.183282 
4639.000000	64.219498 
4638.000000	64.263653 
4637.000000	64.312934 
4636.000000	64.366364 
4635.000000	64.424610 
4634.000000	64.488673 
4633.000000	64.558696 
4632.000000	64.632868 
4631.000000	64.707040 
4630.000000	64.774894 
4629.000000	64.829802 
4628.000000	64.865899 
4627.000000	64.880323 
4626.000000	64.873266 
4625.000000	64.847946 
4624.000000	64.809250 
4623.000000	64.763379 
4622.000000	64.715766 
4621.000000	64.670205 
4620.000000	64.628553 
4619.000000	64.591574 
4618.000000	64.559245 
4617.000000	64.531826 
4616.000000	64.509987 
4615.000000	64.495325 
4614.000000	64.489388 
4613.000000	64.492797 
4612.000000	64.504957 
4611.000000	64.523458 
4610.000000	64.544630 
4609.000000	64.563989 
4608.000000	64.577150 
4607.000000	64.580702 
4606.000000	64.572834 
4605.000000	64.553856 
4604.000000	64.525437 
4603.000000	64.490389 
4602.000000	64.452743 
4601.000000	64.417171 
4600.000000	64.388275 
4599.000000	64.370250 
4598.000000	64.366745 
4597.000000	64.379930 
4596.000000	64.409756 
4595.000000	64.453482 
4594.000000	64.505410 
4593.000000	64.558029 
4592.000000	64.602875 
4591.000000	64.633083 
4590.000000	64.644289 
4589.000000	64.636516 
4588.000000	64.614582 
4587.000000	64.586091 
4586.000000	64.559745 
4585.000000	64.542627 
4584.000000	64.538931 
4583.000000	64.548134 
4582.000000	64.565539 
4581.000000	64.583587 
4580.000000	64.594388 
4579.000000	64.591693 
4578.000000	64.572620 
4577.000000	64.538002 
4576.000000	64.491772 
4575.000000	64.439535 
4574.000000	64.387297 
4573.000000	64.339303 
4572.000000	64.297914 
4571.000000	64.264106 
4570.000000	64.237785 
4569.000000	64.218783 
4568.000000	64.207315 
4567.000000	64.203977 
4566.000000	64.209890 
4565.000000	64.224481 
4564.000000	64.247107 
4563.000000	64.276385 
4562.000000	64.311337 
4561.000000	64.350843 
4560.000000	64.394950 
4559.000000	64.444565 
4558.000000	64.500641 
4557.000000	64.563798 
4556.000000	64.632225 
4555.000000	64.701318 
4554.000000	64.764118 
4553.000000	64.812660 
4552.000000	64.839148 
4551.000000	64.837718 
4550.000000	64.806890 
4549.000000	64.750027 
4548.000000	64.674377 
4547.000000	64.589309 
4546.000000	64.504504 
4545.000000	64.427113 
4544.000000	64.360594 
4543.000000	64.303803 
4542.000000	64.252710 
4541.000000	64.201474 
4540.000000	64.144611 
4539.000000	64.078927 
4538.000000	64.004111 
4537.000000	63.923859 
4536.000000	63.843917 
4535.000000	63.772296 
4534.000000	63.715314 
4533.000000	63.679218 
4532.000000	63.667917 
4531.000000	63.684320 
4530.000000	63.728833 
4529.000000	63.801240 
4528.000000	63.899755 
4527.000000	64.021563 
4526.000000	64.162015 
4525.000000	64.314126 
4524.000000	64.468479 
4523.000000	64.613866 
4522.000000	64.738488 
4521.000000	64.832687 
4520.000000	64.890265 
4519.000000	64.910554 
4518.000000	64.897608 
4517.000000	64.859437 
4516.000000	64.805650 
4515.000000	64.746403 
4514.000000	64.689970 
4513.000000	64.643168 
4512.000000	64.608526 
4511.000000	64.587092 
4510.000000	64.575862 
4509.000000	64.568424 
4508.000000	64.557147 
4507.000000	64.534235 
4506.000000	64.496088 
4505.000000	64.442920 
4504.000000	64.382433 
4503.000000	64.328646 
4502.000000	64.297437 
4501.000000	64.301109 
4500.000000	64.346718 
4499.000000	64.434194 
4498.000000	64.551734 
4497.000000	64.677715 
4496.000000	64.787602 
4495.000000	64.860200 
4494.000000	64.882469 
4493.000000	64.851999 
4492.000000	64.783120 
4491.000000	64.699578 
4490.000000	64.618778 
4489.000000	64.550638 
4488.000000	64.498043 
4487.000000	64.457035 
4486.000000	64.421677 
4485.000000	64.387631 
4484.000000	64.352154 
4483.000000	64.319396 
4482.000000	64.302110 
4481.000000	64.317274 
4480.000000	64.372897 
4479.000000	64.477348 
4478.000000	64.632797 
4477.000000	64.843726 
4476.000000	65.108060 
4475.000000	65.437006 
4474.000000	65.854072 
4473.000000	66.381406 
4472.000000	67.032027 
4471.000000	67.785668 
4470.000000	68.591499 
4469.000000	69.372630 
4468.000000	70.053815 
4467.000000	70.615100 
4466.000000	71.100330 
4465.000000	71.635127 
4464.000000	72.369790 
4463.000000	73.428368 
4462.000000	74.840235 
4461.000000	76.507592 
4460.000000	78.206443 
4459.000000	79.648923 
4458.000000	80.535435 
4457.000000	80.666184 
4456.000000	79.956889 
4455.000000	78.478169 
4454.000000	76.418137 
4453.000000	74.041104 
4452.000000	71.623587 
4451.000000	69.400596 
4450.000000	67.525315 
4449.000000	66.063833 
4448.000000	64.998364 
4447.000000	64.265155 
4446.000000	63.777899 
4445.000000	63.462519 
4444.000000	63.267755 
4443.000000	63.172101 
4442.000000	63.163590 
4441.000000	63.230752 
4440.000000	63.361144 
4439.000000	63.537359 
4438.000000	63.737368 
4437.000000	63.937187 
4436.000000	64.118671 
4435.000000	64.268732 
4434.000000	64.373755 
4433.000000	64.424061 
4432.000000	64.415431 
4431.000000	64.349508 
4430.000000	64.235305 
4429.000000	64.086365 
4428.000000	63.921570 
4427.000000	63.758993 
4426.000000	63.613271 
4425.000000	63.494181 
4424.000000	63.406109 
4423.000000	63.350009 
4422.000000	63.328623 
4421.000000	63.339495 
4420.000000	63.372135 
4419.000000	63.418722 
4418.000000	63.476896 
4417.000000	63.541340 
4416.000000	63.603258 
4415.000000	63.654446 
4414.000000	63.688516 
4413.000000	63.700628 
4412.000000	63.689398 
4411.000000	63.658618 
4410.000000	63.616514 
4409.000000	63.574171 
4408.000000	63.542914 
4407.000000	63.531017 
4406.000000	63.542556 
4405.000000	63.576984 
4404.000000	63.630032 
4403.000000	63.694453 
4402.000000	63.763380 
4401.000000	63.831782 
4400.000000	63.898301 
4399.000000	63.964414 
4398.000000	64.034152 
4397.000000	64.111638 
4396.000000	64.199686 
4395.000000	64.298176 
4394.000000	64.402866 
4393.000000	64.505624 
4392.000000	64.596509 
4391.000000	64.666247 
4390.000000	64.708018 
4389.000000	64.719605 
4388.000000	64.703655 
4387.000000	64.666962 
4386.000000	64.618921 
4385.000000	64.568829 
4384.000000	64.524173 
4383.000000	64.489006 
4382.000000	64.464068 
4381.000000	64.447164 
4380.000000	64.435005 
4379.000000	64.424109 
4378.000000	64.412355 
4377.000000	64.399242 
4376.000000	64.385557 
4375.000000	64.373064 
4374.000000	64.363217 
4373.000000	64.356541 
4372.000000	64.352011 
4371.000000	64.347481 
4370.000000	64.340329 
4369.000000	64.328050 
4368.000000	64.309048 
4367.000000	64.283180 
4366.000000	64.251899 
4365.000000	64.217853 
4364.000000	64.184212 
4363.000000	64.154291 
4362.000000	64.131021 
4361.000000	64.116311 
4360.000000	64.110970 
4359.000000	64.115166 
4358.000000	64.128565 
4357.000000	64.150333 
4356.000000	64.179253 
4355.000000	64.213538 
4354.000000	64.251303 
4353.000000	64.290428 
4352.000000	64.328956 
4351.000000	64.364981 
4350.000000	64.397025 
4349.000000	64.424371 
4348.000000	64.447021 
4347.000000	64.465522 
4346.000000	64.481234 
4345.000000	64.495444 
4344.000000	64.509773 
4343.000000	64.525842 
4342.000000	64.545154 
4341.000000	64.569163 
4340.000000	64.598655 
4339.000000	64.633655 
4338.000000	64.673089 
4337.000000	64.715051 
4336.000000	64.756226 
4335.000000	64.792537 
4334.000000	64.819812 
4333.000000	64.834833 
4332.000000	64.836287 
4331.000000	64.825081 
4330.000000	64.804649 
4329.000000	64.779996 
4328.000000	64.756774 
4327.000000	64.739608 
4326.000000	64.731359 
4325.000000	64.731907 
4324.000000	64.738917 
4323.000000	64.747953 
4322.000000	64.754104 
4321.000000	64.752793 
4320.000000	64.741325 
4319.000000	64.719343 
4318.000000	64.688324 
4317.000000	64.652132 
4316.000000	64.615488 
4315.000000	64.584016 
4314.000000	64.562654 
4313.000000	64.555644 
4312.000000	64.566016 
4311.000000	64.594984 
4310.000000	64.641857 
4309.000000	64.703059 
4308.000000	64.772582 
4307.000000	64.842200 
4306.000000	64.902663 
4305.000000	64.945387 
4304.000000	64.964342 
4303.000000	64.957070 
4302.000000	64.925932 
4301.000000	64.877629 
4300.000000	64.822101 
4299.000000	64.770174 
4298.000000	64.731168 
4297.000000	64.711403 
4296.000000	64.712548 
4295.000000	64.732217 
4294.000000	64.764380 
4293.000000	64.801549 
4292.000000	64.836573 
4291.000000	64.864230 
4290.000000	64.882588 
4289.000000	64.892411 
4288.000000	64.897394 
4287.000000	64.901876 
4286.000000	64.910459 
4285.000000	64.926195 
4284.000000	64.950752 
4283.000000	64.984107 
4282.000000	65.024495 
4281.000000	65.068840 
4280.000000	65.113186 
4279.000000	65.153193 
4278.000000	65.184283 
4277.000000	65.201878 
4276.000000	65.201997 
4275.000000	65.181732 
4274.000000	65.140318 
4273.000000	65.079617 
4272.000000	65.004277 
4271.000000	64.921307 
4270.000000	64.839315 
4269.000000	64.766764 
4268.000000	64.710736 
4267.000000	64.675736 
4266.000000	64.662480 
4265.000000	64.668631 
4264.000000	64.688944 
4263.000000	64.717769 
4262.000000	64.749574 
4261.000000	64.781165 
4260.000000	64.811086 
4259.000000	64.840602 
4258.000000	64.872002 
4257.000000	64.907908 
4256.000000	64.949393 
4255.000000	64.995765 
4254.000000	65.044116 
4253.000000	65.090155 
4252.000000	65.128993 
4251.000000	65.156340 
4250.000000	65.169262 
4249.000000	65.167212 
4248.000000	65.151882 
4247.000000	65.126800 
4246.000000	65.096688 
4245.000000	65.066385 
4244.000000	65.039920 
4243.000000	65.020179 
4242.000000	65.008425 
4241.000000	65.004682 
4240.000000	65.007925 
4239.000000	65.016460 
4238.000000	65.028333 
4237.000000	65.041947 
4236.000000	65.055918 
4235.000000	65.069079 
4234.000000	65.080642 
4233.000000	65.089869 
4232.000000	65.096139 
4231.000000	65.098953 
4230.000000	65.098142 
4229.000000	65.093874 
4228.000000	65.087294 
4227.000000	65.080451 
4226.000000	65.075922 
4225.000000	65.076255 
4224.000000	65.083146 
4223.000000	65.096831 
4222.000000	65.115594 
4221.000000	65.136003 
4220.000000	65.153622 
4219.000000	65.163850 
4218.000000	65.163159 
4217.000000	65.149712 
4216.000000	65.123844 
4215.000000	65.087890 
4214.000000	65.045762 
4213.000000	65.002202 
4212.000000	64.961338 
4211.000000	64.926648 
4210.000000	64.900326 
4209.000000	64.883399 
4208.000000	64.875912 
4207.000000	64.877271 
4206.000000	64.886474 
4205.000000	64.902234 
4204.000000	64.922881 
4203.000000	64.946603 
4202.000000	64.971303 
4201.000000	64.995169 
4200.000000	65.016961 
4199.000000	65.036368 
4198.000000	65.053939 
4197.000000	65.070843 
4196.000000	65.088343 
4195.000000	65.107131 
4194.000000	65.127229 
4193.000000	65.147542 
4192.000000	65.166306 
4191.000000	65.181493 
4190.000000	65.191602 
4189.000000	65.196561 
4188.000000	65.197372 
4187.000000	65.196275 
4186.000000	65.195703 
4185.000000	65.198016 
4184.000000	65.204310 
4183.000000	65.214204 
4182.000000	65.226054 
4181.000000	65.237307 
4180.000000	65.245795 
4179.000000	65.250515 
4178.000000	65.252041 
4177.000000	65.252542 
4176.000000	65.255069 
4175.000000	65.262746 
4174.000000	65.277719 
4173.000000	65.300393 
4172.000000	65.329122 
4171.000000	65.360736 
4170.000000	65.391445 
4169.000000	65.417504 
4168.000000	65.436291 
4167.000000	65.446567 
4166.000000	65.448546 
4165.000000	65.443325 
4164.000000	65.432310 
4163.000000	65.416240 
4162.000000	65.395236 
4161.000000	65.368533 
4160.000000	65.335440 
4159.000000	65.295886 
4158.000000	65.251398 
4157.000000	65.204930 
4156.000000	65.160822 
4155.000000	65.123724 
4154.000000	65.097618 
4153.000000	65.084981 
4152.000000	65.085768 
4151.000000	65.098309 
4150.000000	65.119624 
4149.000000	65.146422 
4148.000000	65.175771 
4147.000000	65.205311 
4146.000000	65.233421 
4145.000000	65.258479 
4144.000000	65.278840 
4143.000000	65.292644 
4142.000000	65.298199 
4141.000000	65.294337 
4140.000000	65.281009 
4139.000000	65.260100 
4138.000000	65.234994 
4137.000000	65.210652 
4136.000000	65.191984 
4135.000000	65.183138 
4134.000000	65.186095 
4133.000000	65.200448 
4132.000000	65.223169 
4131.000000	65.249061 
4130.000000	65.272068 
4129.000000	65.287017 
4128.000000	65.290379 
4127.000000	65.280961 
4126.000000	65.260219 
4125.000000	65.231561 
4124.000000	65.199685 
4123.000000	65.169358 
4122.000000	65.144610 
4121.000000	65.127801 
4120.000000	65.119290 
4119.000000	65.117406 
4118.000000	65.119075 
4117.000000	65.120267 
4116.000000	65.116930 
4115.000000	65.105843 
4114.000000	65.085196 
4113.000000	65.055418 
4112.000000	65.018963 
4111.000000	64.980602 
4110.000000	64.946103 
4109.000000	64.921712 
4108.000000	64.912772 
4107.000000	64.922976 
4106.000000	64.953541 
4105.000000	65.003037 
4104.000000	65.067076 
4103.000000	65.139412 
4102.000000	65.213012 
4101.000000	65.280795 
4100.000000	65.336680 
4099.000000	65.376162 
4098.000000	65.396571 
4097.000000	65.397381 
4096.000000	65.380287 
4095.000000	65.348863 
4094.000000	65.307927 
4093.000000	65.263700 
4092.000000	65.223073 
4091.000000	65.192794 
4090.000000	65.178418 
4089.000000	65.182900 
4088.000000	65.205836 
4087.000000	65.243124 
4086.000000	65.287756 
4085.000000	65.330624 
4084.000000	65.363168 
4083.000000	65.378642 
4082.000000	65.374851 
4081.000000	65.354299 
4080.000000	65.324473 
4079.000000	65.295624 
4078.000000	65.278458 
4077.000000	65.281844 
4076.000000	65.309500 
4075.000000	65.359902 
4074.000000	65.425109 
4073.000000	65.493369 
4072.000000	65.550613 
4071.000000	65.584278 
4070.000000	65.585470 
4069.000000	65.551018 
4068.000000	65.483808 
4067.000000	65.391850 
4066.000000	65.286660 
4065.000000	65.181016 
4064.000000	65.086841 
4063.000000	65.013408 
4062.000000	64.966845 
4061.000000	64.949393 
4060.000000	64.960241 
4059.000000	64.995765 
4058.000000	65.050148 
4057.000000	65.116310 
4056.000000	65.185451 
4055.000000	65.249133 
4054.000000	65.299439 
4053.000000	65.330839 
4052.000000	65.339922 
4051.000000	65.326881 
4050.000000	65.295147 
4049.000000	65.250897 
4048.000000	65.202212 
4047.000000	65.156960 
4046.000000	65.121746 
4045.000000	65.100526 
4044.000000	65.094637 
4043.000000	65.102505 
4042.000000	65.120625 
4041.000000	65.144634 
4040.000000	65.170240 
4039.000000	65.194010 
4038.000000	65.213751 
4037.000000	65.228271 
4036.000000	65.237140 
4035.000000	65.240049 
4034.000000	65.236544 
4033.000000	65.226387 
4032.000000	65.209031 
4031.000000	65.184068 
4030.000000	65.151119 
4029.000000	65.110540 
4028.000000	65.063333 
4027.000000	65.011358 
4026.000000	64.957499 
4025.000000	64.905047 
4024.000000	64.858174 
4023.000000	64.821028 
4022.000000	64.797735 
4021.000000	64.791512 
4020.000000	64.804196 
4019.000000	64.835476 
4018.000000	64.882993 
4017.000000	64.942288 
4016.000000	65.007734 
4015.000000	65.072989 
4014.000000	65.132355 
4013.000000	65.181326 
4012.000000	65.217208 
4011.000000	65.238833 
4010.000000	65.246582 
4009.000000	65.241622 
4008.000000	65.225934 
4007.000000	65.201520 
4006.000000	65.170526 
4005.000000	65.134811 
4004.000000	65.096402 
4003.000000	65.057539 
4002.000000	65.020442 
4001.000000	64.987754 
4000.000000	64.962172 
3999.000000	64.946627 
3998.000000	64.943480 
3997.000000	64.954638 
3996.000000	64.980816 
3995.000000	65.021562 
3994.000000	65.074849 
3993.000000	65.137171 
3992.000000	65.203380 
3991.000000	65.267562 
3990.000000	65.323591 
3989.000000	65.366291 
3988.000000	65.392255 
3987.000000	65.400457 
3986.000000	65.392398 
3985.000000	65.371513 
3984.000000	65.342378 
3983.000000	65.309429 
3982.000000	65.276217 
3981.000000	65.244746 
3980.000000	65.215253 
3979.000000	65.186643 
3978.000000	65.157032 
3977.000000	65.124511 
3976.000000	65.087938 
3975.000000	65.047335 
3974.000000	65.004086 
3973.000000	64.960718 
3972.000000	64.920616 
3971.000000	64.886951 
3970.000000	64.862394 
3969.000000	64.848256 
3968.000000	64.844417 
3967.000000	64.849233 
3966.000000	64.860081 
3965.000000	64.873528 
3964.000000	64.886403 
3963.000000	64.896154 
3962.000000	64.901924 
3961.000000	64.904665 
3960.000000	64.906764 
3959.000000	64.911270 
3958.000000	64.921236 
3957.000000	64.938831 
3956.000000	64.964389 
3955.000000	64.996123 
3954.000000	65.030574 
3953.000000	65.063166 
3952.000000	65.089416 
3951.000000	65.105772 
3950.000000	65.110182 
3949.000000	65.102362 
3948.000000	65.083980 
3947.000000	65.058159 
3946.000000	65.028810 
3945.000000	65.000200 
3944.000000	64.976310 
3943.000000	64.960336 
3942.000000	64.954376 
3941.000000	64.959239 
3940.000000	64.974880 
3939.000000	64.999866 
3938.000000	65.031552 
3937.000000	65.066599 
3936.000000	65.101242 
3935.000000	65.131759 
3934.000000	65.155029 
3933.000000	65.169119 
3932.000000	65.173506 
3931.000000	65.169334 
3930.000000	65.159082 
3929.000000	65.146231 
3928.000000	65.134429 
3927.000000	65.126943 
3926.000000	65.125989 
3925.000000	65.132308 
3924.000000	65.144824 
3923.000000	65.161037 
3922.000000	65.177297 
3921.000000	65.189719 
3920.000000	65.194988 
3919.000000	65.191173 
3918.000000	65.178537 
3917.000000	65.159034 
3916.000000	65.136575 
3915.000000	65.115427 
3914.000000	65.100097 
3913.000000	65.093898 
3912.000000	65.098786 
3911.000000	65.114736 
3910.000000	65.140128 
3909.000000	65.172100 
3908.000000	65.207195 
3907.000000	65.242028 
3906.000000	65.273618 
3905.000000	65.299487 
3904.000000	65.317845 
3903.000000	65.327644 
3902.000000	65.328216 
3901.000000	65.319371 
3900.000000	65.301823 
3899.000000	65.277218 
3898.000000	65.248131 
3897.000000	65.217876 
3896.000000	65.190148 
3895.000000	65.168404 
3894.000000	65.155386 
3893.000000	65.152645 
3892.000000	65.160346 
3891.000000	65.177154 
3890.000000	65.200734 
3889.000000	65.228033 
3888.000000	65.255904 
3887.000000	65.281224 
3886.000000	65.301394 
3885.000000	65.314531 
3884.000000	65.319347 
3883.000000	65.315389 
3882.000000	65.302920 
3881.000000	65.282964 
3880.000000	65.257334 
3879.000000	65.228128 
3878.000000	65.197730 
3877.000000	65.168404 
3876.000000	65.142011 
3875.000000	65.119481 
3874.000000	65.100741 
3873.000000	65.084958 
3872.000000	65.071105 
3871.000000	65.058088 
3870.000000	65.045690 
3869.000000	65.034437 
3868.000000	65.025973 
3867.000000	65.022587 
3866.000000	65.026497 
3865.000000	65.038967 
3864.000000	65.059924 
3863.000000	65.087509 
3862.000000	65.118598 
3861.000000	65.149211 
3860.000000	65.175366 
3859.000000	65.194153 
3858.000000	65.203905 
3857.000000	65.204739 
3856.000000	65.197849 
3855.000000	65.185284 
3854.000000	65.168690 
3853.000000	65.149235 
3852.000000	65.127038 
3851.000000	65.101718 
3850.000000	65.072631 
3849.000000	65.039777 
3848.000000	65.004086 
3847.000000	64.967894 
3846.000000	64.934444 
3845.000000	64.907646 
3844.000000	64.890956 
3843.000000	64.886736 
3842.000000	64.895558 
3841.000000	64.916062 
3840.000000	64.945292 
3839.000000	64.979195 
3838.000000	65.013504 
3837.000000	65.044546 
3836.000000	65.069556 
3835.000000	65.087127 
3834.000000	65.096974 
3833.000000	65.100073 
3832.000000	65.097737 
3831.000000	65.091872 
3830.000000	65.084481 
3829.000000	65.077686 
3828.000000	65.073490 
3827.000000	65.073251 
3826.000000	65.077471 
3825.000000	65.085768 
3824.000000	65.096926 
3823.000000	65.108895 
3822.000000	65.119361 
3821.000000	65.126252 
3820.000000	65.128469 
3819.000000	65.125656 
3818.000000	65.118670 
3817.000000	65.109086 
3816.000000	65.099143 
3815.000000	65.090775 
3814.000000	65.085530 
3813.000000	65.084052 
3812.000000	65.086126 
3811.000000	65.090751 
3810.000000	65.096354 
3809.000000	65.101194 
3808.000000	65.103840 
3807.000000	65.103220 
3806.000000	65.099263 
3805.000000	65.092206 
3804.000000	65.083527 
3803.000000	65.075421 
3802.000000	65.070581 
3801.000000	65.071463 
3800.000000	65.079832 
3799.000000	65.096211 
3798.000000	65.119600 
3797.000000	65.147495 
3796.000000	65.176296 
3795.000000	65.201973 
3794.000000	65.221214 
3793.000000	65.232133 
3792.000000	65.234875 
3791.000000	65.231370 
3790.000000	65.225100 
3789.000000	65.219926 
3788.000000	65.219163 
3787.000000	65.224480 
3786.000000	65.235757 
3785.000000	65.250921 
3784.000000	65.266942 
3783.000000	65.280628 
3782.000000	65.289688 
3781.000000	65.293002 
3780.000000	65.290737 
3779.000000	65.284037 
3778.000000	65.274381 
3777.000000	65.262985 
3776.000000	65.250587 
3775.000000	65.237426 
3774.000000	65.223407 
3773.000000	65.208840 
3772.000000	65.194725 
3771.000000	65.183019 
3770.000000	65.176129 
3769.000000	65.176630 
3768.000000	65.186405 
3767.000000	65.205740 
3766.000000	65.233111 
3765.000000	65.265250 
3764.000000	65.297794 
3763.000000	65.326023 
3762.000000	65.345740 
3761.000000	65.354204 
3760.000000	65.350818 
3759.000000	65.336728 
3758.000000	65.315032 
3757.000000	65.289807 
3756.000000	65.265369 
3755.000000	65.245962 
3754.000000	65.234684 
3753.000000	65.233278 
3752.000000	65.241789 
3751.000000	65.258812 
3750.000000	65.281581 
3749.000000	65.306639 
3748.000000	65.330028 
3747.000000	65.348172 
3746.000000	65.358066 
3745.000000	65.357899 
3744.000000	65.347266 
3743.000000	65.327048 
3742.000000	65.299367 
3741.000000	65.267229 
3740.000000	65.233898 
3739.000000	65.202283 
3738.000000	65.174555 
3737.000000	65.151882 
3736.000000	65.134334 
3735.000000	65.121436 
3734.000000	65.112233 
3733.000000	65.106248 
3732.000000	65.103149 
3731.000000	65.103507 
3730.000000	65.108013 
3729.000000	65.117692 
3728.000000	65.132737 
3727.000000	65.152740 
3726.000000	65.176463 
3725.000000	65.201973 
3724.000000	65.227079 
3723.000000	65.249514 
3722.000000	65.267515 
3721.000000	65.279793 
3720.000000	65.286087 
3719.000000	65.286421 
3718.000000	65.281414 
3717.000000	65.271711 
3716.000000	65.258169 
3715.000000	65.241408 
3714.000000	65.222191 
3713.000000	65.201425 
3712.000000	65.180349 
3711.000000	65.160608 
3710.000000	65.143966 
3709.000000	65.132236 
3708.000000	65.126752 
3707.000000	65.128040 
3706.000000	65.135812 
3705.000000	65.148568 
3704.000000	65.164184 
3703.000000	65.179872 
3702.000000	65.193080 
3701.000000	65.201711 
3700.000000	65.204811 
3699.000000	65.202808 
3698.000000	65.197443 
3697.000000	65.191245 
3696.000000	65.186834 
3695.000000	65.186500 
3694.000000	65.191626 
3693.000000	65.202450 
3692.000000	65.218520 
3691.000000	65.238952 
3690.000000	65.262842 
3689.000000	65.289211 
3688.000000	65.316987 
3687.000000	65.344738 
3686.000000	65.370559 
3685.000000	65.392136 
3684.000000	65.406823 
3683.000000	65.412521 
3682.000000	65.408301 
3681.000000	65.394663 
3680.000000	65.373778 
3679.000000	65.348815 
3678.000000	65.323781 
3677.000000	65.302085 
3676.000000	65.285778 
3675.000000	65.275049 
3674.000000	65.268301 
3673.000000	65.262985 
3672.000000	65.256452 
3671.000000	65.246796 
3670.000000	65.233612 
3669.000000	65.217828 
3668.000000	65.201330 
3667.000000	65.186190 
3666.000000	65.173864 
3665.000000	65.164875 
3664.000000	65.158629 
3663.000000	65.153789 
3662.000000	65.149044 
3661.000000	65.143418 
3660.000000	65.136766 
3659.000000	65.129661 
3658.000000	65.123295 
3657.000000	65.119051 
3656.000000	65.118336 
3655.000000	65.121889 
3654.000000	65.129923 
3653.000000	65.142035 
3652.000000	65.157580 
3651.000000	65.175747 
3650.000000	65.195536 
3649.000000	65.216064 
3648.000000	65.236449 
3647.000000	65.255475 
3646.000000	65.271854 
3645.000000	65.284299 
3644.000000	65.292048 
3643.000000	65.295100 
3642.000000	65.294194 
3641.000000	65.290975 
3640.000000	65.287542 
3639.000000	65.286207 
3638.000000	65.288519 
3637.000000	65.295004 
3636.000000	65.304660 
3635.000000	65.315485 
3634.000000	65.324497 
3633.000000	65.328645 
3632.000000	65.325617 
3631.000000	65.314674 
3630.000000	65.296864 
3629.000000	65.274763 
3628.000000	65.252017 
3627.000000	65.232300 
3626.000000	65.218234 
3625.000000	65.210580 
3624.000000	65.208292 
3623.000000	65.208530 
3622.000000	65.207839 
3621.000000	65.202760 
3620.000000	65.191197 
3619.000000	65.172719 
3618.000000	65.148687 
3617.000000	65.121889 
3616.000000	65.095591 
3615.000000	65.073060 
3614.000000	65.056657 
3613.000000	65.047621 
3612.000000	65.045809 
3611.000000	65.050029 
3610.000000	65.058469 
3609.000000	65.069055 
3608.000000	65.080094 
3607.000000	65.090584 
3606.000000	65.100193 
3605.000000	65.109395 
3604.000000	65.118956 
3603.000000	65.129947 
3602.000000	65.143346 
3601.000000	65.159678 
3600.000000	65.178775 
3599.000000	65.199804 
3598.000000	65.221428 
3597.000000	65.241932 
3596.000000	65.259766 
3595.000000	65.273904 
3594.000000	65.284085 
3593.000000	65.290975 
3592.000000	65.295743 
3591.000000	65.299558 
3590.000000	65.303325 
3589.000000	65.307307 
3588.000000	65.310859 
3587.000000	65.312981 
3586.000000	65.312433 
3585.000000	65.308356 
3584.000000	65.300178 
3583.000000	65.288066 
3582.000000	65.272569 
3581.000000	65.254616 
3580.000000	65.234994 
3579.000000	65.214371 
3578.000000	65.193152 
3577.000000	65.171360 
3576.000000	65.149307 
3575.000000	65.127515 
3574.000000	65.106892 
3573.000000	65.088582 
3572.000000	65.073704 
3571.000000	65.063214 
3570.000000	65.057325 
3569.000000	65.055823 
3568.000000	65.058302 
3567.000000	65.064287 
3566.000000	65.073275 
3565.000000	65.084815 
3564.000000	65.098357 
3563.000000	65.113234 
3562.000000	65.128302 
3561.000000	65.142202 
3560.000000	65.153408 
3559.000000	65.160536 
3558.000000	65.162777 
3557.000000	65.159797 
3556.000000	65.151858 
3555.000000	65.139603 
3554.000000	65.124082 
3553.000000	65.106439 
3552.000000	65.087771 
3551.000000	65.069365 
3550.000000	65.052485 
3549.000000	65.038561 
3548.000000	65.028882 
3547.000000	65.024614 
3546.000000	65.026283 
3545.000000	65.033221 
3544.000000	65.043640 
3543.000000	65.054583 
3542.000000	65.062665 
3541.000000	65.064740 
3540.000000	65.058851 
3539.000000	65.044951 
3538.000000	65.025067 
3537.000000	65.002918 
3536.000000	64.983057 
3535.000000	64.969682 
3534.000000	64.965844 
3533.000000	64.972686 
3532.000000	64.989089 
3531.000000	65.012121 
3530.000000	65.037655 
3529.000000	65.061473 
3528.000000	65.079879 
3527.000000	65.090799 
3526.000000	65.093827 
3525.000000	65.090227 
3524.000000	65.082240 
3523.000000	65.072560 
3522.000000	65.063428 
3521.000000	65.056300 
3520.000000	65.051627 
3519.000000	65.049147 
3518.000000	65.048003 
3517.000000	65.047430 
3516.000000	65.046954 
3515.000000	65.046691 
3514.000000	65.047216 
3513.000000	65.049147 
3512.000000	65.053009 
3511.000000	65.058898 
3510.000000	65.066218 
3509.000000	65.074038 
3508.000000	65.081024 
3507.000000	65.086007 
3506.000000	65.088415 
3505.000000	65.088224 
3504.000000	65.086245 
3503.000000	65.083479 
3502.000000	65.081000 
3501.000000	65.079355 
3500.000000	65.078425 
3499.000000	65.077590 
3498.000000	65.076041 
3497.000000	65.072989 
3496.000000	65.068054 
3495.000000	65.061426 
3494.000000	65.053915 
3493.000000	65.046763 
3492.000000	65.041399 
3491.000000	65.039038 
3490.000000	65.040421 
3489.000000	65.045619 
3488.000000	65.053772 
3487.000000	65.063309 
3486.000000	65.072178 
3485.000000	65.078091 
3484.000000	65.079593 
3483.000000	65.075802 
3482.000000	65.067219 
3481.000000	65.055418 
3480.000000	65.042781 
3479.000000	65.031981 
3478.000000	65.025067 
3477.000000	65.023040 
3476.000000	65.025162 
3475.000000	65.029239 
3474.000000	65.031957 
3473.000000	65.029835 
3472.000000	65.020442 
3471.000000	65.003228 
3470.000000	64.979958 
3469.000000	64.954328 
3468.000000	64.931035 
3467.000000	64.914274 
3466.000000	64.906811 
3465.000000	64.909148 
3464.000000	64.919471 
3463.000000	64.934158 
3462.000000	64.949083 
3461.000000	64.960789 
3460.000000	64.967298 
3459.000000	64.968633 
3458.000000	64.966487 
3457.000000	64.963984 
3456.000000	64.963960 
3455.000000	64.968752 
3454.000000	64.979052 
3453.000000	64.994025 
3452.000000	65.011835 
3451.000000	65.030097 
3450.000000	65.046739 
3449.000000	65.060520 
3448.000000	65.071105 
3447.000000	65.079164 
3446.000000	65.085816 
3445.000000	65.092110 
3444.000000	65.098953 
3443.000000	65.106773 
3442.000000	65.115332 
3441.000000	65.123915 
3440.000000	65.131473 
3439.000000	65.137028 
3438.000000	65.139985 
3437.000000	65.140366 
3436.000000	65.138792 
3435.000000	65.136528 
3434.000000	65.135192 
3433.000000	65.136218 
3432.000000	65.140581 
3431.000000	65.148591 
3430.000000	65.159463 
3429.000000	65.171813 
3428.000000	65.183663 
3427.000000	65.192961 
3426.000000	65.198087 
3425.000000	65.197825 
3424.000000	65.192079 
3423.000000	65.181589 
3422.000000	65.167784 
3421.000000	65.152406 
3420.000000	65.137219 
3419.000000	65.123724 
3418.000000	65.113306 
3417.000000	65.107107 
3416.000000	65.105962 
3415.000000	65.110421 
3414.000000	65.120625 
3413.000000	65.136218 
3412.000000	65.156006 
3411.000000	65.177989 
3410.000000	65.199661 
3409.000000	65.218257 
3408.000000	65.231013 
3407.000000	65.235900 
3406.000000	65.231919 
3405.000000	65.219426 
3404.000000	65.200114 
3403.000000	65.176892 
3402.000000	65.153527 
3401.000000	65.134096 
3400.000000	65.122318 
3399.000000	65.120792 
3398.000000	65.130686 
3397.000000	65.151524 
3396.000000	65.181112 
3395.000000	65.215921 
3394.000000	65.251803 
3393.000000	65.284514 
3392.000000	65.310406 
3391.000000	65.327000 
3390.000000	65.333127 
3389.000000	65.329194 
3388.000000	65.316867 
3387.000000	65.298581 
3386.000000	65.276861 
3385.000000	65.254306 
3384.000000	65.232944 
3383.000000	65.214157 
3382.000000	65.198349 
3381.000000	65.185618 
3380.000000	65.175199 
3379.000000	65.166068 
3378.000000	65.157008 
3377.000000	65.146589 
3376.000000	65.134072 
3375.000000	65.119338 
3374.000000	65.103244 
3373.000000	65.087246 
3372.000000	65.073490 
3371.000000	65.064024 
3370.000000	65.060591 
3369.000000	65.063881 
3368.000000	65.073442 
3367.000000	65.087819 
3366.000000	65.104818 
3365.000000	65.122008 
3364.000000	65.137577 
3363.000000	65.150833 
3362.000000	65.162205 
3361.000000	65.173053 
3360.000000	65.185284 
3359.000000	65.200901 
3358.000000	65.221166 
3357.000000	65.246272 
3356.000000	65.275311 
3355.000000	65.306448 
3354.000000	65.337562 
3353.000000	65.366435 
3352.000000	65.391159 
3351.000000	65.410041 
3350.000000	65.422320 
3349.000000	65.427613 
3348.000000	65.426087 
3347.000000	65.418219 
3346.000000	65.404987 
3345.000000	65.387368 
3344.000000	65.366697 
3343.000000	65.343976 
3342.000000	65.320372 
3341.000000	65.296626 
3340.000000	65.273094 
3339.000000	65.249776 
3338.000000	65.226483 
3337.000000	65.202999 
3336.000000	65.179443 
3335.000000	65.156221 
3334.000000	65.134191 
3333.000000	65.114474 
3332.000000	65.098500 
3331.000000	65.087270 
3330.000000	65.081477 
3329.000000	65.081000 
3328.000000	65.085268 
3327.000000	65.093064 
3326.000000	65.103173 
3325.000000	65.114498 
3324.000000	65.126276 
3323.000000	65.138006 
3322.000000	65.149450 
3321.000000	65.160322 
3320.000000	65.170431 
3319.000000	65.179181 
3318.000000	65.186142 
3317.000000	65.191078 
3316.000000	65.194106 
3315.000000	65.196061 
3314.000000	65.197753 
3313.000000	65.200066 
3312.000000	65.203356 
3311.000000	65.207409 
3310.000000	65.211296 
3309.000000	65.213632 
3308.000000	65.213346 
3307.000000	65.209889 
3306.000000	65.203523 
3305.000000	65.195608 
3304.000000	65.188169 
3303.000000	65.183687 
3302.000000	65.184116 
3301.000000	65.190625 
3300.000000	65.203094 
3299.000000	65.220022 
3298.000000	65.238809 
3297.000000	65.256261 
3296.000000	65.269374 
3295.000000	65.276026 
3294.000000	65.275621 
3293.000000	65.268898 
3292.000000	65.257930 
3291.000000	65.245127 
3290.000000	65.232610 
3289.000000	65.221595 
3288.000000	65.212249 
3287.000000	65.203595 
3286.000000	65.194225 
3285.000000	65.182733 
3284.000000	65.168547 
3283.000000	65.151906 
3282.000000	65.133881 
3281.000000	65.116047 
3280.000000	65.100121 
3279.000000	65.087389 
3278.000000	65.078377 
3277.000000	65.073084 
3276.000000	65.070724 
3275.000000	65.070223 
3274.000000	65.070319 
3273.000000	65.069985 
3272.000000	65.068435 
3271.000000	65.065217 
3270.000000	65.060448 
3269.000000	65.054059 
3268.000000	65.046811 
3267.000000	65.039515 
3266.000000	65.033769 
3265.000000	65.031194 
3264.000000	65.033698 
3263.000000	65.042877 
3262.000000	65.059757 
3261.000000	65.084290 
3260.000000	65.115213 
3259.000000	65.150165 
3258.000000	65.186238 
3257.000000	65.220260 
3256.000000	65.249538 
3255.000000	65.272378 
3254.000000	65.288448 
3253.000000	65.298700 
3252.000000	65.305352 
3251.000000	65.310955 
3250.000000	65.318059 
3249.000000	65.328192 
3248.000000	65.341567 
3247.000000	65.356707 
3246.000000	65.371155 
3245.000000	65.381884 
3244.000000	65.386271 
3243.000000	65.382719 
3242.000000	65.371060 
3241.000000	65.352725 
3240.000000	65.330147 
3239.000000	65.306282 
3238.000000	65.283846 
3237.000000	65.264892 
3236.000000	65.250563 
3235.000000	65.241193 
3234.000000	65.236377 
3233.000000	65.235590 
3232.000000	65.238213 
3231.000000	65.243721 
3230.000000	65.251541 
3229.000000	65.260863 
3228.000000	65.270662 
3227.000000	65.279555 
3226.000000	65.286087 
3225.000000	65.289306 
3224.000000	65.289044 
3223.000000	65.286231 
3222.000000	65.282440 
3221.000000	65.279769 
3220.000000	65.279650 
3219.000000	65.282630 
3218.000000	65.287685 
3217.000000	65.292859 
3216.000000	65.295386 
3215.000000	65.292572 
3214.000000	65.282416 
3213.000000	65.264439 
3212.000000	65.239644 
3211.000000	65.210437 
3210.000000	65.180158 
3209.000000	65.152120 
3208.000000	65.129232 
3207.000000	65.113425 
3206.000000	65.105366 
3205.000000	65.104341 
3204.000000	65.108895 
3203.000000	65.117311 
3202.000000	65.128087 
3201.000000	65.140366 
3200.000000	65.153908 
3199.000000	65.168929 
3198.000000	65.185904 
3197.000000	65.204858 
3196.000000	65.225338 
3195.000000	65.245580 
3194.000000	65.263271 
3193.000000	65.275216 
3192.000000	65.278339 
3191.000000	65.270042 
3190.000000	65.249156 
3189.000000	65.216279 
3188.000000	65.174031 
3187.000000	65.126776 
3186.000000	65.079689 
3185.000000	65.038204 
3184.000000	65.006971 
3183.000000	64.989185 
3182.000000	64.985775 
3181.000000	64.995765 
3180.000000	65.016317 
3179.000000	65.043354 
3178.000000	65.072393 
3177.000000	65.099263 
3176.000000	65.120816 
3175.000000	65.135264 
3174.000000	65.142154 
3173.000000	65.142130 
3172.000000	65.136599 
3171.000000	65.127182 
3170.000000	65.115141 
3169.000000	65.101289 
3168.000000	65.085864 
3167.000000	65.068578 
3166.000000	65.049028 
3165.000000	65.026903 
3164.000000	65.002536 
3163.000000	64.976859 
3162.000000	64.951658 
3161.000000	64.929127 
3160.000000	64.911746 
3159.000000	64.901375 
3158.000000	64.899492 
3157.000000	64.906430 
3156.000000	64.921450 
3155.000000	64.942908 
3154.000000	64.968442 
3153.000000	64.995384 
3152.000000	65.021347 
3151.000000	65.043997 
3150.000000	65.061879 
3149.000000	65.074157 
3148.000000	65.081095 
3147.000000	65.083718 
3146.000000	65.083742 
3145.000000	65.083050 
3144.000000	65.083289 
3143.000000	65.085315 
3142.000000	65.089178 
3141.000000	65.094065 
3140.000000	65.098381 
3139.000000	65.100502 
3138.000000	65.099239 
3137.000000	65.094447 
3136.000000	65.086936 
3135.000000	65.078401 
3134.000000	65.071225 
3133.000000	65.067434 
3132.000000	65.068602 
3131.000000	65.075016 
3130.000000	65.085721 
3129.000000	65.098643 
3128.000000	65.111064 
3127.000000	65.120291 
3126.000000	65.124297 
3125.000000	65.122270 
3124.000000	65.114641 
3123.000000	65.103125 
3122.000000	65.089917 
3121.000000	65.077567 
3120.000000	65.068244 
3119.000000	65.063428 
3118.000000	65.063619 
3117.000000	65.068578 
3116.000000	65.077424 
3115.000000	65.089035 
3114.000000	65.102243 
3113.000000	65.116143 
3112.000000	65.130043 
3111.000000	65.143489 
3110.000000	65.156006 
3109.000000	65.166974 
3108.000000	65.175580 
3107.000000	65.180897 
3106.000000	65.182065 
3105.000000	65.178394 
3104.000000	65.169739 
3103.000000	65.156674 
3102.000000	65.140461 
3101.000000	65.122985 
3100.000000	65.106248 
3099.000000	65.092277 
3098.000000	65.082645 
3097.000000	65.078163 
3096.000000	65.078783 
3095.000000	65.083551 
3094.000000	65.090990 
3093.000000	65.099406 
3092.000000	65.107083 
3091.000000	65.112614 
3090.000000	65.115141 
3089.000000	65.114307 
3088.000000	65.110230 
3087.000000	65.103507 
3086.000000	65.095114 
3085.000000	65.086221 
3084.000000	65.078043 
3083.000000	65.071964 
3082.000000	65.069246 
3081.000000	65.070986 
3080.000000	65.077948 
3079.000000	65.090107 
3078.000000	65.106987 
3077.000000	65.127372 
3076.000000	65.149474 
3075.000000	65.171170 
3074.000000	65.190219 
3073.000000	65.204715 
3072.000000	65.213274 
3071.000000	65.215301 
3070.000000	65.210866 
3069.000000	65.200924 
3068.000000	65.187120 
3067.000000	65.171313 
3066.000000	65.155506 
3065.000000	65.141606 
3064.000000	65.131330 
3063.000000	65.125942 
3062.000000	65.126085 
3061.000000	65.131807 
3060.000000	65.142536 
3059.000000	65.157008 
3058.000000	65.173649 
3057.000000	65.190434 
3056.000000	65.205383 
3055.000000	65.217018 
3054.000000	65.224266 
3053.000000	65.226936 
3052.000000	65.225291 
3051.000000	65.220379 
3050.000000	65.213251 
3049.000000	65.205049 
3048.000000	65.196490 
3047.000000	65.188002 
3046.000000	65.179729 
3045.000000	65.171551 
3044.000000	65.163826 
3043.000000	65.157270 
3042.000000	65.153145 
3041.000000	65.152931 
3040.000000	65.158247 
3039.000000	65.170192 
3038.000000	65.189051 
3037.000000	65.213871 
3036.000000	65.242552 
3035.000000	65.272068 
3034.000000	65.298986 
3033.000000	65.319871 
3032.000000	65.332150 
3031.000000	65.334105 
3030.000000	65.325546 
3029.000000	65.307259 
3028.000000	65.281152 
3027.000000	65.249609 
3026.000000	65.215206 
3025.000000	65.180492 
3024.000000	65.147900 
3023.000000	65.119218 
3022.000000	65.095996 
3021.000000	65.079092 
3020.000000	65.068697 
3019.000000	65.064334 
3018.000000	65.064859 
3017.000000	65.068793 
3016.000000	65.074396 
3015.000000	65.079879 
3014.000000	65.083789 
3013.000000	65.085101 
3012.000000	65.083193 
3011.000000	65.078043 
3010.000000	65.069913 
3009.000000	65.059399 
3008.000000	65.047192 
3007.000000	65.034317 
3006.000000	65.021800 
3005.000000	65.010786 
3004.000000	65.002584 
3003.000000	64.998221 
3002.000000	64.998435 
3001.000000	65.003371 
3000.000000	65.012741 
2999.000000	65.025472 
2998.000000	65.040397 
2997.000000	65.056490 
2996.000000	65.073204 
2995.000000	65.090584 
2994.000000	65.108990 
2993.000000	65.128922 
2992.000000	65.150403 
2991.000000	65.172839 
2990.000000	65.194749 
2989.000000	65.213823 
2988.000000	65.227556 
2987.000000	65.233898 
2986.000000	65.231752 
2985.000000	65.221381 
2984.000000	65.204548 
2983.000000	65.184450 
2982.000000	65.164899 
2981.000000	65.149688 
2980.000000	65.141987 
2979.000000	65.143537 
2978.000000	65.154528 
2977.000000	65.173411 
2976.000000	65.197372 
2975.000000	65.222525 
2974.000000	65.244650 
2973.000000	65.259599 
2972.000000	65.263891 
2971.000000	65.255355 
2970.000000	65.233397 
2969.000000	65.199542 
2968.000000	65.156793 
2967.000000	65.109634 
2966.000000	65.063238 
2965.000000	65.022611 
2964.000000	64.991927 
2963.000000	64.973831 
2962.000000	64.969325 
2961.000000	64.977669 
2960.000000	64.996600 
2959.000000	65.023112 
2958.000000	65.054011 
2957.000000	65.086221 
2956.000000	65.117263 
2955.000000	65.145397 
2954.000000	65.169668 
2953.000000	65.189504 
2952.000000	65.204620 
2951.000000	65.214776 
2950.000000	65.219616 
2949.000000	65.219092 
2948.000000	65.212845 
2947.000000	65.200638 
2946.000000	65.182471 
2945.000000	65.158605 
2944.000000	65.130233 
2943.000000	65.099096 
2942.000000	65.067744 
2941.000000	65.039372 
2940.000000	65.017199 
2939.000000	65.004014 
2938.000000	65.001463 
2937.000000	65.009808 
2936.000000	65.027689 
2935.000000	65.052151 
2934.000000	65.079331 
2933.000000	65.105056 
2932.000000	65.125465 
2931.000000	65.137696 
2930.000000	65.140128 
2929.000000	65.132546 
2928.000000	65.116071 
2927.000000	65.092849 
2926.000000	65.065455 
2925.000000	65.036630 
2924.000000	65.009093 
2923.000000	64.985370 
2922.000000	64.967608 
2921.000000	64.957547 
2920.000000	64.956235 
2919.000000	64.964222 
2918.000000	64.980983 
2917.000000	65.005469 
2916.000000	65.035724 
2915.000000	65.069389 
2914.000000	65.103864 
2913.000000	65.136647 
2912.000000	65.165591 
2911.000000	65.189194 
2910.000000	65.206599 
2909.000000	65.217494 
2908.000000	65.222048 
2907.000000	65.220713 
2906.000000	65.214037 
2905.000000	65.202689 
2904.000000	65.187215 
2903.000000	65.168428 
2902.000000	65.147519 
2901.000000	65.126037 
2900.000000	65.105962 
2899.000000	65.089344 
2898.000000	65.078234 
2897.000000	65.073895 
2896.000000	65.076708 
2895.000000	65.086269 
2894.000000	65.101075 
2893.000000	65.118956 
2892.000000	65.137457 
2891.000000	65.154528 
2890.000000	65.168523 
2889.000000	65.178322 
2888.000000	65.183186 
2887.000000	65.182828 
2886.000000	65.177178 
2885.000000	65.166258 
2884.000000	65.150284 
2883.000000	65.129685 
2882.000000	65.105462 
2881.000000	65.079498 
2880.000000	65.054225 
2879.000000	65.032243 
2878.000000	65.016031 
2877.000000	65.007519 
2876.000000	65.007424 
2875.000000	65.015172 
2874.000000	65.029072 
2873.000000	65.046906 
2872.000000	65.066385 
2871.000000	65.085601 
2870.000000	65.103268 
2869.000000	65.119028 
2868.000000	65.133094 
2867.000000	65.146064 
2866.000000	65.158438 
2865.000000	65.170574 
2864.000000	65.182495 
2863.000000	65.193819 
2862.000000	65.204048 
2861.000000	65.212488 
2860.000000	65.218710 
2859.000000	65.222263 
2858.000000	65.222716 
2857.000000	65.219640 
2856.000000	65.212607 
2855.000000	65.201282 
2854.000000	65.185618 
2853.000000	65.165972 
2852.000000	65.143370 
2851.000000	65.119171 
2850.000000	65.094995 
2849.000000	65.072584 
2848.000000	65.053534 
2847.000000	65.038919 
2846.000000	65.029239 
2845.000000	65.024447 
2844.000000	65.024018 
2843.000000	65.027046 
2842.000000	65.032291 
2841.000000	65.038537 
2840.000000	65.044760 
2839.000000	65.050458 
2838.000000	65.055584 
2837.000000	65.060400 
2836.000000	65.065503 
2835.000000	65.071702 
2834.000000	65.079689 
2833.000000	65.089821 
2832.000000	65.101695 
2831.000000	65.114378 
2830.000000	65.126323 
2829.000000	65.135765 
2828.000000	65.141105 
2827.000000	65.141367 
2826.000000	65.136504 
2825.000000	65.127563 
2824.000000	65.116500 
2823.000000	65.105700 
2822.000000	65.097641 
2821.000000	65.094375 
2820.000000	65.097308 
2819.000000	65.106987 
2818.000000	65.123176 
2817.000000	65.144920 
2816.000000	65.170741 
2815.000000	65.198636 
2814.000000	65.226483 
2813.000000	65.251970 
2812.000000	65.272760 
2811.000000	65.286588 
2810.000000	65.291738 
2809.000000	65.287041 
2808.000000	65.272235 
2807.000000	65.248155 
2806.000000	65.216851 
2805.000000	65.181374 
2804.000000	65.145516 
2803.000000	65.113353 
2802.000000	65.088510 
2801.000000	65.073847 
2800.000000	65.070891 
2799.000000	65.079569 
2798.000000	65.098285 
2797.000000	65.124201 
2796.000000	65.153741 
2795.000000	65.183138 
2794.000000	65.209031 
2793.000000	65.228748 
2792.000000	65.240955 
2791.000000	65.245485 
2790.000000	65.243339 
2789.000000	65.236520 
2788.000000	65.227580 
2787.000000	65.219187 
2786.000000	65.213704 
2785.000000	65.212988 
2784.000000	65.217924 
2783.000000	65.228462 
2782.000000	65.243577 
2781.000000	65.261745 
2780.000000	65.280961 
2779.000000	65.299272 
2778.000000	65.314579 
2777.000000	65.325307 
2776.000000	65.330243 
2775.000000	65.328884 
2774.000000	65.321230 
2773.000000	65.307998 
2772.000000	65.290427 
2771.000000	65.270447 
2770.000000	65.250134 
2769.000000	65.231442 
2768.000000	65.216207 
2767.000000	65.205621 
2766.000000	65.200424 
2765.000000	65.200686 
2764.000000	65.205717 
2763.000000	65.214395 
2762.000000	65.225267 
2761.000000	65.236949 
2760.000000	65.248107 
2759.000000	65.257596 
2758.000000	65.264678 
2757.000000	65.269088 
2756.000000	65.271019 
2755.000000	65.271067 
2754.000000	65.270066 
2753.000000	65.269041 
2752.000000	65.269041 
2751.000000	65.270757 
2750.000000	65.274453 
2749.000000	65.279889 
2748.000000	65.286350 
2747.000000	65.292930 
2746.000000	65.298700 
2745.000000	65.303039 
2744.000000	65.305590 
2743.000000	65.306329 
2742.000000	65.305376 
2741.000000	65.302968 
2740.000000	65.299224 
2739.000000	65.294170 
2738.000000	65.287780 
2737.000000	65.280103 
2736.000000	65.271401 
2735.000000	65.262150 
2734.000000	65.253090 
2733.000000	65.245032 
2732.000000	65.238666 
2731.000000	65.234518 
2730.000000	65.232992 
2729.000000	65.233898 
2728.000000	65.237188 
2727.000000	65.242886 
2726.000000	65.251159 
2725.000000	65.262246 
2724.000000	65.276288 
2723.000000	65.293097 
2722.000000	65.311884 
2721.000000	65.331196 
2720.000000	65.348935 
2719.000000	65.362882 
2718.000000	65.370988 
2717.000000	65.371894 
2716.000000	65.365028 
2715.000000	65.350770 
2714.000000	65.330171 
2713.000000	65.304827 
2712.000000	65.276503 
2711.000000	65.246915 
2710.000000	65.217638 
2709.000000	65.190005 
2708.000000	65.165257 
2707.000000	65.144538 
2706.000000	65.128946 
2705.000000	65.119290 
2704.000000	65.115785 
2703.000000	65.117955 
2702.000000	65.124607 
2701.000000	65.134000 
2700.000000	65.143847 
2699.000000	65.152168 
2698.000000	65.157508 
2697.000000	65.159225 
2696.000000	65.157604 
2695.000000	65.153741 
2694.000000	65.149068 
2693.000000	65.145111 
2692.000000	65.143179 
2691.000000	65.143871 
2690.000000	65.147066 
2689.000000	65.151953 
2688.000000	65.157103 
2687.000000	65.160965 
2686.000000	65.161967 
2685.000000	65.159058 
2684.000000	65.151953 
2683.000000	65.141034 
2682.000000	65.127563 
2681.000000	65.113401 
2680.000000	65.100884 
2679.000000	65.092372 
2678.000000	65.089988 
2677.000000	65.095019 
2676.000000	65.107941 
2675.000000	65.128040 
2674.000000	65.153741 
2673.000000	65.182566 
2672.000000	65.211677 
2671.000000	65.238070 
2670.000000	65.259218 
2669.000000	65.273284 
2668.000000	65.279340 
2667.000000	65.277433 
2666.000000	65.268468 
2665.000000	65.254020 
2664.000000	65.235996 
2663.000000	65.216588 
2662.000000	65.197467 
2661.000000	65.179944 
2660.000000	65.164709 
2659.000000	65.152025 
2658.000000	65.141582 
2657.000000	65.132689 
2656.000000	65.124487 
2655.000000	65.116262 
2654.000000	65.107560 
2653.000000	65.098285 
2652.000000	65.088629 
2651.000000	65.079092 
2650.000000	65.070152 
2649.000000	65.062212 
2648.000000	65.055561 
2647.000000	65.050363 
2646.000000	65.046453 
2645.000000	65.043854 
2644.000000	65.042519 
2643.000000	65.042662 
2642.000000	65.044641 
2641.000000	65.049028 
2640.000000	65.056157 
2639.000000	65.066194 
2638.000000	65.078973 
2637.000000	65.094041 
2636.000000	65.110516 
2635.000000	65.127158 
2634.000000	65.142774 
2633.000000	65.156102 
2632.000000	65.166163 
2631.000000	65.172004 
2630.000000	65.172910 
2629.000000	65.168452 
2628.000000	65.158796 
2627.000000	65.144753 
2626.000000	65.127944 
2625.000000	65.110754 
2624.000000	65.096068 
2623.000000	65.086650 
2622.000000	65.084767 
2621.000000	65.091586 
2620.000000	65.106797 
2619.000000	65.128684 
2618.000000	65.154385 
2617.000000	65.180373 
2616.000000	65.203356 
2615.000000	65.220856 
2614.000000	65.231657 
2613.000000	65.235996 
2612.000000	65.235376 
2611.000000	65.231847 
2610.000000	65.227484 
2609.000000	65.223979 
2608.000000	65.222096 
2607.000000	65.221738 
2606.000000	65.222144 
2605.000000	65.222167 
2604.000000	65.220761 
2603.000000	65.217089 
2602.000000	65.210843 
2601.000000	65.202140 
2600.000000	65.191698 
2599.000000	65.180420 
2598.000000	65.169239 
2597.000000	65.158891 
2596.000000	65.149688 
2595.000000	65.141487 
2594.000000	65.133786 
2593.000000	65.125966 
2592.000000	65.117430 
2591.000000	65.108013 
2590.000000	65.097904 
2589.000000	65.087914 
2588.000000	65.079283 
2587.000000	65.073513 
2586.000000	65.071845 
2585.000000	65.075302 
2584.000000	65.084314 
2583.000000	65.098690 
2582.000000	65.117383 
2581.000000	65.138864 
2580.000000	65.161299 
2579.000000	65.182900 
2578.000000	65.202093 
2577.000000	65.217590 
2576.000000	65.228509 
2575.000000	65.234565 
2574.000000	65.235972 
2573.000000	65.233421 
2572.000000	65.227866 
2571.000000	65.220713 
2570.000000	65.213036 
2569.000000	65.205693 
2568.000000	65.199160 
2567.000000	65.193462 
2566.000000	65.188455 
2565.000000	65.183782 
2564.000000	65.179252 
2563.000000	65.175056 
2562.000000	65.171575 
2561.000000	65.169286 
2560.000000	65.168547 
2559.000000	65.169429 
2558.000000	65.171647 
2557.000000	65.174579 
2556.000000	65.177440 
2555.000000	65.179538 
2554.000000	65.180754 
2553.000000	65.181732 
2552.000000	65.183544 
2551.000000	65.187501 
2550.000000	65.194869 
2549.000000	65.206336 
2548.000000	65.221619 
2547.000000	65.239500 
2546.000000	65.258264 
2545.000000	65.275883 
2544.000000	65.290689 
2543.000000	65.301537 
2542.000000	65.308046 
2541.000000	65.310502 
2540.000000	65.309619 
2539.000000	65.306568 
2538.000000	65.302443 
2537.000000	65.298438 
2536.000000	65.295648 
2535.000000	65.294694 
2534.000000	65.296053 
2533.000000	65.299415 
2532.000000	65.303969 
2531.000000	65.308356 
2530.000000	65.310811 
2529.000000	65.309476 
2528.000000	65.302801 
2527.000000	65.289878 
2526.000000	65.270757 
2525.000000	65.246415 
2524.000000	65.218925 
2523.000000	65.190720 
2522.000000	65.164446 
2521.000000	65.142393 
2520.000000	65.126037 
2519.000000	65.116119 
2518.000000	65.112519 
2517.000000	65.114545 
2516.000000	65.121054 
2515.000000	65.130805 
2514.000000	65.142583 
2513.000000	65.155172 
2512.000000	65.167665 
2511.000000	65.179157 
2510.000000	65.189123 
2509.000000	65.197181 
2508.000000	65.203237 
2507.000000	65.207791 
2506.000000	65.211534 
2505.000000	65.215539 
2504.000000	65.220928 
2503.000000	65.228843 
2502.000000	65.240049 
2501.000000	65.254640 
2500.000000	65.271997 
2499.000000	65.290856 
2498.000000	65.309548 
2497.000000	65.326356 
2496.000000	65.339660 
2495.000000	65.348505 
2494.000000	65.352725 
2493.000000	65.353012 
2492.000000	65.350484 
2491.000000	65.346384 
2490.000000	65.342259 
2489.000000	65.339159 
2488.000000	65.337824 
2487.000000	65.338373 
2486.000000	65.340662 
2485.000000	65.343976 
2484.000000	65.347504 
2483.000000	65.350008 
2482.000000	65.350174 
2481.000000	65.346598 
2480.000000	65.338087 
2479.000000	65.323781 
2478.000000	65.303301 
2477.000000	65.277099 
2476.000000	65.246582 
2475.000000	65.213799 
2474.000000	65.181350 
2473.000000	65.151834 
2472.000000	65.127587 
2471.000000	65.110111 
2470.000000	65.099835 
2469.000000	65.096402 
2468.000000	65.099024 
2467.000000	65.106511 
2466.000000	65.117788 
2465.000000	65.132260 
2464.000000	65.149879 
2463.000000	65.170598 
2462.000000	65.194225 
2461.000000	65.220117 
2460.000000	65.246915 
2459.000000	65.272569 
2458.000000	65.294647 
2457.000000	65.310645 
2456.000000	65.318727 
2455.000000	65.318298 
2454.000000	65.309906 
2453.000000	65.295362 
2452.000000	65.277409 
2451.000000	65.259170 
2450.000000	65.243411 
2449.000000	65.232419 
2448.000000	65.227246 
2447.000000	65.228056 
2446.000000	65.234017 
2445.000000	65.243673 
2444.000000	65.255308 
2443.000000	65.267348 
2442.000000	65.278315 
2441.000000	65.287089 
2440.000000	65.292954 
2439.000000	65.295457 
2438.000000	65.294384 
2437.000000	65.289497 
2436.000000	65.280985 
2435.000000	65.269136 
2434.000000	65.254807 
2433.000000	65.239143 
2432.000000	65.223622 
2431.000000	65.209746 
2430.000000	65.199112 
2429.000000	65.192961 
2428.000000	65.191841 
2427.000000	65.195822 
2426.000000	65.204286 
2425.000000	65.216183 
2424.000000	65.230035 
2423.000000	65.244436 
2422.000000	65.258145 
2421.000000	65.270280 
2420.000000	65.280389 
2419.000000	65.288352 
2418.000000	65.294241 
2417.000000	65.298461 
2416.000000	65.301346 
2415.000000	65.303373 
2414.000000	65.305018 
2413.000000	65.306663 
2412.000000	65.308451 
2411.000000	65.310311 
2410.000000	65.311861 
2409.000000	65.312314 
2408.000000	65.310811 
2407.000000	65.306377 
2406.000000	65.298557 
2405.000000	65.287542 
2404.000000	65.274238 
2403.000000	65.260124 
2402.000000	65.247130 
2401.000000	65.237236 
2400.000000	65.232062 
2399.000000	65.232563 
2398.000000	65.238690 
2397.000000	65.249466 
2396.000000	65.263056 
2395.000000	65.277099 
2394.000000	65.289211 
2393.000000	65.297222 
2392.000000	65.299701 
2391.000000	65.296006 
2390.000000	65.286231 
2389.000000	65.271091 
2388.000000	65.251636 
2387.000000	65.229201 
2386.000000	65.204954 
2385.000000	65.179896 
2384.000000	65.154933 
2383.000000	65.130925 
2382.000000	65.108823 
2381.000000	65.089774 
2380.000000	65.074968 
2379.000000	65.065765 
2378.000000	65.063047 
2377.000000	65.067601 
2376.000000	65.079212 
2375.000000	65.097045 
2374.000000	65.119433 
2373.000000	65.144181 
2372.000000	65.168690 
2371.000000	65.190720 
2370.000000	65.208363 
2369.000000	65.220761 
2368.000000	65.227913 
2367.000000	65.230822 
2366.000000	65.231060 
2365.000000	65.230536 
2364.000000	65.230846 
2363.000000	65.232920 
2362.000000	65.236949 
2361.000000	65.242171 
2360.000000	65.247106 
2359.000000	65.250039 
2358.000000	65.249395 
2357.000000	65.244150 
2356.000000	65.234208 
2355.000000	65.220427 
2354.000000	65.204668 
2353.000000	65.189075 
2352.000000	65.176177 
2351.000000	65.167856 
2350.000000	65.165472 
2349.000000	65.169405 
2348.000000	65.179061 
2347.000000	65.193057 
2346.000000	65.209388 
2345.000000	65.225648 
2344.000000	65.239620 
2343.000000	65.249395 
2342.000000	65.253901 
2341.000000	65.253162 
2340.000000	65.248179 
2339.000000	65.240716 
2338.000000	65.233039 
2337.000000	65.227341 
2336.000000	65.225315 
2335.000000	65.227723 
2334.000000	65.234184 
2333.000000	65.243244 
2332.000000	65.252852 
2331.000000	65.260648 
2330.000000	65.264630 
2329.000000	65.263533 
2328.000000	65.257024 
2327.000000	65.245819 
2326.000000	65.231204 
2325.000000	65.215086 
2324.000000	65.199136 
2323.000000	65.185046 
2322.000000	65.174031 
2321.000000	65.166926 
2320.000000	65.164375 
2319.000000	65.166521 
2318.000000	65.173125 
2317.000000	65.183591 
2316.000000	65.196871 
2315.000000	65.211844 
2314.000000	65.227317 
2313.000000	65.242218 
2312.000000	65.255665 
2311.000000	65.266966 
2310.000000	65.275669 
2309.000000	65.281486 
2308.000000	65.284180 
2307.000000	65.283346 
2306.000000	65.278601 
2305.000000	65.269756 
2304.000000	65.256977 
2303.000000	65.240979 
2302.000000	65.222859 
2301.000000	65.204286 
2300.000000	65.187096 
2299.000000	65.172863 
2298.000000	65.162587 
2297.000000	65.156579 
2296.000000	65.154528 
2295.000000	65.155673 
2294.000000	65.159177 
2293.000000	65.164351 
2292.000000	65.170550 
2291.000000	65.177345 
2290.000000	65.184187 
2289.000000	65.190100 
2288.000000	65.194034 
2287.000000	65.194773 
2286.000000	65.191340 
2285.000000	65.183353 
2284.000000	65.171456 
2283.000000	65.157270 
2282.000000	65.143465 
2281.000000	65.133070 
2280.000000	65.129137 
2279.000000	65.133762 
2278.000000	65.147757 
2277.000000	65.170240 
2276.000000	65.199065 
2275.000000	65.231060 
2274.000000	65.262794 
2273.000000	65.291142 
2272.000000	65.313720 
2271.000000	65.329170 
2270.000000	65.337228 
2269.000000	65.338301 
2268.000000	65.333318 
2267.000000	65.323424 
2266.000000	65.309762 
2265.000000	65.293264 
2264.000000	65.274858 
2263.000000	65.255403 
2262.000000	65.235877 
2261.000000	65.217542 
2260.000000	65.201783 
2259.000000	65.189981 
2258.000000	65.183353 
2257.000000	65.182352 
2256.000000	65.186858 
2255.000000	65.195727 
2254.000000	65.207123 
2253.000000	65.218758 
2252.000000	65.228486 
2251.000000	65.234684 
2250.000000	65.236711 
2249.000000	65.235018 
2248.000000	65.231132 
2247.000000	65.227293 
2246.000000	65.225768 
2245.000000	65.228462 
2244.000000	65.236139 
2243.000000	65.248298 
2242.000000	65.263199 
2241.000000	65.278315 
2240.000000	65.290784 
2239.000000	65.298199 
2238.000000	65.299057 
2237.000000	65.293145 
2236.000000	65.281701 
2235.000000	65.267014 
2234.000000	65.251922 
2233.000000	65.239191 
2232.000000	65.230751 
2231.000000	65.227651 
2230.000000	65.229415 
2229.000000	65.234589 
2228.000000	65.240931 
2227.000000	65.246057 
2226.000000	65.248155 
2225.000000	65.246295 
2224.000000	65.240573 
2223.000000	65.232205 
2222.000000	65.222930 
2221.000000	65.214633 
2220.000000	65.208768 
2219.000000	65.205979 
2218.000000	65.206098 
2217.000000	65.208196 
2216.000000	65.210795 
2215.000000	65.212273 
2214.000000	65.211272 
2213.000000	65.207123 
2212.000000	65.199708 
2211.000000	65.189933 
2210.000000	65.179181 
2209.000000	65.169262 
2208.000000	65.161967 
2207.000000	65.158510 
2206.000000	65.159368 
2205.000000	65.164017 
2204.000000	65.171170 
2203.000000	65.178894 
2202.000000	65.185189 
2201.000000	65.188407 
2200.000000	65.187692 
2199.000000	65.182971 
2198.000000	65.174913 
2197.000000	65.164852 
2196.000000	65.154099 
2195.000000	65.143918 
2194.000000	65.134859 
2193.000000	65.126967 
2192.000000	65.119743 
2191.000000	65.112495 
2190.000000	65.104460 
2189.000000	65.095257 
2188.000000	65.085053 
2187.000000	65.074491 
2186.000000	65.064644 
2185.000000	65.056586 
2184.000000	65.051364 
2183.000000	65.049386 
2182.000000	65.050840 
2181.000000	65.055227 
2180.000000	65.061974 
2179.000000	65.070319 
2178.000000	65.079689 
2177.000000	65.089917 
2176.000000	65.101170 
2175.000000	65.113830 
2174.000000	65.128397 
2173.000000	65.145158 
2172.000000	65.163969 
2171.000000	65.184044 
2170.000000	65.204095 
2169.000000	65.222430 
2168.000000	65.237331 
2167.000000	65.247201 
2166.000000	65.251255 
2165.000000	65.249395 
2164.000000	65.242338 
2163.000000	65.231204 
2162.000000	65.217852 
2161.000000	65.204024 
2160.000000	65.191364 
2159.000000	65.180897 
2158.000000	65.173339 
2157.000000	65.168595 
2156.000000	65.166091 
2155.000000	65.164923 
2154.000000	65.164065 
2153.000000	65.162730 
2152.000000	65.160608 
2151.000000	65.157890 
2150.000000	65.155243 
2149.000000	65.153670 
2148.000000	65.154170 
2147.000000	65.157318 
2146.000000	65.163254 
2145.000000	65.171504 
2144.000000	65.181016 
2143.000000	65.190410 
2142.000000	65.198230 
2141.000000	65.203261 
2140.000000	65.204715 
2139.000000	65.202283 
2138.000000	65.196251 
2137.000000	65.187406 
2136.000000	65.176796 
2135.000000	65.165662 
2134.000000	65.155124 
2133.000000	65.146398 
2132.000000	65.140366 
2131.000000	65.137696 
2130.000000	65.138697 
2129.000000	65.143179 
2128.000000	65.150499 
2127.000000	65.159821 
2126.000000	65.169978 
2125.000000	65.179896 
2124.000000	65.188694 
2123.000000	65.195941 
2122.000000	65.201687 
2121.000000	65.206336 
2120.000000	65.210533 
2119.000000	65.214872 
2118.000000	65.219926 
2117.000000	65.225791 
2116.000000	65.232110 
2115.000000	65.238237 
2114.000000	65.243601 
2113.000000	65.247416 
2112.000000	65.249323 
2111.000000	65.249061 
2110.000000	65.246796 
2109.000000	65.242981 
2108.000000	65.238118 
2107.000000	65.232682 
2106.000000	65.227174 
2105.000000	65.221810 
2104.000000	65.216851 
2103.000000	65.212583 
2102.000000	65.209126 
2101.000000	65.206623 
2100.000000	65.205168 
2099.000000	65.204668 
2098.000000	65.205049 
2097.000000	65.205931 
2096.000000	65.206837 
2095.000000	65.207242 
2094.000000	65.206480 
2093.000000	65.204048 
2092.000000	65.199518 
2091.000000	65.192651 
2090.000000	65.183424 
2089.000000	65.171837 
2088.000000	65.158224 
2087.000000	65.142869 
2086.000000	65.126490 
2085.000000	65.109658 
2084.000000	65.093374 
2083.000000	65.079069 
2082.000000	65.068292 
2081.000000	65.062665 
2080.000000	65.063405 
2079.000000	65.071177 
2078.000000	65.085721 
2077.000000	65.105700 
2076.000000	65.128827 
2075.000000	65.152049 
2074.000000	65.172457 
2073.000000	65.187501 
2072.000000	65.195870 
2071.000000	65.197658 
2070.000000	65.194416 
2069.000000	65.188646 
2068.000000	65.183329 
2067.000000	65.181136 
2066.000000	65.183687 
2065.000000	65.191388 
2064.000000	65.203237 
2063.000000	65.217232 
2062.000000	65.230846 
2061.000000	65.241742 
2060.000000	65.248203 
2059.000000	65.249490 
2058.000000	65.245699 
2057.000000	65.237855 
2056.000000	65.227317 
2055.000000	65.215611 
2054.000000	65.204071 
2053.000000	65.193772 
2052.000000	65.185379 
2051.000000	65.179276 
2050.000000	65.175843 
2049.000000	65.175104 
2048.000000	65.177011 
2047.000000	65.181279 
2046.000000	65.187168 
2045.000000	65.193867 
2044.000000	65.200471 
2043.000000	65.206217 
2042.000000	65.210485 
2041.000000	65.213131 
2040.000000	65.214443 
2039.000000	65.214991 
2038.000000	65.215516 
2037.000000	65.216493 
2036.000000	65.218162 
2035.000000	65.220403 
2034.000000	65.222525 
2033.000000	65.223765 
2032.000000	65.223264 
2031.000000	65.220403 
2030.000000	65.214991 
2029.000000	65.207386 
2028.000000	65.198493 
2027.000000	65.189552 
2026.000000	65.181779 
2025.000000	65.176177 
2024.000000	65.173125 
2023.000000	65.172672 
2022.000000	65.174031 
2021.000000	65.175986 
2020.000000	65.177035 
2019.000000	65.175890 
2018.000000	65.171766 
2017.000000	65.164518 
2016.000000	65.154814 
2015.000000	65.143966 
2014.000000	65.133738 
2013.000000	65.126013 
2012.000000	65.122318 
2011.000000	65.123486 
2010.000000	65.129399 
2009.000000	65.139079 
2008.000000	65.150713 
2007.000000	65.162134 
2006.000000	65.171194 
2005.000000	65.176272 
2004.000000	65.176439 
2003.000000	65.171885 
2002.000000	65.163469 
2001.000000	65.152740 
2000.000000	65.141439 
1999.000000	65.131378 
1998.000000	65.123891 
1997.000000	65.120077 
1996.000000	65.120434 
1995.000000	65.125250 
1994.000000	65.134549 
1993.000000	65.148091 
1992.000000	65.165448 
1991.000000	65.186023 
1990.000000	65.208864 
1989.000000	65.232849 
1988.000000	65.256547 
1987.000000	65.278601 
1986.000000	65.297794 
1985.000000	65.313482 
1984.000000	65.325450 
1983.000000	65.334105 
1982.000000	65.340137 
1981.000000	65.344548 
1980.000000	65.348219 
1979.000000	65.351676 
1978.000000	65.354943 
1977.000000	65.357565 
1976.000000	65.358662 
1975.000000	65.357470 
1974.000000	65.353250 
1973.000000	65.345668 
1972.000000	65.334749 
1971.000000	65.320920 
1970.000000	65.304827 
1969.000000	65.287208 
1968.000000	65.268754 
1967.000000	65.250134 
1966.000000	65.232014 
1965.000000	65.215039 
1964.000000	65.199899 
1963.000000	65.187263 
1962.000000	65.177869 
1961.000000	65.172243 
1960.000000	65.170836 
1959.000000	65.174007 
1958.000000	65.181779 
1957.000000	65.193700 
1956.000000	65.209102 
1955.000000	65.226936 
1954.000000	65.245723 
1953.000000	65.263700 
1952.000000	65.279006 
1951.000000	65.289950 
1950.000000	65.295124 
1949.000000	65.293765 
1948.000000	65.285873 
1947.000000	65.272164 
1946.000000	65.254235 
1945.000000	65.234136 
1944.000000	65.214276 
1943.000000	65.196800 
1942.000000	65.183568 
1941.000000	65.175867 
1940.000000	65.174198 
1939.000000	65.178227 
1938.000000	65.187120 
1937.000000	65.199398 
1936.000000	65.213274 
1935.000000	65.226793 
1934.000000	65.238118 
1933.000000	65.245938 
1932.000000	65.249395 
1931.000000	65.248417 
1930.000000	65.243721 
1929.000000	65.236735 
1928.000000	65.229320 
1927.000000	65.223407 
1926.000000	65.220689 
1925.000000	65.222144 
1924.000000	65.227794 
1923.000000	65.236902 
1922.000000	65.247845 
1921.000000	65.258765 
1920.000000	65.267896 
1919.000000	65.273976 
1918.000000	65.276479 
1917.000000	65.275716 
1916.000000	65.272545 
1915.000000	65.268230 
1914.000000	65.263819 
1913.000000	65.260267 
1912.000000	65.257954 
1911.000000	65.256929 
1910.000000	65.256643 
1909.000000	65.256404 
1908.000000	65.255379 
1907.000000	65.252923 
1906.000000	65.248703 
1905.000000	65.242624 
1904.000000	65.234994 
1903.000000	65.226101 
1902.000000	65.216422 
1901.000000	65.206480 
1900.000000	65.196800 
1899.000000	65.187859 
1898.000000	65.180373 
1897.000000	65.175223 
1896.000000	65.173363 
1895.000000	65.175628 
1894.000000	65.182638 
1893.000000	65.194416 
1892.000000	65.210318 
1891.000000	65.228891 
1890.000000	65.248107 
1889.000000	65.265488 
1888.000000	65.278768 
1887.000000	65.286183 
1886.000000	65.287017 
1885.000000	65.281653 
1884.000000	65.271663 
1883.000000	65.259146 
1882.000000	65.246272 
1881.000000	65.234780 
1880.000000	65.225720 
1879.000000	65.219259 
1878.000000	65.214776 
1877.000000	65.211272 
1876.000000	65.207767 
1875.000000	65.203666 
1874.000000	65.198826 
1873.000000	65.193629 
1872.000000	65.188884 
1871.000000	65.185618 
1870.000000	65.184760 
1869.000000	65.186882 
1868.000000	65.191984 
1867.000000	65.199446 
1866.000000	65.208196 
1865.000000	65.216660 
1864.000000	65.223312 
1863.000000	65.226817 
1862.000000	65.226483 
1861.000000	65.222311 
1860.000000	65.215349 
1859.000000	65.207147 
1858.000000	65.199780 
1857.000000	65.195345 
1856.000000	65.195298 
1855.000000	65.200185 
1854.000000	65.209531 
1853.000000	65.221810 
1852.000000	65.234899 
1851.000000	65.246605 
1850.000000	65.255260 
1849.000000	65.259933 
1848.000000	65.260696 
1847.000000	65.258216 
1846.000000	65.253615 
1845.000000	65.247917 
1844.000000	65.241837 
1843.000000	65.235543 
1842.000000	65.228843 
1841.000000	65.221476 
1840.000000	65.213251 
1839.000000	65.204405 
1838.000000	65.195679 
1837.000000	65.188479 
1836.000000	65.184235 
1835.000000	65.184426 
1834.000000	65.189766 
1833.000000	65.200185 
1832.000000	65.214729 
1831.000000	65.231537 
1830.000000	65.248322 
1829.000000	65.262794 
1828.000000	65.273046 
1827.000000	65.278029 
1826.000000	65.277647 
1825.000000	65.272736 
1824.000000	65.264678 
1823.000000	65.255236 
1822.000000	65.245962 
1821.000000	65.238070 
1820.000000	65.232229 
1819.000000	65.228557 
1818.000000	65.226650 
1817.000000	65.226078 
1816.000000	65.226459 
1815.000000	65.227603 
1814.000000	65.229463 
1813.000000	65.232014 
1812.000000	65.235233 
1811.000000	65.238714 
1810.000000	65.242028 
1809.000000	65.244507 
1808.000000	65.245747 
1807.000000	65.245556 
1806.000000	65.244174 
1805.000000	65.242290 
1804.000000	65.241026 
1803.000000	65.241503 
1802.000000	65.244674 
1801.000000	65.251040 
1800.000000	65.260481 
1799.000000	65.272092 
1798.000000	65.284371 
1797.000000	65.295457 
1796.000000	65.303468 
1795.000000	65.306878 
1794.000000	65.304851 
1793.000000	65.297412 
1792.000000	65.285396 
1791.000000	65.270471 
1790.000000	65.254521 
1789.000000	65.239667 
1788.000000	65.227699 
1787.000000	65.219855 
1786.000000	65.216732 
1785.000000	65.218305 
1784.000000	65.223884 
1783.000000	65.232467 
1782.000000	65.242791 
1781.000000	65.253710 
1780.000000	65.263962 
1779.000000	65.272641 
1778.000000	65.279150 
1777.000000	65.283393 
1776.000000	65.285396 
1775.000000	65.285754 
1774.000000	65.285491 
1773.000000	65.285754 
1772.000000	65.287756 
1771.000000	65.292239 
1770.000000	65.299415 
1769.000000	65.308642 
1768.000000	65.318536 
1767.000000	65.327072 
1766.000000	65.332245 
1765.000000	65.332317 
1764.000000	65.326499 
1763.000000	65.315079 
1762.000000	65.299344 
1761.000000	65.281701 
1760.000000	65.264534 
1759.000000	65.250158 
1758.000000	65.239763 
1757.000000	65.233707 
1756.000000	65.230751 
1755.000000	65.228772 
1754.000000	65.224909 
1753.000000	65.216565 
1752.000000	65.201997 
1751.000000	65.180563 
1750.000000	65.153288 
1749.000000	65.122246 
1748.000000	65.090489 
1747.000000	65.061283 
1746.000000	65.037560 
1745.000000	65.021228 
1744.000000	65.013122 
1743.000000	65.012836 
1742.000000	65.019130 
1741.000000	65.030121 
1740.000000	65.043783 
1739.000000	65.058231 
1738.000000	65.071773 
1737.000000	65.083169 
1736.000000	65.091347 
1735.000000	65.095853 
1734.000000	65.096306 
1733.000000	65.092778 
1732.000000	65.085840 
1731.000000	65.076327 
1730.000000	65.065717 
1729.000000	65.055799 
1728.000000	65.048146 
1727.000000	65.043926 
1726.000000	65.043735 
1725.000000	65.047383 
1724.000000	65.053868 
1723.000000	65.061593 
1722.000000	65.068936 
1721.000000	65.074586 
1720.000000	65.077877 
1719.000000	65.078997 
1718.000000	65.078878 
1717.000000	65.078854 
1716.000000	65.080261 
1715.000000	65.083956 
1714.000000	65.090250 
1713.000000	65.098714 
1712.000000	65.108323 
1711.000000	65.118002 
1710.000000	65.127038 
1709.000000	65.135335 
1708.000000	65.143513 
1707.000000	65.152764 
1706.000000	65.164160 
1705.000000	65.178251 
1704.000000	65.194535 
1703.000000	65.211391 
1702.000000	65.226435 
1701.000000	65.236830 
1700.000000	65.240240 
1699.000000	65.235519 
1698.000000	65.223050 
1697.000000	65.204858 
1696.000000	65.184140 
1695.000000	65.164399 
1694.000000	65.148687 
1693.000000	65.138888 
1692.000000	65.135216 
1691.000000	65.136384 
1690.000000	65.140199 
1689.000000	65.144205 
1688.000000	65.146398 
1687.000000	65.145707 
1686.000000	65.142107 
1685.000000	65.136528 
1684.000000	65.130376 
1683.000000	65.125060 
1682.000000	65.121746 
1681.000000	65.121173 
1680.000000	65.123558 
1679.000000	65.128898 
1678.000000	65.137100 
1677.000000	65.147924 
1676.000000	65.161013 
1675.000000	65.175485 
1674.000000	65.190243 
1673.000000	65.203642 
1672.000000	65.213727 
1671.000000	65.218710 
1670.000000	65.217304 
1669.000000	65.209150 
1668.000000	65.195059 
1667.000000	65.176582 
1666.000000	65.155959 
1665.000000	65.135312 
1664.000000	65.116477 
1663.000000	65.100550 
1662.000000	65.087842 
1661.000000	65.078186 
1660.000000	65.071249 
1659.000000	65.066790 
1658.000000	65.064835 
1657.000000	65.065622 
1656.000000	65.069365 
1655.000000	65.075826 
1654.000000	65.084290 
1653.000000	65.093183 
1652.000000	65.100550 
1651.000000	65.104341 
1650.000000	65.102982 
1649.000000	65.095877 
1648.000000	65.083765 
1647.000000	65.068459 
1646.000000	65.052700 
1645.000000	65.039300 
1644.000000	65.030813 
1643.000000	65.029001 
1642.000000	65.034556 
1641.000000	65.046977 
1640.000000	65.064835 
1639.000000	65.086102 
1638.000000	65.108656 
1637.000000	65.130448 
1636.000000	65.149760 
1635.000000	65.165495 
1634.000000	65.176963 
1633.000000	65.184020 
1632.000000	65.186834 
1631.000000	65.185952 
1630.000000	65.182209 
1629.000000	65.176677 
1628.000000	65.170741 
1627.000000	65.165901 
1626.000000	65.163564 
1625.000000	65.164637 
1624.000000	65.169668 
1623.000000	65.178394 
1622.000000	65.189647 
1621.000000	65.201711 
1620.000000	65.212535 
1619.000000	65.220165 
1618.000000	65.223073 
1617.000000	65.220904 
1616.000000	65.214228 
1615.000000	65.204787 
1614.000000	65.195107 
1613.000000	65.187668 
1612.000000	65.184473 
1611.000000	65.186309 
1610.000000	65.192627 
1609.000000	65.201807 
1608.000000	65.211415 
1607.000000	65.218853 
1606.000000	65.221953 
1605.000000	65.219259 
1604.000000	65.210604 
1603.000000	65.196704 
1602.000000	65.179085 
1601.000000	65.159773 
1600.000000	65.140891 
1599.000000	65.124297 
1598.000000	65.111255 
1597.000000	65.102267 
1596.000000	65.097188 
1595.000000	65.095162 
1594.000000	65.095138 
1593.000000	65.095996 
1592.000000	65.097165 
1591.000000	65.098309 
1590.000000	65.099644 
1589.000000	65.101647 
1588.000000	65.104746 
1587.000000	65.108942 
1586.000000	65.113854 
1585.000000	65.118336 
1584.000000	65.121006 
1583.000000	65.120482 
1582.000000	65.115690 
1581.000000	65.106248 
1580.000000	65.092658 
1579.000000	65.076494 
1578.000000	65.060067 
1577.000000	65.046048 
1576.000000	65.036702 
1575.000000	65.033531 
1574.000000	65.036797 
1573.000000	65.045452 
1572.000000	65.057253 
1571.000000	65.069556 
1570.000000	65.079951 
1569.000000	65.086913 
1568.000000	65.090155 
1567.000000	65.090513 
1566.000000	65.089535 
1565.000000	65.088915 
1564.000000	65.089917 
1563.000000	65.093302 
1562.000000	65.099072 
1561.000000	65.106797 
1560.000000	65.115904 
1559.000000	65.126037 
1558.000000	65.137171 
1557.000000	65.149497 
1556.000000	65.163183 
1555.000000	65.178084 
1554.000000	65.193533 
1553.000000	65.208148 
1552.000000	65.220022 
1551.000000	65.227150 
1550.000000	65.227651 
1549.000000	65.220522 
1548.000000	65.205860 
1547.000000	65.184974 
1546.000000	65.160083 
1545.000000	65.134096 
1544.000000	65.110135 
1543.000000	65.090894 
1542.000000	65.078282 
1541.000000	65.073108 
1540.000000	65.075254 
1539.000000	65.083479 
1538.000000	65.095949 
1537.000000	65.110278 
1536.000000	65.124058 
1535.000000	65.135002 
1534.000000	65.141391 
1533.000000	65.142011 
1532.000000	65.136599 
1531.000000	65.125751 
1530.000000	65.111112 
1529.000000	65.094971 
1528.000000	65.079927 
1527.000000	65.068650 
1526.000000	65.063261 
1525.000000	65.064978 
1524.000000	65.073776 
1523.000000	65.088248 
1522.000000	65.105986 
1521.000000	65.124034 
1520.000000	65.139484 
1519.000000	65.150094 
1518.000000	65.154623 
1517.000000	65.153217 
1516.000000	65.147185 
1515.000000	65.138673 
1514.000000	65.130209 
1513.000000	65.123915 
1512.000000	65.121388 
1511.000000	65.123009 
1510.000000	65.128207 
1509.000000	65.135693 
1508.000000	65.143752 
1507.000000	65.150785 
1506.000000	65.155649 
1505.000000	65.158057 
1504.000000	65.158581 
1503.000000	65.158581 
1502.000000	65.159797 
1501.000000	65.164113 
1500.000000	65.172815 
1499.000000	65.186548 
1498.000000	65.205049 
1497.000000	65.226960 
1496.000000	65.250110 
1495.000000	65.271878 
1494.000000	65.289616 
1493.000000	65.301299 
1492.000000	65.305542 
1491.000000	65.302062 
1490.000000	65.291261 
1489.000000	65.274310 
1488.000000	65.252494 
1487.000000	65.227127 
1486.000000	65.199303 
1485.000000	65.170145 
1484.000000	65.140819 
1483.000000	65.112733 
1482.000000	65.087580 
1481.000000	65.067124 
1480.000000	65.053248 
1479.000000	65.047335 
1478.000000	65.050125 
1477.000000	65.061378 
1476.000000	65.080094 
1475.000000	65.104413 
1474.000000	65.132045 
1473.000000	65.160417 
1472.000000	65.187382 
1471.000000	65.211153 
1470.000000	65.230488 
1469.000000	65.244626 
1468.000000	65.253257 
1467.000000	65.256237 
1466.000000	65.253639 
1465.000000	65.245437 
1464.000000	65.231919 
1463.000000	65.213418 
1462.000000	65.190768 
1461.000000	65.164947 
1460.000000	65.137481 
1459.000000	65.110015 
1458.000000	65.084218 
1457.000000	65.061688 
1456.000000	65.043592 
1455.000000	65.030860 
1454.000000	65.023875 
1453.000000	65.022754 
1452.000000	65.027236 
1451.000000	65.036678 
1450.000000	65.050053 
1449.000000	65.066218 
1448.000000	65.083694 
1447.000000	65.101337 
1446.000000	65.118122 
1445.000000	65.133571 
1444.000000	65.147566 
1443.000000	65.160346 
1442.000000	65.172362 
1441.000000	65.183901 
1440.000000	65.194916 
1439.000000	65.205097 
1438.000000	65.213704 
1437.000000	65.220046 
1436.000000	65.223360 
1435.000000	65.223193 
1434.000000	65.219283 
1433.000000	65.211963 
1432.000000	65.201687 
1431.000000	65.188789 
1430.000000	65.173482 
1429.000000	65.155863 
1428.000000	65.135955 
1427.000000	65.113973 
1426.000000	65.090608 
1425.000000	65.067124 
1424.000000	65.045261 
1423.000000	65.026855 
1422.000000	65.013647 
1421.000000	65.006780 
1420.000000	65.006518 
1419.000000	65.012192 
1418.000000	65.022230 
1417.000000	65.034484 
1416.000000	65.046668 
1415.000000	65.056943 
1414.000000	65.064024 
1413.000000	65.067625 
1412.000000	65.068387 
1411.000000	65.067934 
1410.000000	65.068268 
1409.000000	65.071249 
1408.000000	65.078353 
1407.000000	65.090155 
1406.000000	65.106105 
1405.000000	65.124511 
1404.000000	65.143013 
1403.000000	65.158987 
1402.000000	65.170049 
1401.000000	65.174770 
1400.000000	65.172934 
1399.000000	65.165829 
1398.000000	65.155887 
1397.000000	65.145826 
1396.000000	65.138244 
1395.000000	65.134763 
1394.000000	65.135765 
1393.000000	65.140175 
1392.000000	65.145778 
1391.000000	65.150070 
1390.000000	65.150833 
1389.000000	65.147018 
1388.000000	65.138888 
1387.000000	65.128087 
1386.000000	65.117120 
1385.000000	65.108871 
1384.000000	65.105581 
1383.000000	65.108370 
1382.000000	65.116691 
1381.000000	65.128827 
1380.000000	65.141773 
1379.000000	65.152478 
1378.000000	65.158176 
1377.000000	65.156960 
1376.000000	65.148305 
1375.000000	65.132904 
1374.000000	65.112638 
1373.000000	65.089893 
1372.000000	65.067410 
1371.000000	65.047621 
1370.000000	65.032505 
1369.000000	65.023517 
1368.000000	65.021276 
1367.000000	65.025711 
1366.000000	65.036010 
1365.000000	65.050697 
1364.000000	65.067934 
1363.000000	65.085387 
1362.000000	65.100884 
1361.000000	65.112543 
1360.000000	65.119171 
1359.000000	65.120244 
1358.000000	65.116119 
1357.000000	65.107822 
1356.000000	65.096783 
1355.000000	65.084576 
1354.000000	65.072607 
1353.000000	65.062141 
1352.000000	65.053915 
1351.000000	65.048551 
1350.000000	65.046501 
1349.000000	65.047860 
1348.000000	65.052723 
1347.000000	65.060830 
1346.000000	65.071630 
1345.000000	65.084218 
1344.000000	65.097284 
1343.000000	65.109252 
1342.000000	65.118598 
1341.000000	65.124106 
1340.000000	65.125250 
1339.000000	65.122175 
1338.000000	65.115761 
1337.000000	65.107512 
1336.000000	65.099096 
1335.000000	65.092158 
1334.000000	65.087795 
1333.000000	65.086603 
1332.000000	65.088391 
1331.000000	65.092563 
1330.000000	65.098118 
1329.000000	65.103888 
1328.000000	65.108895 
1327.000000	65.112042 
1326.000000	65.112566 
1325.000000	65.109920 
1324.000000	65.103936 
1323.000000	65.094614 
1322.000000	65.082669 
1321.000000	65.069317 
1320.000000	65.056085 
1319.000000	65.044760 
1318.000000	65.036821 
1317.000000	65.033364 
1316.000000	65.034723 
1315.000000	65.040421 
1314.000000	65.049147 
1313.000000	65.059137 
1312.000000	65.068459 
1311.000000	65.075516 
1310.000000	65.079236 
1309.000000	65.079402 
1308.000000	65.076470 
1307.000000	65.071535 
1306.000000	65.065979 
1305.000000	65.060997 
1304.000000	65.057420 
1303.000000	65.055489 
1302.000000	65.054988 
1301.000000	65.055322 
1300.000000	65.055966 
1299.000000	65.056490 
1298.000000	65.056943 
1297.000000	65.057778 
1296.000000	65.059733 
1295.000000	65.063619 
1294.000000	65.070080 
1293.000000	65.079212 
1292.000000	65.090608 
1291.000000	65.103292 
1290.000000	65.115904 
1289.000000	65.126800 
1288.000000	65.134477 
1287.000000	65.137934 
1286.000000	65.136718 
1285.000000	65.131115 
1284.000000	65.122151 
1283.000000	65.111398 
1282.000000	65.100669 
1281.000000	65.091633 
1280.000000	65.085411 
1279.000000	65.082478 
1278.000000	65.082526 
1277.000000	65.084528 
1276.000000	65.087246 
1275.000000	65.089392 
1274.000000	65.090179 
1273.000000	65.089607 
1272.000000	65.088367 
1271.000000	65.087795 
1270.000000	65.089273 
1269.000000	65.093851 
1268.000000	65.101671 
1267.000000	65.111899 
1266.000000	65.122747 
1265.000000	65.131831 
1264.000000	65.136599 
1263.000000	65.135169 
1262.000000	65.126800 
1261.000000	65.111994 
1260.000000	65.092444 
1259.000000	65.070724 
1258.000000	65.049791 
1257.000000	65.032172 
1256.000000	65.019631 
1255.000000	65.012860 
1254.000000	65.011739 
1253.000000	65.015316 
1252.000000	65.022349 
1251.000000	65.031480 
1250.000000	65.041351 
1249.000000	65.050840 
1248.000000	65.058851 
1247.000000	65.064644 
1246.000000	65.067696 
1245.000000	65.067982 
1244.000000	65.065813 
1243.000000	65.062046 
1242.000000	65.057849 
1241.000000	65.054607 
1240.000000	65.053510 
1239.000000	65.055632 
1238.000000	65.061569 
1237.000000	65.071439 
1236.000000	65.084862 
1235.000000	65.101003 
1234.000000	65.118813 
1233.000000	65.136837 
1232.000000	65.153694 
1231.000000	65.167737 
1230.000000	65.177536 
1229.000000	65.181827 
1228.000000	65.179800 
1227.000000	65.171265 
1226.000000	65.156793 
1225.000000	65.137887 
1224.000000	65.116524 
1223.000000	65.095186 
1222.000000	65.076184 
1221.000000	65.061187 
1220.000000	65.051221 
1219.000000	65.046358 
1218.000000	65.046095 
1217.000000	65.049409 
1216.000000	65.055179 
1215.000000	65.062284 
1214.000000	65.069913 
1213.000000	65.077376 
1212.000000	65.084242 
1211.000000	65.090060 
1210.000000	65.094351 
1209.000000	65.096592 
1208.000000	65.096306 
1207.000000	65.093207 
1206.000000	65.087389 
1205.000000	65.079402 
1204.000000	65.070128 
1203.000000	65.060734 
1202.000000	65.052270 
1201.000000	65.045499 
1200.000000	65.040516 
1199.000000	65.036869 
1198.000000	65.033650 
1197.000000	65.029692 
1196.000000	65.024065 
1195.000000	65.016341 
1194.000000	65.006804 
1193.000000	64.996552 
1192.000000	64.987158 
1191.000000	64.980387 
1190.000000	64.977669 
1189.000000	64.979839 
1188.000000	64.986824 
1187.000000	64.997577 
1186.000000	65.010547 
1185.000000	65.023946 
1184.000000	65.036392 
1183.000000	65.047144 
1182.000000	65.056061 
1181.000000	65.063619 
1180.000000	65.070724 
1179.000000	65.078043 
1178.000000	65.085840 
1177.000000	65.093708 
1176.000000	65.100836 
1175.000000	65.106105 
1174.000000	65.108537 
1173.000000	65.107560 
1172.000000	65.103149 
1171.000000	65.096092 
1170.000000	65.087556 
1169.000000	65.078878 
1168.000000	65.071105 
1167.000000	65.065002 
1166.000000	65.060877 
1165.000000	65.058660 
1164.000000	65.058016 
1163.000000	65.058851 
1162.000000	65.060734 
1161.000000	65.063261 
1160.000000	65.065765 
1159.000000	65.067291 
1158.000000	65.066766 
1157.000000	65.063261 
1156.000000	65.056300 
1155.000000	65.045762 
1154.000000	65.032458 
1153.000000	65.017747 
1152.000000	65.003514 
1151.000000	64.991521 
1150.000000	64.983344 
1149.000000	64.980030 
1148.000000	64.981985 
1147.000000	64.988803 
1146.000000	64.999628 
1145.000000	65.013337 
1144.000000	65.028548 
1143.000000	65.044260 
1142.000000	65.059471 
1141.000000	65.073680 
1140.000000	65.086579 
1139.000000	65.098214 
1138.000000	65.108728 
1137.000000	65.118169 
1136.000000	65.126991 
1135.000000	65.135025 
1134.000000	65.142130 
1133.000000	65.147566 
1132.000000	65.150594 
1131.000000	65.150189 
1130.000000	65.145730 
1129.000000	65.136742 
1128.000000	65.123534 
1127.000000	65.106654 
1126.000000	65.087175 
1125.000000	65.066361 
1124.000000	65.045380 
1123.000000	65.025329 
1122.000000	65.007162 
1121.000000	64.991688 
1120.000000	64.979696 
1119.000000	64.971828 
1118.000000	64.968514 
1117.000000	64.970111 
1116.000000	64.976954 
1115.000000	64.989113 
1114.000000	65.006399 
1113.000000	65.028214 
1112.000000	65.053391 
1111.000000	65.080285 
1110.000000	65.106558 
1109.000000	65.129494 
1108.000000	65.146350 
1107.000000	65.155148 
1106.000000	65.154862 
1105.000000	65.145683 
1104.000000	65.128707 
1103.000000	65.106010 
1102.000000	65.079808 
1101.000000	65.052390 
1100.000000	65.025520 
1099.000000	65.000295 
1098.000000	64.977335 
1097.000000	64.956951 
1096.000000	64.939188 
1095.000000	64.923977 
1094.000000	64.911413 
1093.000000	64.901804 
1092.000000	64.895582 
1091.000000	64.893245 
1090.000000	64.895248 
1089.000000	64.901804 
1088.000000	64.912605 
1087.000000	64.926457 
1086.000000	64.941644 
1085.000000	64.955735 
1084.000000	64.965891 
1083.000000	64.969635 
1082.000000	64.964628 
1081.000000	64.949965 
1080.000000	64.926075 
1079.000000	64.894938 
1078.000000	64.859867 
1077.000000	64.825248 
1076.000000	64.795780 
1075.000000	64.775919 
1074.000000	64.768910 
1073.000000	64.776325 
1072.000000	64.797687 
1071.000000	64.830660 
1070.000000	64.871501 
1069.000000	64.915847 
1068.000000	64.959239 
1067.000000	64.998173 
1066.000000	65.030312 
1065.000000	65.054726 
1064.000000	65.071487 
1063.000000	65.081548 
1062.000000	65.086007 
1061.000000	65.085983 
1060.000000	65.082049 
1059.000000	65.074610 
1058.000000	65.063595 
1057.000000	65.049147 
1056.000000	65.031385 
1055.000000	65.010976 
1054.000000	64.989233 
1053.000000	64.967775 
1052.000000	64.948821 
1051.000000	64.934372 
1050.000000	64.926290 
1049.000000	64.925813 
1048.000000	64.933633 
1047.000000	64.949488 
1046.000000	64.972209 
1045.000000	64.999604 
1044.000000	65.029072 
1043.000000	65.057849 
1042.000000	65.083408 
1041.000000	65.103507 
1040.000000	65.116930 
1039.000000	65.123271 
1038.000000	65.123033 
1037.000000	65.117359 
1036.000000	65.107703 
1035.000000	65.095496 
1034.000000	65.082240 
1033.000000	65.069055 
1032.000000	65.056896 
1031.000000	65.046262 
1030.000000	65.037584 
1029.000000	65.031003 
1028.000000	65.026473 
1027.000000	65.023446 
1026.000000	65.020918 
1025.000000	65.017914 
1024.000000	65.013098 
1023.000000	65.005993 
1022.000000	64.996623 
1021.000000	64.986371 
1020.000000	64.977431 
1019.000000	64.972829 
1018.000000	64.975547 
1017.000000	64.987969 
1016.000000	65.011072 
1015.000000	65.044379 
1014.000000	65.085864 
1013.000000	65.132451 
1012.000000	65.180230 
1011.000000	65.225291 
1010.000000	65.264272 
1009.000000	65.294504 
1008.000000	65.314221 
1007.000000	65.322661 
1006.000000	65.319466 
1005.000000	65.305304 
1004.000000	65.281176 
1003.000000	65.248918 
1002.000000	65.210628 
1001.000000	65.169262 
1000.000000	65.127944 
999.000000	 65.089750 
998.000000	 65.057301 
997.000000	 65.032482 
996.000000	 65.016055 
995.000000	 65.007710 
994.000000	 65.006208 
993.000000	 65.009450 
992.000000	 65.015029 
991.000000	 65.020370 
990.000000	 65.023326 
989.000000	 65.022182 
988.000000	 65.016102 
987.000000	 65.005159 
986.000000	 64.990329 
985.000000	 64.973378 
984.000000	 64.956808 
983.000000	 64.943242 
982.000000	 64.935183 
981.000000	 64.934587 
980.000000	 64.942550 
979.000000	 64.959096 
978.000000	 64.983153 
977.000000	 65.012645 
976.000000	 65.044856 
975.000000	 65.076947 
974.000000	 65.106225 
973.000000	 65.130329 
972.000000	 65.147519 
971.000000	 65.156888 
970.000000	 65.158224 
969.000000	 65.152359 
968.000000	 65.140724 
967.000000	 65.125608 
966.000000	 65.109801 
965.000000	 65.096068 
964.000000	 65.087223 
963.000000	 65.085268 
962.000000	 65.091371 
961.000000	 65.105700 
960.000000	 65.127372 
959.000000	 65.154767 
958.000000	 65.185832 
957.000000	 65.218448 
956.000000	 65.250539 
955.000000	 65.280389 
954.000000	 65.306615 
953.000000	 65.328216 
952.000000	 65.344333 
951.000000	 65.354466 
950.000000	 65.358352 
949.000000	 65.356135 
948.000000	 65.348124 
947.000000	 65.335607 
946.000000	 65.319633 
945.000000	 65.301799 
944.000000	 65.283203 
943.000000	 65.264582 
942.000000	 65.245795 
941.000000	 65.226340 
940.000000	 65.205192 
939.000000	 65.181422 
938.000000	 65.154886 
937.000000	 65.126276 
936.000000	 65.097665 
935.000000	 65.072011 
934.000000	 65.052676 
933.000000	 65.042734 
932.000000	 65.044069 
931.000000	 65.056943 
930.000000	 65.079689 
929.000000	 65.109038 
928.000000	 65.140628 
927.000000	 65.169930 
926.000000	 65.193295 
925.000000	 65.208864 
924.000000	 65.216398 
923.000000	 65.217208 
922.000000	 65.213680 
921.000000	 65.208125 
920.000000	 65.202426 
919.000000	 65.197300 
918.000000	 65.192699 
917.000000	 65.187501 
916.000000	 65.180659 
915.000000	 65.171217 
914.000000	 65.158820 
913.000000	 65.143871 
912.000000	 65.127468 
911.000000	 65.111398 
910.000000	 65.097498 
909.000000	 65.087819 
908.000000	 65.083980 
907.000000	 65.086865 
906.000000	 65.096449 
905.000000	 65.111565 
904.000000	 65.130305 
903.000000	 65.149784 
902.000000	 65.166831 
901.000000	 65.178370 
900.000000	 65.182328 
899.000000	 65.178179 
898.000000	 65.167164 
897.000000	 65.152192 
896.000000	 65.136933 
895.000000	 65.125203 
894.000000	 65.119576 
893.000000	 65.120673 
892.000000	 65.127062 
891.000000	 65.135860 
890.000000	 65.143418 
889.000000	 65.146398 
888.000000	 65.142869 
887.000000	 65.132665 
886.000000	 65.117859 
885.000000	 65.101766 
884.000000	 65.088725 
883.000000	 65.082788 
882.000000	 65.087127 
881.000000	 65.103125 
880.000000	 65.130233 
879.000000	 65.166068 
878.000000	 65.206956 
877.000000	 65.248751 
876.000000	 65.287256 
875.000000	 65.319132 
874.000000	 65.342140 
873.000000	 65.355324 
872.000000	 65.359139 
871.000000	 65.354871 
870.000000	 65.344667 
869.000000	 65.330529 
868.000000	 65.314555 
867.000000	 65.297913 
866.000000	 65.281629 
865.000000	 65.265703 
864.000000	 65.249800 
863.000000	 65.233111 
862.000000	 65.215158 
861.000000	 65.195822 
860.000000	 65.175032 
859.000000	 65.153551 
858.000000	 65.132546 
857.000000	 65.113854 
856.000000	 65.099477 
855.000000	 65.091681 
854.000000	 65.092110 
853.000000	 65.101933 
852.000000	 65.121197 
851.000000	 65.148735 
850.000000	 65.182089 
849.000000	 65.217828 
848.000000	 65.252184 
847.000000	 65.281391 
846.000000	 65.302300 
845.000000	 65.313053 
844.000000	 65.313196 
843.000000	 65.303802 
842.000000	 65.287375 
841.000000	 65.267086 
840.000000	 65.246868 
839.000000	 65.230536 
838.000000	 65.221643 
837.000000	 65.222907 
836.000000	 65.236020 
835.000000	 65.261793 
834.000000	 65.299630 
833.000000	 65.347695 
832.000000	 65.402674 
831.000000	 65.460371 
830.000000	 65.515422 
829.000000	 65.562438 
828.000000	 65.596294 
827.000000	 65.612792 
826.000000	 65.609836 
825.000000	 65.587759 
824.000000	 65.549373 
823.000000	 65.499615 
822.000000	 65.444779 
821.000000	 65.391516 
820.000000	 65.345811 
819.000000	 65.312051 
818.000000	 65.292596 
817.000000	 65.287733 
816.000000	 65.295863 
815.000000	 65.314054 
814.000000	 65.338563 
813.000000	 65.365862 
812.000000	 65.392589 
811.000000	 65.416693 
810.000000	 65.437126 
809.000000	 65.454149 
808.000000	 65.468788 
807.000000	 65.481996 
806.000000	 65.494465 
805.000000	 65.505266 
804.000000	 65.512633 
803.000000	 65.513372 
802.000000	 65.504360 
801.000000	 65.482664 
800.000000	 65.446925 
799.000000	 65.397763 
798.000000	 65.338349 
797.000000	 65.273785 
796.000000	 65.210509 
795.000000	 65.155410 
794.000000	 65.114903 
793.000000	 65.093445 
792.000000	 65.093088 
791.000000	 65.112829 
790.000000	 65.149164 
789.000000	 65.196514 
788.000000	 65.248656 
787.000000	 65.299630 
786.000000	 65.345048 
785.000000	 65.382313 
784.000000	 65.411067 
783.000000	 65.431904 
782.000000	 65.446519 
781.000000	 65.456652 
780.000000	 65.463709 
779.000000	 65.468931 
778.000000	 65.472793 
777.000000	 65.476155 
776.000000	 65.479421 
775.000000	 65.483093 
774.000000	 65.487360 
773.000000	 65.492033 
772.000000	 65.496397 
771.000000	 65.499281 
770.000000	 65.499234 
769.000000	 65.494894 
768.000000	 65.485525 
767.000000	 65.470981 
766.000000	 65.452027 
765.000000	 65.430164 
764.000000	 65.406680 
763.000000	 65.382838 
762.000000	 65.359568 
761.000000	 65.337800 
760.000000	 65.318536 
759.000000	 65.303373 
758.000000	 65.294384 
757.000000	 65.293908 
756.000000	 65.304303 
755.000000	 65.326857 
754.000000	 65.360832 
753.000000	 65.403509 
752.000000	 65.450191 
751.000000	 65.495061 
750.000000	 65.532112 
749.000000	 65.556573 
748.000000	 65.565729 
747.000000	 65.559387 
746.000000	 65.539884 
745.000000	 65.510821 
744.000000	 65.476274 
743.000000	 65.439748 
742.000000	 65.403604 
741.000000	 65.369009 
740.000000	 65.336656 
739.000000	 65.307354 
738.000000	 65.282464 
737.000000	 65.264058 
736.000000	 65.254497 
735.000000	 65.255546 
734.000000	 65.267682 
733.000000	 65.289092 
732.000000	 65.316200 
731.000000	 65.343594 
730.000000	 65.365934 
729.000000	 65.378761 
728.000000	 65.380167 
727.000000	 65.371084 
726.000000	 65.355253 
725.000000	 65.338087 
724.000000	 65.325212 
723.000000	 65.320897 
722.000000	 65.326809 
721.000000	 65.341663 
720.000000	 65.361547 
719.000000	 65.381145 
718.000000	 65.395236 
717.000000	 65.400147 
716.000000	 65.394806 
715.000000	 65.380883 
714.000000	 65.362024 
713.000000	 65.342807 
712.000000	 65.327596 
711.000000	 65.319752 
710.000000	 65.320587 
709.000000	 65.329432 
708.000000	 65.344357 
707.000000	 65.362501 
706.000000	 65.380692 
705.000000	 65.396118 
704.000000	 65.406441 
703.000000	 65.410208 
702.000000	 65.406918 
701.000000	 65.396690 
700.000000	 65.380334 
699.000000	 65.359354 
698.000000	 65.335822 
697.000000	 65.312075 
696.000000	 65.290403 
695.000000	 65.272760 
694.000000	 65.260481 
693.000000	 65.254402 
692.000000	 65.254664 
691.000000	 65.261292 
690.000000	 65.274333 
689.000000	 65.294051 
688.000000	 65.320801 
687.000000	 65.354657 
686.000000	 65.394806 
685.000000	 65.439343 
684.000000	 65.485072 
683.000000	 65.528440 
682.000000	 65.565609 
681.000000	 65.593504 
680.000000	 65.610074 
679.000000	 65.615010 
678.000000	 65.609145 
677.000000	 65.594649 
676.000000	 65.573883 
675.000000	 65.549182 
674.000000	 65.522241 
673.000000	 65.494370 
672.000000	 65.466332 
671.000000	 65.438747 
670.000000	 65.412306 
669.000000	 65.388178 
668.000000	 65.367889 
667.000000	 65.352797 
666.000000	 65.344500 
665.000000	 65.344190 
664.000000	 65.352869 
663.000000	 65.370917 
662.000000	 65.398311 
661.000000	 65.434098 
660.000000	 65.476036 
659.000000	 65.520167 
658.000000	 65.560817 
657.000000	 65.591335 
656.000000	 65.605044 
655.000000	 65.596866 
654.000000	 65.564417 
653.000000	 65.509486 
652.000000	 65.438079 
651.000000	 65.359902 
650.000000	 65.286827 
649.000000	 65.230393 
648.000000	 65.199685 
647.000000	 65.199255 
646.000000	 65.228033 
645.000000	 65.280055 
644.000000	 65.345597 
643.000000	 65.413713 
642.000000	 65.474271 
641.000000	 65.520501 
640.000000	 65.549612 
639.000000	 65.563392 
638.000000	 65.566682 
637.000000	 65.566015 
636.000000	 65.567588 
635.000000	 65.575814 
634.000000	 65.592193 
633.000000	 65.615582 
632.000000	 65.642762 
631.000000	 65.669441 
630.000000	 65.691661 
629.000000	 65.707111 
628.000000	 65.715861 
627.000000	 65.719676 
626.000000	 65.721464 
625.000000	 65.724849 
624.000000	 65.732479 
623.000000	 65.745568 
622.000000	 65.762805 
621.000000	 65.780973 
620.000000	 65.795111 
619.000000	 65.800428 
618.000000	 65.792989 
617.000000	 65.770697 
616.000000	 65.734314 
615.000000	 65.687322 
614.000000	 65.635585 
613.000000	 65.586137 
612.000000	 65.545487 
611.000000	 65.518307 
610.000000	 65.506076 
609.000000	 65.507078 
608.000000	 65.516042 
607.000000	 65.525650 
606.000000	 65.528321 
605.000000	 65.517950 
604.000000	 65.491008 
603.000000	 65.447139 
602.000000	 65.388298 
601.000000	 65.318608 
600.000000	 65.242457 
599.000000	 65.164971 
598.000000	 65.091204 
597.000000	 65.026092 
596.000000	 64.974617 
595.000000	 64.940857 
594.000000	 64.927554 
593.000000	 64.935541 
592.000000	 64.962744 
591.000000	 65.005064 
590.000000	 65.056300 
589.000000	 65.109586 
588.000000	 65.158247 
587.000000	 65.197181 
586.000000	 65.223217 
585.000000	 65.235352 
584.000000	 65.234470 
583.000000	 65.222358 
582.000000	 65.201091 
581.000000	 65.172863 
580.000000	 65.139961 
579.000000	 65.104937 
578.000000	 65.070772 
577.000000	 65.041685 
576.000000	 65.022420 
575.000000	 65.016818 
574.000000	 65.027141 
573.000000	 65.053057 
572.000000	 65.091848 
571.000000	 65.138626 
570.000000	 65.187716 
569.000000	 65.233922 
568.000000	 65.273523 
567.000000	 65.304350 
566.000000	 65.326189 
565.000000	 65.340590 
564.000000	 65.349602 
563.000000	 65.354895 
562.000000	 65.357255 
561.000000	 65.357017 
560.000000	 65.353345 
559.000000	 65.345406 
558.000000	 65.332293 
557.000000	 65.313577 
556.000000	 65.290284 
555.000000	 65.265011 
554.000000	 65.241599 
553.000000	 65.224480 
552.000000	 65.218901 
551.000000	 65.229678 
550.000000	 65.260577 
549.000000	 65.312767 
548.000000	 65.383577 
547.000000	 65.466165 
546.000000	 65.550494 
545.000000	 65.625309 
544.000000	 65.679478 
543.000000	 65.705633 
542.000000	 65.701794 
541.000000	 65.672779 
540.000000	 65.629196 
539.000000	 65.585398 
538.000000	 65.556883 
537.000000	 65.555572 
536.000000	 65.587663 
535.000000	 65.650486 
534.000000	 65.734148 
533.000000	 65.822148 
532.000000	 65.896463 
531.000000	 65.940070 
530.000000	 65.941119 
529.000000	 65.895247 
528.000000	 65.806341 
527.000000	 65.685701 
526.000000	 65.549421 
525.000000	 65.416717 
524.000000	 65.306305 
523.000000	 65.234017 
522.000000	 65.210342 
521.000000	 65.238904 
520.000000	 65.316700 
519.000000	 65.434002 
518.000000	 65.577530 
517.000000	 65.731883 
516.000000	 65.883851 
515.000000	 66.022586 
514.000000	 66.142654 
513.000000	 66.243815 
512.000000	 66.329264 
511.000000	 66.404557 
510.000000	 66.472792 
509.000000	 66.534042 
508.000000	 66.582584 
507.000000	 66.610217 
506.000000	 66.606187 
505.000000	 66.562104 
504.000000	 66.474032 
503.000000	 66.345906 
502.000000	 66.188144 
501.000000	 66.016912 
500.000000	 65.850305 
499.000000	 65.704894 
498.000000	 65.593838 
497.000000	 65.524792 
496.000000	 65.499234 
495.000000	 65.512919 
494.000000	 65.557098 
493.000000	 65.620589 
492.000000	 65.691089 
491.000000	 65.758061 
490.000000	 65.812349 
489.000000	 65.849232 
488.000000	 65.866541 
487.000000	 65.866637 
486.000000	 65.854692 
485.000000	 65.838193 
484.000000	 65.825128 
483.000000	 65.822410 
482.000000	 65.835261 
481.000000	 65.865302 
480.000000	 65.910649 
479.000000	 65.966248 
478.000000	 66.025400 
477.000000	 66.080617 
476.000000	 66.125488 
475.000000	 66.154670 
474.000000	 66.164755 
473.000000	 66.153669 
472.000000	 66.120672 
471.000000	 66.066765 
470.000000	 65.994548 
469.000000	 65.908646 
468.000000	 65.815377 
467.000000	 65.722036 
466.000000	 65.636706 
465.000000	 65.567111 
464.000000	 65.520501 
463.000000	 65.502858 
462.000000	 65.517973 
461.000000	 65.565991 
460.000000	 65.643310 
459.000000	 65.742802 
458.000000	 65.854597 
457.000000	 65.966582 
456.000000	 66.067266 
455.000000	 66.146945 
454.000000	 66.200089 
453.000000	 66.226053 
452.000000	 66.228294 
451.000000	 66.214036 
450.000000	 66.190099 
449.000000	 66.162180 
448.000000	 66.130590 
447.000000	 66.090178 
446.000000	 66.034483 
445.000000	 65.959477 
444.000000	 65.860390 
443.000000	 65.734219 
442.000000	 65.587854 
441.000000	 65.435647 
440.000000	 65.293025 
439.000000	 65.172839 
438.000000	 65.081739 
437.000000	 65.018844 
436.000000	 64.975452 
435.000000	 64.939808 
434.000000	 64.898133 
433.000000	 64.842891 
432.000000	 64.778184 
431.000000	 64.717221 
430.000000	 64.673995 
429.000000	 64.662289 
428.000000	 64.698481 
427.000000	 64.784145 
426.000000	 64.896059 
425.000000	 65.001988 
424.000000	 65.067768 
423.000000	 65.072846 
422.000000	 65.009188 
421.000000	 64.918804 
420.000000	 64.889168 
419.000000	 65.032482 
418.000000	 65.453958 
417.000000	 66.236352 
416.000000	 67.406582 
415.000000	 68.914055 
414.000000	 70.627665 
413.000000	 72.354030 
412.000000	 73.874378 
411.000000	 74.990391 
410.000000	 75.562477 
409.000000	 75.572538 
408.000000	 75.086092 
407.000000	 74.239253 
406.000000	 73.168230 
405.000000	 71.994090 
404.000000	 70.759558 
403.000000	 69.446778 
402.000000	 67.975950 
401.000000	 66.253328 
400.000000	 64.216327 
399.000000	 61.945080 
398.000000	 59.547615 
397.000000	 57.090187 
396.000000	 54.678130 
395.000000	 52.487635 
394.000000	 50.561571 
393.000000	 48.814487 
392.000000	 47.000312 
391.000000	 44.743800 
390.000000	 42.071628 
389.000000	 39.396524 
388.000000	 37.150597 
387.000000	 35.733294 
386.000000	 35.084271 
385.000000	 34.777808 
384.000000	 34.915924 
383.000000	 35.544967 
382.000000	 36.478734 
381.000000	 37.316441 
380.000000	 36.109089 
379.000000	 31.407380 
378.000000	 23.216509 
377.000000	 12.927722 
376.000000	 5.121016  
375.000000	 3.688955  
374.000000	 9.212279  
373.000000	 20.242166 
372.000000	 29.928541 
371.000000	 35.024118 
370.000000	 38.815474 

