PE IR       SPECTRUM    SPECTRUM    ASCII       PEDS        1.60        
  -1
BZ60B6~1.ASC
17/04/07
19:39:28.00
17/04/07
19:39:28.00
tln
$BZ1503107-1_t0078$<tbV0>[13.0,5.2,8.0,0.0,27,1,0]
370.000000
64









2002,4.07    
MIRTGS : RIGHTBACK : INTERNAL 2
MIR : ON : INTERNAL 2
OPTKBR

0.200000
8
8.000000
FILLER
RATIO
SPECTRUM
UNLOCKED 256

DOUBLE
64
COMBINED
1
0
0


1.000000
RATIO


1
0
TRUE
51149
0
LEFT NOT FITTED RIGHT NOT FITTED 0
NONE
NONE
15600
12.000000
4.427000
51148
TRUE
1 0 8 72 0 0 0 0 

15798.010000






#HDR
-1
-1
#GR
CM-1
%T
0.00002384185791015625
0.0
5000.000000
-1.000000
4631
8
80.474209
57.044577
#DATA
5000.000000	61.636042 
4999.000000	61.801171 
4998.000000	61.900019 
4997.000000	61.901330 
4996.000000	61.789417 
4995.000000	61.566734 
4994.000000	61.254072 
4993.000000	60.885119 
4992.000000	60.500979 
4991.000000	60.141921 
4990.000000	59.841060 
4989.000000	59.620118 
4988.000000	59.486365 
4987.000000	59.434151 
4986.000000	59.447240 
4985.000000	59.504199 
4984.000000	59.581708 
4983.000000	59.658861 
4982.000000	59.718871 
4981.000000	59.750604 
4980.000000	59.747600 
4979.000000	59.708356 
4978.000000	59.634447 
4977.000000	59.531140 
4976.000000	59.406733 
4975.000000	59.272670 
4974.000000	59.143304 
4973.000000	59.034109 
4972.000000	58.959150 
4971.000000	58.929109 
4970.000000	58.948445 
4969.000000	59.015679 
4968.000000	59.123539 
4967.000000	59.260511 
4966.000000	59.411668 
4965.000000	59.562540 
4964.000000	59.699964 
4963.000000	59.815573 
4962.000000	59.905481 
4961.000000	59.971523 
4960.000000	60.018706 
4959.000000	60.055732 
4958.000000	60.092830 
4957.000000	60.137963 
4956.000000	60.194540 
4955.000000	60.261535 
4954.000000	60.333418 
4953.000000	60.401034 
4952.000000	60.453796 
4951.000000	60.482931 
4950.000000	60.482931 
4949.000000	60.453748 
4948.000000	60.399675 
4947.000000	60.328817 
4946.000000	60.249876 
4945.000000	60.170078 
4944.000000	60.093069 
4943.000000	60.019254 
4942.000000	59.946370 
4941.000000	59.871673 
4940.000000	59.793877 
4939.000000	59.715294 
4938.000000	59.641313 
4937.000000	59.579205 
4936.000000	59.535908 
4935.000000	59.515070 
4934.000000	59.516763 
4933.000000	59.536719 
4932.000000	59.568214 
4931.000000	59.603047 
4930.000000	59.635925 
4929.000000	59.665489 
4928.000000	59.694838 
4927.000000	59.730005 
4926.000000	59.777307 
4925.000000	59.840154 
4924.000000	59.917068 
4923.000000	60.000753 
4922.000000	60.079979 
4921.000000	60.141706 
4920.000000	60.175228 
4919.000000	60.174751 
4918.000000	60.140919 
4917.000000	60.081100 
4916.000000	60.007619 
4915.000000	59.935092 
4914.000000	59.876346 
4913.000000	59.840726 
4912.000000	59.832811 
4911.000000	59.851551 
4910.000000	59.891629 
4909.000000	59.944939 
4908.000000	60.003161 
4907.000000	60.059046 
4906.000000	60.107612 
4905.000000	60.146570 
4904.000000	60.175919 
4903.000000	60.198116 
4902.000000	60.216832 
4901.000000	60.236454 
4900.000000	60.260581 
4899.000000	60.290932 
4898.000000	60.326695 
4897.000000	60.364580 
4896.000000	60.399699 
4895.000000	60.427165 
4894.000000	60.443806 
4893.000000	60.448932 
4892.000000	60.445189 
4891.000000	60.438346 
4890.000000	60.435700 
4889.000000	60.444068 
4888.000000	60.468006 
4887.000000	60.508799 
4886.000000	60.563230 
4885.000000	60.625243 
4884.000000	60.685825 
4883.000000	60.735630 
4882.000000	60.766386 
4881.000000	60.773229 
4880.000000	60.754799 
4879.000000	60.713219 
4878.000000	60.653924 
4877.000000	60.584306 
4876.000000	60.513710 
4875.000000	60.451841 
4874.000000	60.407757 
4873.000000	60.388183 
4872.000000	60.396218 
4871.000000	60.430192 
4870.000000	60.483646 
4869.000000	60.546278 
4868.000000	60.605573 
4867.000000	60.649681 
4866.000000	60.669207 
4865.000000	60.660028 
4864.000000	60.623502 
4863.000000	60.566687 
4862.000000	60.500097 
4861.000000	60.436010 
4860.000000	60.386204 
4859.000000	60.359454 
4858.000000	60.360026 
4857.000000	60.387015 
4856.000000	60.435581 
4855.000000	60.497760 
4854.000000	60.564231 
4853.000000	60.626339 
4852.000000	60.677552 
4851.000000	60.714459 
4850.000000	60.736489 
4849.000000	60.746431 
4848.000000	60.749220 
4847.000000	60.751390 
4846.000000	60.759234 
4845.000000	60.777282 
4844.000000	60.807275 
4843.000000	60.848188 
4842.000000	60.896182 
4841.000000	60.945963 
4840.000000	60.991311 
4839.000000	61.026906 
4838.000000	61.048340 
4837.000000	61.053323 
4836.000000	61.041021 
4835.000000	61.012196 
4834.000000	60.968422 
4833.000000	60.912466 
4832.000000	60.847353 
4831.000000	60.776758 
4830.000000	60.704183 
4829.000000	60.633277 
4828.000000	60.567331 
4827.000000	60.509061 
4826.000000	60.460662 
4825.000000	60.423445 
4824.000000	60.398268 
4823.000000	60.385417 
4822.000000	60.385322 
4821.000000	60.398006 
4820.000000	60.423302 
4819.000000	60.459733 
4818.000000	60.503911 
4817.000000	60.550570 
4816.000000	60.592436 
4815.000000	60.621833 
4814.000000	60.632252 
4813.000000	60.620164 
4812.000000	60.586357 
4811.000000	60.535645 
4810.000000	60.476350 
4809.000000	60.417580 
4808.000000	60.367441 
4807.000000	60.330414 
4806.000000	60.306692 
4805.000000	60.291934 
4804.000000	60.279250 
4803.000000	60.261583 
4802.000000	60.233688 
4801.000000	60.194993 
4800.000000	60.149765 
4799.000000	60.106873 
4798.000000	60.076951 
4797.000000	60.070252 
4796.000000	60.093283 
4795.000000	60.147428 
4794.000000	60.227966 
4793.000000	60.325169 
4792.000000	60.426330 
4791.000000	60.518503 
4790.000000	60.591125 
4789.000000	60.637474 
4788.000000	60.656046 
4787.000000	60.650277 
4786.000000	60.627484 
4785.000000	60.596704 
4784.000000	60.566449 
4783.000000	60.543584 
4782.000000	60.531783 
4781.000000	60.532331 
4780.000000	60.543870 
4779.000000	60.563993 
4778.000000	60.589790 
4777.000000	60.619330 
4776.000000	60.651183 
4775.000000	60.683917 
4774.000000	60.716080 
4773.000000	60.745644 
4772.000000	60.770130 
4771.000000	60.786700 
4770.000000	60.792922 
4769.000000	60.787367 
4768.000000	60.769748 
4767.000000	60.741353 
4766.000000	60.704541 
4765.000000	60.661935 
4764.000000	60.615372 
4763.000000	60.565400 
4762.000000	60.511326 
4761.000000	60.452246 
4760.000000	60.388064 
4759.000000	60.320782 
4758.000000	60.254406 
4757.000000	60.195422 
4756.000000	60.151028 
4755.000000	60.128498 
4754.000000	60.132384 
4753.000000	60.164165 
4752.000000	60.221290 
4751.000000	60.297584 
4750.000000	60.384488 
4749.000000	60.472130 
4748.000000	60.551357 
4747.000000	60.614299 
4746.000000	60.655331 
4745.000000	60.671591 
4744.000000	60.663008 
4743.000000	60.632181 
4742.000000	60.583758 
4741.000000	60.524821 
4740.000000	60.463857 
4739.000000	60.410237 
4738.000000	60.372853 
4737.000000	60.358691 
4736.000000	60.371470 
4735.000000	60.410761 
4734.000000	60.472154 
4733.000000	60.547542 
4732.000000	60.627388 
4731.000000	60.702347 
4730.000000	60.765457 
4729.000000	60.813093 
4728.000000	60.845017 
4727.000000	60.864305 
4726.000000	60.874891 
4725.000000	60.880231 
4724.000000	60.881471 
4723.000000	60.877537 
4722.000000	60.864973 
4721.000000	60.840296 
4720.000000	60.800576 
4719.000000	60.745787 
4718.000000	60.678553 
4717.000000	60.604739 
4716.000000	60.531401 
4715.000000	60.465264 
4714.000000	60.411405 
4713.000000	60.372257 
4712.000000	60.347390 
4711.000000	60.334181 
4710.000000	60.328555 
4709.000000	60.326504 
4708.000000	60.325002 
4707.000000	60.322833 
4706.000000	60.320019 
4705.000000	60.317969 
4704.000000	60.317945 
4703.000000	60.320901 
4702.000000	60.327196 
4701.000000	60.336089 
4700.000000	60.346293 
4699.000000	60.355758 
4698.000000	60.362315 
4697.000000	60.363674 
4696.000000	60.357880 
4695.000000	60.343766 
4694.000000	60.321068 
4693.000000	60.290956 
4692.000000	60.255575 
4691.000000	60.218286 
4690.000000	60.183024 
4689.000000	60.153841 
4688.000000	60.134339 
4687.000000	60.127758 
4686.000000	60.136222 
4685.000000	60.160684 
4684.000000	60.200500 
4683.000000	60.252976 
4682.000000	60.313606 
4681.000000	60.376334 
4680.000000	60.434842 
4679.000000	60.483098 
4678.000000	60.517287 
4677.000000	60.536098 
4676.000000	60.541510 
4675.000000	60.538315 
4674.000000	60.532879 
4673.000000	60.532355 
4672.000000	60.541868 
4671.000000	60.563802 
4670.000000	60.596346 
4669.000000	60.634922 
4668.000000	60.672068 
4667.000000	60.699677 
4666.000000	60.710477 
4665.000000	60.700416 
4664.000000	60.668683 
4663.000000	60.617780 
4662.000000	60.552930 
4661.000000	60.480928 
4660.000000	60.408639 
4659.000000	60.341811 
4658.000000	60.284590 
4657.000000	60.238981 
4656.000000	60.205078 
4655.000000	60.181546 
4654.000000	60.166049 
4653.000000	60.156130 
4652.000000	60.149645 
4651.000000	60.145878 
4650.000000	60.144233 
4649.000000	60.145783 
4648.000000	60.151982 
4647.000000	60.165333 
4646.000000	60.187649 
4645.000000	60.220551 
4644.000000	60.264468 
4643.000000	60.318994 
4642.000000	60.382103 
4641.000000	60.450863 
4640.000000	60.521936 
4639.000000	60.591864 
4638.000000	60.657739 
4637.000000	60.716915 
4636.000000	60.767531 
4635.000000	60.808038 
4634.000000	60.837531 
4633.000000	60.855031 
4632.000000	60.859799 
4631.000000	60.851788 
4630.000000	60.831880 
4629.000000	60.801410 
4628.000000	60.762572 
4627.000000	60.718655 
4626.000000	60.674023 
4625.000000	60.632872 
4624.000000	60.599040 
4623.000000	60.575580 
4622.000000	60.563993 
4621.000000	60.564208 
4620.000000	60.574173 
4619.000000	60.590219 
4618.000000	60.607361 
4617.000000	60.620403 
4616.000000	60.624933 
4615.000000	60.617446 
4614.000000	60.596823 
4613.000000	60.564303 
4612.000000	60.523605 
4611.000000	60.479688 
4610.000000	60.438513 
4609.000000	60.405898 
4608.000000	60.386157 
4607.000000	60.381531 
4606.000000	60.392212 
4605.000000	60.416698 
4604.000000	60.452103 
4603.000000	60.495066 
4602.000000	60.543012 
4601.000000	60.594463 
4600.000000	60.648703 
4599.000000	60.704731 
4598.000000	60.760712 
4597.000000	60.812926 
4596.000000	60.856389 
4595.000000	60.884952 
4594.000000	60.892891 
4593.000000	60.876083 
4592.000000	60.834264 
4591.000000	60.770750 
4590.000000	60.692739 
4589.000000	60.609817 
4588.000000	60.532140 
4587.000000	60.468769 
4586.000000	60.425949 
4585.000000	60.406088 
4584.000000	60.407900 
4583.000000	60.427141 
4582.000000	60.458040 
4581.000000	60.494112 
4580.000000	60.529375 
4579.000000	60.558032 
4578.000000	60.575008 
4577.000000	60.576009 
4576.000000	60.558271 
4575.000000	60.521364 
4574.000000	60.467910 
4573.000000	60.404038 
4572.000000	60.338473 
4571.000000	60.281467 
4570.000000	60.242271 
4569.000000	60.227203 
4568.000000	60.237574 
4567.000000	60.269618 
4566.000000	60.314941 
4565.000000	60.362410 
4564.000000	60.401010 
4563.000000	60.422062 
4562.000000	60.421180 
4561.000000	60.398745 
4560.000000	60.359430 
4559.000000	60.310387 
4558.000000	60.259294 
4557.000000	60.212707 
4556.000000	60.174679 
4555.000000	60.146403 
4554.000000	60.127305 
4553.000000	60.116410 
4552.000000	60.112857 
4551.000000	60.116529 
4550.000000	60.128021 
4549.000000	60.148072 
4548.000000	60.176253 
4547.000000	60.210871 
4546.000000	60.248208 
4545.000000	60.283803 
4544.000000	60.313630 
4543.000000	60.335087 
4542.000000	60.348486 
4541.000000	60.356283 
4540.000000	60.362362 
4539.000000	60.370540 
4538.000000	60.383319 
4537.000000	60.400819 
4536.000000	60.420751 
4535.000000	60.438871 
4534.000000	60.450458 
4533.000000	60.451793 
4532.000000	60.441780 
4531.000000	60.422062 
4530.000000	60.396885 
4529.000000	60.372447 
4528.000000	60.355377 
4527.000000	60.351753 
4526.000000	60.365509 
4525.000000	60.398197 
4524.000000	60.448527 
4523.000000	60.513138 
4522.000000	60.587120 
4521.000000	60.664105 
4520.000000	60.737442 
4519.000000	60.800552 
4518.000000	60.848116 
4517.000000	60.876941 
4516.000000	60.886240 
4515.000000	60.878205 
4514.000000	60.856676 
4513.000000	60.827136 
4512.000000	60.794544 
4511.000000	60.762405 
4510.000000	60.731983 
4509.000000	60.703182 
4508.000000	60.674142 
4507.000000	60.643053 
4506.000000	60.607957 
4505.000000	60.568046 
4504.000000	60.523676 
4503.000000	60.476160 
4502.000000	60.428714 
4501.000000	60.385847 
4500.000000	60.352420 
4499.000000	60.332584 
4498.000000	60.328984 
4497.000000	60.342001 
4496.000000	60.369467 
4495.000000	60.406851 
4494.000000	60.450029 
4493.000000	60.495471 
4492.000000	60.540723 
4491.000000	60.583543 
4490.000000	60.621643 
4489.000000	60.651922 
4488.000000	60.668921 
4487.000000	60.666942 
4486.000000	60.642075 
4485.000000	60.593605 
4484.000000	60.526847 
4483.000000	60.450792 
4482.000000	60.376381 
4481.000000	60.313868 
4480.000000	60.271406 
4479.000000	60.251855 
4478.000000	60.253143 
4477.000000	60.267472 
4476.000000	60.282874 
4475.000000	60.287165 
4474.000000	60.272073 
4473.000000	60.233521 
4472.000000	60.173273 
4471.000000	60.093927 
4470.000000	59.996795 
4469.000000	59.886217 
4468.000000	59.768724 
4467.000000	59.644412 
4466.000000	59.508109 
4465.000000	59.363269 
4464.000000	59.218764 
4463.000000	59.074664 
4462.000000	58.931493 
4461.000000	58.788514 
4460.000000	58.652758 
4459.000000	58.543729 
4458.000000	58.489036 
4457.000000	58.514308 
4456.000000	58.636593 
4455.000000	58.866095 
4454.000000	59.186387 
4453.000000	59.552597 
4452.000000	59.896063 
4451.000000	60.139131 
4450.000000	60.211610 
4449.000000	60.064101 
4448.000000	59.693741 
4447.000000	59.146189 
4446.000000	58.520317 
4445.000000	57.949042 
4444.000000	57.583546 
4443.000000	57.565879 
4442.000000	58.014011 
4441.000000	59.002280 
4440.000000	60.576486 
4439.000000	62.730169 
4438.000000	65.415334 
4437.000000	68.505239 
4436.000000	71.792578 
4435.000000	74.981236 
4434.000000	77.719497 
4433.000000	79.646730 
4432.000000	80.474209 
4431.000000	80.034065 
4430.000000	78.352737 
4429.000000	75.622630 
4428.000000	72.187495 
4427.000000	68.462347 
4426.000000	64.870357 
4425.000000	61.762213 
4424.000000	59.379267 
4423.000000	57.824277 
4422.000000	57.082891 
4421.000000	57.044577 
4420.000000	57.552266 
4419.000000	58.429598 
4418.000000	59.508872 
4417.000000	60.648179 
4416.000000	61.733388 
4415.000000	62.671208 
4414.000000	63.384747 
4413.000000	63.825750 
4412.000000	63.972878 
4411.000000	63.844084 
4410.000000	63.484930 
4409.000000	62.967252 
4408.000000	62.368655 
4407.000000	61.756110 
4406.000000	61.178207 
4405.000000	60.676431 
4404.000000	60.274100 
4403.000000	59.986281 
4402.000000	59.814047 
4401.000000	59.752821 
4400.000000	59.786772 
4399.000000	59.884119 
4398.000000	60.009694 
4397.000000	60.121726 
4396.000000	60.191988 
4395.000000	60.213899 
4394.000000	60.192155 
4393.000000	60.132098 
4392.000000	60.048294 
4391.000000	59.959149 
4390.000000	59.880781 
4389.000000	59.823703 
4388.000000	59.794878 
4387.000000	59.796953 
4386.000000	59.831023 
4385.000000	59.896087 
4384.000000	59.984993 
4383.000000	60.086202 
4382.000000	60.187125 
4381.000000	60.276007 
4380.000000	60.341882 
4379.000000	60.378718 
4378.000000	60.385847 
4377.000000	60.369110 
4376.000000	60.342049 
4375.000000	60.319805 
4374.000000	60.314011 
4373.000000	60.330820 
4372.000000	60.370564 
4371.000000	60.427141 
4370.000000	60.490131 
4369.000000	60.548925 
4368.000000	60.596847 
4367.000000	60.632085 
4366.000000	60.658192 
4365.000000	60.681772 
4364.000000	60.709238 
4363.000000	60.745239 
4362.000000	60.790967 
4361.000000	60.843658 
4360.000000	60.897183 
4359.000000	60.943484 
4358.000000	60.974740 
4357.000000	60.985565 
4356.000000	60.974407 
4355.000000	60.943651 
4354.000000	60.899353 
4353.000000	60.849666 
4352.000000	60.803675 
4351.000000	60.769748 
4350.000000	60.753989 
4349.000000	60.759639 
4348.000000	60.786342 
4347.000000	60.831475 
4346.000000	60.889530 
4345.000000	60.953474 
4344.000000	61.015200 
4343.000000	61.066985 
4342.000000	61.102223 
4341.000000	61.116242 
4340.000000	61.106801 
4339.000000	61.074471 
4338.000000	61.021995 
4337.000000	60.954093 
4336.000000	60.876703 
4335.000000	60.796523 
4334.000000	60.720133 
4333.000000	60.653543 
4332.000000	60.601902 
4331.000000	60.569453 
4330.000000	60.559201 
4329.000000	60.572648 
4328.000000	60.609292 
4327.000000	60.666418 
4326.000000	60.738658 
4325.000000	60.818481 
4324.000000	60.896754 
4323.000000	60.964226 
4322.000000	61.012887 
4321.000000	61.037540 
4320.000000	61.036300 
4319.000000	61.011171 
4318.000000	60.968065 
4317.000000	60.914993 
4316.000000	60.860681 
4315.000000	60.812711 
4314.000000	60.776329 
4313.000000	60.753846 
4312.000000	60.744857 
4311.000000	60.747003 
4310.000000	60.757017 
4309.000000	60.772013 
4308.000000	60.790276 
4307.000000	60.811400 
4306.000000	60.836219 
4305.000000	60.865855 
4304.000000	60.900926 
4303.000000	60.941004 
4302.000000	60.984420 
4301.000000	61.028194 
4300.000000	61.068916 
4299.000000	61.103439 
4298.000000	61.129570 
4297.000000	61.146950 
4296.000000	61.156630 
4295.000000	61.160993 
4294.000000	61.162495 
4293.000000	61.163806 
4292.000000	61.166262 
4291.000000	61.170029 
4290.000000	61.173820 
4289.000000	61.175489 
4288.000000	61.172795 
4287.000000	61.164450 
4286.000000	61.150360 
4285.000000	61.131715 
4284.000000	61.111259 
4283.000000	61.092448 
4282.000000	61.078619 
4281.000000	61.071920 
4280.000000	61.072874 
4279.000000	61.080074 
4278.000000	61.090636 
4277.000000	61.100411 
4276.000000	61.105132 
4275.000000	61.100935 
4274.000000	61.085510 
4273.000000	61.058259 
4272.000000	61.020088 
4271.000000	60.973525 
4270.000000	60.921716 
4269.000000	60.868501 
4268.000000	60.817527 
4267.000000	60.772657 
4266.000000	60.737752 
4265.000000	60.716676 
4264.000000	60.712599 
4263.000000	60.727858 
4262.000000	60.763287 
4261.000000	60.817742 
4260.000000	60.887479 
4259.000000	60.967183 
4258.000000	61.050343 
4257.000000	61.130547 
4256.000000	61.202073 
4255.000000	61.260700 
4254.000000	61.303830 
4253.000000	61.330723 
4252.000000	61.342191 
4251.000000	61.339807 
4250.000000	61.325693 
4249.000000	61.302471 
4248.000000	61.273169 
4247.000000	61.241602 
4246.000000	61.211895 
4245.000000	61.188554 
4244.000000	61.175489 
4243.000000	61.175823 
4242.000000	61.190319 
4241.000000	61.217498 
4240.000000	61.252951 
4239.000000	61.290669 
4238.000000	61.323404 
4237.000000	61.344361 
4236.000000	61.348223 
4235.000000	61.332130 
4234.000000	61.296653 
4233.000000	61.245536 
4232.000000	61.185574 
4231.000000	61.125516 
4230.000000	61.074852 
4229.000000	61.041879 
4228.000000	61.032724 
4227.000000	61.049962 
4226.000000	61.091899 
4225.000000	61.152648 
4224.000000	61.223340 
4223.000000	61.293482 
4222.000000	61.352729 
4221.000000	61.392569 
4220.000000	61.407852 
4219.000000	61.397242 
4218.000000	61.363458 
4217.000000	61.311674 
4216.000000	61.248230 
4215.000000	61.179161 
4214.000000	61.109495 
4213.000000	61.042499 
4212.000000	60.980010 
4211.000000	60.923027 
4210.000000	60.872864 
4209.000000	60.831236 
4208.000000	60.800361 
4207.000000	60.782599 
4206.000000	60.779476 
4205.000000	60.791325 
4204.000000	60.816335 
4203.000000	60.851120 
4202.000000	60.890555 
4201.000000	60.929465 
4200.000000	60.963273 
4199.000000	60.989236 
4198.000000	61.006665 
4197.000000	61.016726 
4196.000000	61.022067 
4195.000000	61.025595 
4194.000000	61.030149 
4193.000000	61.038041 
4192.000000	61.050653 
4191.000000	61.068677 
4190.000000	61.091995 
4189.000000	61.120223 
4188.000000	61.152744 
4187.000000	61.188840 
4186.000000	61.227536 
4185.000000	61.267685 
4184.000000	61.307859 
4183.000000	61.346864 
4182.000000	61.383318 
4181.000000	61.415839 
4180.000000	61.442852 
4179.000000	61.463475 
4178.000000	61.476445 
4177.000000	61.480808 
4176.000000	61.475992 
4175.000000	61.462187 
4174.000000	61.440324 
4173.000000	61.412334 
4172.000000	61.381125 
4171.000000	61.350154 
4170.000000	61.322641 
4169.000000	61.300897 
4168.000000	61.285662 
4167.000000	61.276221 
4166.000000	61.270666 
4165.000000	61.266708 
4164.000000	61.262440 
4163.000000	61.256909 
4162.000000	61.250424 
4161.000000	61.244463 
4160.000000	61.240983 
4159.000000	61.241674 
4158.000000	61.247062 
4157.000000	61.256051 
4156.000000	61.265897 
4155.000000	61.273097 
4154.000000	61.274170 
4153.000000	61.267018 
4152.000000	61.251139 
4151.000000	61.228799 
4150.000000	61.204314 
4149.000000	61.183381 
4148.000000	61.171531 
4147.000000	61.173391 
4146.000000	61.191320 
4145.000000	61.224889 
4144.000000	61.270904 
4143.000000	61.323881 
4142.000000	61.377239 
4141.000000	61.424398 
4140.000000	61.460280 
4139.000000	61.481642 
4138.000000	61.487817 
4137.000000	61.480808 
4136.000000	61.464858 
4135.000000	61.445307 
4134.000000	61.427593 
4133.000000	61.416673 
4132.000000	61.415266 
4131.000000	61.423897 
4130.000000	61.440157 
4129.000000	61.460065 
4128.000000	61.478376 
4127.000000	61.490225 
4126.000000	61.491823 
4125.000000	61.481690 
4124.000000	61.460447 
4123.000000	61.430478 
4122.000000	61.395287 
4121.000000	61.358547 
4120.000000	61.323833 
4119.000000	61.294150 
4118.000000	61.271834 
4117.000000	61.258459 
4116.000000	61.255192 
4115.000000	61.262798 
4114.000000	61.281085 
4113.000000	61.309003 
4112.000000	61.344575 
4111.000000	61.385130 
4110.000000	61.426806 
4109.000000	61.465764 
4108.000000	61.498522 
4107.000000	61.523079 
4106.000000	61.538910 
4105.000000	61.547303 
4104.000000	61.550951 
4103.000000	61.553215 
4102.000000	61.557483 
4101.000000	61.566019 
4100.000000	61.579585 
4099.000000	61.596918 
4098.000000	61.615681 
4097.000000	61.632370 
4096.000000	61.643743 
4095.000000	61.647033 
4094.000000	61.640954 
4093.000000	61.625385 
4092.000000	61.601376 
4091.000000	61.570572 
4090.000000	61.534976 
4089.000000	61.496114 
4088.000000	61.455035 
4087.000000	61.412549 
4086.000000	61.369752 
4085.000000	61.328101 
4084.000000	61.289787 
4083.000000	61.257576 
4082.000000	61.234450 
4081.000000	61.222839 
4080.000000	61.224222 
4079.000000	61.237764 
4078.000000	61.261177 
4077.000000	61.290621 
4076.000000	61.321806 
4075.000000	61.350083 
4074.000000	61.372232 
4073.000000	61.386632 
4072.000000	61.393904 
4071.000000	61.395931 
4070.000000	61.395597 
4069.000000	61.395835 
4068.000000	61.398839 
4067.000000	61.405801 
4066.000000	61.416769 
4065.000000	61.430883 
4064.000000	61.447000 
4063.000000	61.464166 
4062.000000	61.481857 
4061.000000	61.499929 
4060.000000	61.518621 
4059.000000	61.538171 
4058.000000	61.558699 
4057.000000	61.579489 
4056.000000	61.599659 
4055.000000	61.617565 
4054.000000	61.631226 
4053.000000	61.638212 
4052.000000	61.636400 
4051.000000	61.624002 
4050.000000	61.599993 
4049.000000	61.564540 
4048.000000	61.518979 
4047.000000	61.466169 
4046.000000	61.410140 
4045.000000	61.356043 
4044.000000	61.309027 
4043.000000	61.274123 
4042.000000	61.255288 
4041.000000	61.254668 
4040.000000	61.272239 
4039.000000	61.305522 
4038.000000	61.350083 
4037.000000	61.400270 
4036.000000	61.450004 
4035.000000	61.493945 
4034.000000	61.528182 
4033.000000	61.550855 
4032.000000	61.561894 
4031.000000	61.563038 
4030.000000	61.556911 
4029.000000	61.546111 
4028.000000	61.532378 
4027.000000	61.516642 
4026.000000	61.498737 
4025.000000	61.478018 
4024.000000	61.453652 
4023.000000	61.425590 
4022.000000	61.394906 
4021.000000	61.363744 
4020.000000	61.335206 
4019.000000	61.312556 
4018.000000	61.298656 
4017.000000	61.295223 
4016.000000	61.302399 
4015.000000	61.318755 
4014.000000	61.341786 
4013.000000	61.368560 
4012.000000	61.396241 
4011.000000	61.422538 
4010.000000	61.446070 
4009.000000	61.466312 
4008.000000	61.483049 
4007.000000	61.495995 
4006.000000	61.504411 
4005.000000	61.506915 
4004.000000	61.502027 
4003.000000	61.488366 
4002.000000	61.465430 
4001.000000	61.433792 
4000.000000	61.395573 
3999.000000	61.354207 
3998.000000	61.314010 
3997.000000	61.279320 
3996.000000	61.253643 
3995.000000	61.239075 
3994.000000	61.236095 
3993.000000	61.243653 
3992.000000	61.259412 
3991.000000	61.280679 
3990.000000	61.304569 
3989.000000	61.328840 
3988.000000	61.352086 
3987.000000	61.373686 
3986.000000	61.393332 
3985.000000	61.410999 
3984.000000	61.426568 
3983.000000	61.439919 
3982.000000	61.450791 
3981.000000	61.458873 
3980.000000	61.463975 
3979.000000	61.466407 
3978.000000	61.466979 
3977.000000	61.466717 
3976.000000	61.466956 
3975.000000	61.468958 
3974.000000	61.473846 
3973.000000	61.482286 
3972.000000	61.494421 
3971.000000	61.510133 
3970.000000	61.528658 
3969.000000	61.548972 
3968.000000	61.569380 
3967.000000	61.588144 
3966.000000	61.602973 
3965.000000	61.611604 
3964.000000	61.611771 
3963.000000	61.601543 
3962.000000	61.580061 
3961.000000	61.547803 
3960.000000	61.507058 
3959.000000	61.461591 
3958.000000	61.417102 
3957.000000	61.380434 
3956.000000	61.358475 
3955.000000	61.356711 
3954.000000	61.378169 
3953.000000	61.422467 
3952.000000	61.485314 
3951.000000	61.559295 
3950.000000	61.635065 
3949.000000	61.703348 
3948.000000	61.756277 
3947.000000	61.789441 
3946.000000	61.802124 
3945.000000	61.797213 
3944.000000	61.780500 
3943.000000	61.758303 
3942.000000	61.736559 
3941.000000	61.718320 
3940.000000	61.704349 
3939.000000	61.691927 
3938.000000	61.677002 
3937.000000	61.654615 
3936.000000	61.621356 
3935.000000	61.575984 
3934.000000	61.520051 
3933.000000	61.457777 
3932.000000	61.395263 
3931.000000	61.339354 
3930.000000	61.295938 
3929.000000	61.269116 
3928.000000	61.260318 
3927.000000	61.267995 
3926.000000	61.287927 
3925.000000	61.314225 
3924.000000	61.340785 
3923.000000	61.362409 
3922.000000	61.376094 
3921.000000	61.380887 
3920.000000	61.378073 
3919.000000	61.370754 
3918.000000	61.362600 
3917.000000	61.356353 
3916.000000	61.353564 
3915.000000	61.354494 
3914.000000	61.358094 
3913.000000	61.362671 
3912.000000	61.366772 
3911.000000	61.369848 
3910.000000	61.372947 
3909.000000	61.378359 
3908.000000	61.389422 
3907.000000	61.409115 
3906.000000	61.439657 
3905.000000	61.481690 
3904.000000	61.533832 
3903.000000	61.592531 
3902.000000	61.653327 
3901.000000	61.711215 
3900.000000	61.761426 
3899.000000	61.799883 
3898.000000	61.824131 
3897.000000	61.833238 
3896.000000	61.827540 
3895.000000	61.807990 
3894.000000	61.776494 
3893.000000	61.734890 
3892.000000	61.685299 
3891.000000	61.629652 
3890.000000	61.570215 
3889.000000	61.509323 
3888.000000	61.449837 
3887.000000	61.394715 
3886.000000	61.346745 
3885.000000	61.308503 
3884.000000	61.281728 
3883.000000	61.267566 
3882.000000	61.265492 
3881.000000	61.274814 
3880.000000	61.294150 
3879.000000	61.322355 
3878.000000	61.358022 
3877.000000	61.400175 
3876.000000	61.447954 
3875.000000	61.500334 
3874.000000	61.555695 
3873.000000	61.611700 
3872.000000	61.665272 
3871.000000	61.712956 
3870.000000	61.751151 
3869.000000	61.777377 
3868.000000	61.790370 
3867.000000	61.790657 
3866.000000	61.780190 
3865.000000	61.762142 
3864.000000	61.739897 
3863.000000	61.716866 
3862.000000	61.695194 
3861.000000	61.675953 
3860.000000	61.658644 
3859.000000	61.642289 
3858.000000	61.625003 
3857.000000	61.604857 
3856.000000	61.580419 
3855.000000	61.551141 
3854.000000	61.517715 
3853.000000	61.481714 
3852.000000	61.445975 
3851.000000	61.413764 
3850.000000	61.388754 
3849.000000	61.374092 
3848.000000	61.372113 
3847.000000	61.383557 
3846.000000	61.407470 
3845.000000	61.441111 
3844.000000	61.480212 
3843.000000	61.519575 
3842.000000	61.553859 
3841.000000	61.578559 
3840.000000	61.590480 
3839.000000	61.588478 
3838.000000	61.573386 
3837.000000	61.547827 
3836.000000	61.515903 
3835.000000	61.482119 
3834.000000	61.450839 
3833.000000	61.425614 
3832.000000	61.409044 
3831.000000	61.402273 
3830.000000	61.404824 
3829.000000	61.415100 
3828.000000	61.430811 
3827.000000	61.449360 
3826.000000	61.468124 
3825.000000	61.485266 
3824.000000	61.499691 
3823.000000	61.511588 
3822.000000	61.522102 
3821.000000	61.533236 
3820.000000	61.547231 
3819.000000	61.565828 
3818.000000	61.589694 
3817.000000	61.618185 
3816.000000	61.649298 
3815.000000	61.680126 
3814.000000	61.707472 
3813.000000	61.728501 
3812.000000	61.741518 
3811.000000	61.746215 
3810.000000	61.743927 
3809.000000	61.736965 
3808.000000	61.728286 
3807.000000	61.721014 
3806.000000	61.717581 
3805.000000	61.719560 
3804.000000	61.727261 
3803.000000	61.740112 
3802.000000	61.756682 
3801.000000	61.775183 
3800.000000	61.793851 
3799.000000	61.811208 
3798.000000	61.826181 
3797.000000	61.838173 
3796.000000	61.847138 
3795.000000	61.853599 
3794.000000	61.858272 
3793.000000	61.861896 
3792.000000	61.865067 
3791.000000	61.868000 
3790.000000	61.870479 
3789.000000	61.871981 
3788.000000	61.872124 
3787.000000	61.870598 
3786.000000	61.867523 
3785.000000	61.863327 
3784.000000	61.858677 
3783.000000	61.854076 
3782.000000	61.849784 
3781.000000	61.845445 
3780.000000	61.840128 
3779.000000	61.832451 
3778.000000	61.821079 
3777.000000	61.804842 
3776.000000	61.783409 
3775.000000	61.757159 
3774.000000	61.727571 
3773.000000	61.696600 
3772.000000	61.666464 
3771.000000	61.639165 
3770.000000	61.616206 
3769.000000	61.598730 
3768.000000	61.587524 
3767.000000	61.582851 
3766.000000	61.584687 
3765.000000	61.592507 
3764.000000	61.605405 
3763.000000	61.621618 
3762.000000	61.639070 
3761.000000	61.655282 
3760.000000	61.668300 
3759.000000	61.676573 
3758.000000	61.679959 
3757.000000	61.679530 
3756.000000	61.677360 
3755.000000	61.676311 
3754.000000	61.679005 
3753.000000	61.687207 
3752.000000	61.701440 
3751.000000	61.720991 
3750.000000	61.743688 
3749.000000	61.766791 
3748.000000	61.787486 
3747.000000	61.803698 
3746.000000	61.814427 
3745.000000	61.819815 
3744.000000	61.820960 
3743.000000	61.819577 
3742.000000	61.817383 
3741.000000	61.815786 
3740.000000	61.815762 
3739.000000	61.817765 
3738.000000	61.821722 
3737.000000	61.827158 
3736.000000	61.833572 
3735.000000	61.840438 
3734.000000	61.847019 
3733.000000	61.852478 
3732.000000	61.855959 
3731.000000	61.856746 
3730.000000	61.854481 
3729.000000	61.849236 
3728.000000	61.841845 
3727.000000	61.833715 
3726.000000	61.826658 
3725.000000	61.822557 
3724.000000	61.822676 
3723.000000	61.827397 
3722.000000	61.836147 
3721.000000	61.847424 
3720.000000	61.858820 
3719.000000	61.867833 
3718.000000	61.872339 
3717.000000	61.871099 
3716.000000	61.863923 
3715.000000	61.851930 
3714.000000	61.837434 
3713.000000	61.823248 
3712.000000	61.812329 
3711.000000	61.807465 
3710.000000	61.810755 
3709.000000	61.823320 
3708.000000	61.845302 
3707.000000	61.875867 
3706.000000	61.913466 
3705.000000	61.955809 
3704.000000	62.000203 
3703.000000	62.043905 
3702.000000	62.084126 
3701.000000	62.118363 
3700.000000	62.144517 
3699.000000	62.161135 
3698.000000	62.167143 
3697.000000	62.162685 
3696.000000	62.148380 
3695.000000	62.126040 
3694.000000	62.097954 
3693.000000	62.067008 
3692.000000	62.036180 
3691.000000	62.008023 
3690.000000	61.984443 
3689.000000	61.966466 
3688.000000	61.953973 
3687.000000	61.945986 
3686.000000	61.940884 
3685.000000	61.936998 
3684.000000	61.932969 
3683.000000	61.928153 
3682.000000	61.922669 
3681.000000	61.917567 
3680.000000	61.914253 
3679.000000	61.914396 
3678.000000	61.919260 
3677.000000	61.929035 
3676.000000	61.943244 
3675.000000	61.960315 
3674.000000	61.977839 
3673.000000	61.993026 
3672.000000	62.003540 
3671.000000	62.007498 
3670.000000	62.003922 
3669.000000	61.993050 
3668.000000	61.976170 
3667.000000	61.955499 
3666.000000	61.933827 
3665.000000	61.914253 
3664.000000	61.899590 
3663.000000	61.892342 
3662.000000	61.894202 
3661.000000	61.905765 
3660.000000	61.926317 
3659.000000	61.953759 
3658.000000	61.985135 
3657.000000	62.016725 
3656.000000	62.044548 
3655.000000	62.064957 
3654.000000	62.075114 
3653.000000	62.073564 
3652.000000	62.060284 
3651.000000	62.036752 
3650.000000	62.005734 
3649.000000	61.970973 
3648.000000	61.936330 
3647.000000	61.905765 
3646.000000	61.882495 
3645.000000	61.868619 
3644.000000	61.865067 
3643.000000	61.871409 
3642.000000	61.886119 
3641.000000	61.906838 
3640.000000	61.930990 
3639.000000	61.955857 
3638.000000	61.979389 
3637.000000	62.000226 
3636.000000	62.017798 
3635.000000	62.031984 
3634.000000	62.042856 
3633.000000	62.050271 
3632.000000	62.053561 
3631.000000	62.051820 
3630.000000	62.043833 
3629.000000	62.028717 
3628.000000	62.006473 
3627.000000	61.978411 
3626.000000	61.947083 
3625.000000	61.915993 
3624.000000	61.889123 
3623.000000	61.870193 
3622.000000	61.861681 
3621.000000	61.864614 
3620.000000	61.878156 
3619.000000	61.900019 
3618.000000	61.926746 
3617.000000	61.954784 
3616.000000	61.980915 
3615.000000	62.003207 
3614.000000	62.020683 
3613.000000	62.033343 
3612.000000	62.041735 
3611.000000	62.046337 
3610.000000	62.047290 
3609.000000	62.044239 
3608.000000	62.036371 
3607.000000	62.023329 
3606.000000	62.005615 
3605.000000	61.985087 
3604.000000	61.964869 
3603.000000	61.949062 
3602.000000	61.942005 
3601.000000	61.947154 
3600.000000	61.966133 
3599.000000	61.997938 
3598.000000	62.039041 
3597.000000	62.084031 
3596.000000	62.126684 
3595.000000	62.161326 
3594.000000	62.184071 
3593.000000	62.193655 
3592.000000	62.191462 
3591.000000	62.180662 
3590.000000	62.165451 
3589.000000	62.149763 
3588.000000	62.136220 
3587.000000	62.125968 
3586.000000	62.118148 
3585.000000	62.111163 
3584.000000	62.102603 
3583.000000	62.090659 
3582.000000	62.074232 
3581.000000	62.053656 
3580.000000	62.030315 
3579.000000	62.006497 
3578.000000	61.984753 
3577.000000	61.967325 
3576.000000	61.955714 
3575.000000	61.950397 
3574.000000	61.951065 
3573.000000	61.956810 
3572.000000	61.966156 
3571.000000	61.977791 
3570.000000	61.990499 
3569.000000	62.003469 
3568.000000	62.015891 
3567.000000	62.026977 
3566.000000	62.035632 
3565.000000	62.040495 
3564.000000	62.040066 
3563.000000	62.033057 
3562.000000	62.018561 
3561.000000	61.997079 
3560.000000	61.970567 
3559.000000	61.942386 
3558.000000	61.916828 
3557.000000	61.897993 
3556.000000	61.889147 
3555.000000	61.891579 
3554.000000	61.904287 
3553.000000	61.924314 
3552.000000	61.947536 
3551.000000	61.969614 
3550.000000	61.987257 
3549.000000	61.998891 
3548.000000	62.005138 
3547.000000	62.008404 
3546.000000	62.012052 
3545.000000	62.019348 
3544.000000	62.032675 
3543.000000	62.052869 
3542.000000	62.079071 
3541.000000	62.109327 
3540.000000	62.140703 
3539.000000	62.170839 
3538.000000	62.197351 
3537.000000	62.218761 
3536.000000	62.233829 
3535.000000	62.241840 
3534.000000	62.242102 
3533.000000	62.233877 
3532.000000	62.216711 
3531.000000	62.190794 
3530.000000	62.157082 
3529.000000	62.117648 
3528.000000	62.075424 
3527.000000	62.034034 
3526.000000	61.997127 
3525.000000	61.967754 
3524.000000	61.947917 
3523.000000	61.938095 
3522.000000	61.937451 
3521.000000	61.944079 
3520.000000	61.955308 
3519.000000	61.968374 
3518.000000	61.980748 
3517.000000	61.990761 
3516.000000	61.997032 
3515.000000	61.999487 
3514.000000	61.998772 
3513.000000	61.996650 
3512.000000	61.995077 
3511.000000	61.996316 
3510.000000	62.002468 
3509.000000	62.014770 
3508.000000	62.033414 
3507.000000	62.057065 
3506.000000	62.083268 
3505.000000	62.108397 
3504.000000	62.128567 
3503.000000	62.140154 
3502.000000	62.140583 
3501.000000	62.128949 
3500.000000	62.106394 
3499.000000	62.075734 
3498.000000	62.041020 
3497.000000	62.007117 
3496.000000	61.978793 
3495.000000	61.960124 
3494.000000	61.953616 
3493.000000	61.960291 
3492.000000	61.979007 
3491.000000	62.006664 
3490.000000	62.038516 
3489.000000	62.068748 
3488.000000	62.091660 
3487.000000	62.102627 
3486.000000	62.099337 
3485.000000	62.081956 
3484.000000	62.053585 
3483.000000	62.019395 
3482.000000	61.985707 
3481.000000	61.958837 
3480.000000	61.943554 
3479.000000	61.942315 
3478.000000	61.954712 
3477.000000	61.977934 
3476.000000	62.007689 
3475.000000	62.039065 
3474.000000	62.067866 
3473.000000	62.091231 
3472.000000	62.108159 
3471.000000	62.119340 
3470.000000	62.126255 
3469.000000	62.130546 
3468.000000	62.133455 
3467.000000	62.135314 
3466.000000	62.135791 
3465.000000	62.133812 
3464.000000	62.128353 
3463.000000	62.118911 
3462.000000	62.105870 
3461.000000	62.090826 
3460.000000	62.076067 
3459.000000	62.064695 
3458.000000	62.059307 
3457.000000	62.062144 
3456.000000	62.074422 
3455.000000	62.096261 
3454.000000	62.126493 
3453.000000	62.162947 
3452.000000	62.202858 
3451.000000	62.242984 
3450.000000	62.280392 
3449.000000	62.312150 
3448.000000	62.335729 
3447.000000	62.348961 
3446.000000	62.350463 
3445.000000	62.339425 
3444.000000	62.315773 
3443.000000	62.280273 
3442.000000	62.234354 
3441.000000	62.180328 
3440.000000	62.121319 
3439.000000	62.061071 
3438.000000	62.003731 
3437.000000	61.953449 
3436.000000	61.913990 
3435.000000	61.888384 
3434.000000	61.878180 
3433.000000	61.883258 
3432.000000	61.901950 
3431.000000	61.930632 
3430.000000	61.965250 
3429.000000	62.000918 
3428.000000	62.033629 
3427.000000	62.060236 
3426.000000	62.079596 
3425.000000	62.091994 
3424.000000	62.099027 
3423.000000	62.102985 
3422.000000	62.105584 
3421.000000	62.107706 
3420.000000	62.108683 
3419.000000	62.106895 
3418.000000	62.100100 
3417.000000	62.086677 
3416.000000	62.066245 
3415.000000	62.040185 
3414.000000	62.011575 
3413.000000	61.984539 
3412.000000	61.963319 
3411.000000	61.951303 
3410.000000	61.949968 
3409.000000	61.958789 
3408.000000	61.975455 
3407.000000	61.996817 
3406.000000	62.019443 
3405.000000	62.040829 
3404.000000	62.059736 
3403.000000	62.076449 
3402.000000	62.091994 
3401.000000	62.107801 
3400.000000	62.124633 
3399.000000	62.142491 
3398.000000	62.160563 
3397.000000	62.177371 
3396.000000	62.191319 
3395.000000	62.201094 
3394.000000	62.206220 
3393.000000	62.206816 
3392.000000	62.203669 
3391.000000	62.197875 
3390.000000	62.190628 
3389.000000	62.183022 
3388.000000	62.175822 
3387.000000	62.169671 
3386.000000	62.165117 
3385.000000	62.162804 
3384.000000	62.163424 
3383.000000	62.167549 
3382.000000	62.175607 
3381.000000	62.187480 
3380.000000	62.202620 
3379.000000	62.219882 
3378.000000	62.237882 
3377.000000	62.255096 
3376.000000	62.270259 
3375.000000	62.282800 
3374.000000	62.292385 
3373.000000	62.299251 
3372.000000	62.303686 
3371.000000	62.306165 
3370.000000	62.306761 
3369.000000	62.305235 
3368.000000	62.300944 
3367.000000	62.293148 
3366.000000	62.281274 
3365.000000	62.265348 
3364.000000	62.246131 
3363.000000	62.225151 
3362.000000	62.204551 
3361.000000	62.186503 
3360.000000	62.172532 
3359.000000	62.163066 
3358.000000	62.157344 
3357.000000	62.153816 
3356.000000	62.150359 
3355.000000	62.145113 
3354.000000	62.136983 
3353.000000	62.126183 
3352.000000	62.114095 
3351.000000	62.103104 
3350.000000	62.095570 
3349.000000	62.093496 
3348.000000	62.097764 
3347.000000	62.108182 
3346.000000	62.123322 
3345.000000	62.141323 
3344.000000	62.160205 
3343.000000	62.178397 
3342.000000	62.195372 
3341.000000	62.211132 
3340.000000	62.226033 
3339.000000	62.240624 
3338.000000	62.255167 
3337.000000	62.269878 
3336.000000	62.284636 
3335.000000	62.299609 
3334.000000	62.315154 
3333.000000	62.331628 
3332.000000	62.348985 
3331.000000	62.366795 
3330.000000	62.383890 
3329.000000	62.398290 
3328.000000	62.407445 
3327.000000	62.408900 
3326.000000	62.400650 
3325.000000	62.381958 
3324.000000	62.353610 
3323.000000	62.317943 
3322.000000	62.278652 
3321.000000	62.240099 
3320.000000	62.206816 
3319.000000	62.182331 
3318.000000	62.169075 
3317.000000	62.167882 
3316.000000	62.178254 
3315.000000	62.198281 
3314.000000	62.225317 
3313.000000	62.256240 
3312.000000	62.287950 
3311.000000	62.317562 
3310.000000	62.343120 
3309.000000	62.363600 
3308.000000	62.378954 
3307.000000	62.389826 
3306.000000	62.397289 
3305.000000	62.402248 
3304.000000	62.405323 
3303.000000	62.406373 
3302.000000	62.405014 
3301.000000	62.400388 
3300.000000	62.391757 
3299.000000	62.378644 
3298.000000	62.361168 
3297.000000	62.339854 
3296.000000	62.315773 
3295.000000	62.290167 
3294.000000	62.264466 
3293.000000	62.239861 
3292.000000	62.217378 
3291.000000	62.197875 
3290.000000	62.181925 
3289.000000	62.170004 
3288.000000	62.162494 
3287.000000	62.159538 
3286.000000	62.160825 
3285.000000	62.165689 
3284.000000	62.173008 
3283.000000	62.181758 
3282.000000	62.191081 
3281.000000	62.200379 
3280.000000	62.209415 
3279.000000	62.218213 
3278.000000	62.226963 
3277.000000	62.235617 
3276.000000	62.243938 
3275.000000	62.251567 
3274.000000	62.258267 
3273.000000	62.263894 
3272.000000	62.268519 
3271.000000	62.272596 
3270.000000	62.276411 
3269.000000	62.280440 
3268.000000	62.284755 
3267.000000	62.288856 
3266.000000	62.291955 
3265.000000	62.293291 
3264.000000	62.292337 
3263.000000	62.288999 
3262.000000	62.283873 
3261.000000	62.278342 
3260.000000	62.273812 
3259.000000	62.271451 
3258.000000	62.271881 
3257.000000	62.274789 
3256.000000	62.279391 
3255.000000	62.284564 
3254.000000	62.289357 
3253.000000	62.293219 
3252.000000	62.295961 
3251.000000	62.297606 
3250.000000	62.298035 
3249.000000	62.296867 
3248.000000	62.293434 
3247.000000	62.287187 
3246.000000	62.277674 
3245.000000	62.265419 
3244.000000	62.251853 
3243.000000	62.239527 
3242.000000	62.231588 
3241.000000	62.231206 
3240.000000	62.240648 
3239.000000	62.260627 
3238.000000	62.289905 
3237.000000	62.325525 
3236.000000	62.363243 
3235.000000	62.398409 
3234.000000	62.426781 
3233.000000	62.445449 
3232.000000	62.453508 
3231.000000	62.451934 
3230.000000	62.443137 
3229.000000	62.430572 
3228.000000	62.417912 
3227.000000	62.408399 
3226.000000	62.404251 
3225.000000	62.406134 
3224.000000	62.413001 
3223.000000	62.422728 
3222.000000	62.432551 
3221.000000	62.439632 
3220.000000	62.441873 
3219.000000	62.438297 
3218.000000	62.429738 
3217.000000	62.418341 
3216.000000	62.407279 
3215.000000	62.400150 
3214.000000	62.399744 
3213.000000	62.407732 
3212.000000	62.423300 
3211.000000	62.443900 
3210.000000	62.464880 
3209.000000	62.480878 
3208.000000	62.486577 
3207.000000	62.478089 
3206.000000	62.454104 
3205.000000	62.416148 
3204.000000	62.368583 
3203.000000	62.317538 
3202.000000	62.270212 
3201.000000	62.233519 
3200.000000	62.212586 
3199.000000	62.209892 
3198.000000	62.225222 
3197.000000	62.255811 
3196.000000	62.297105 
3195.000000	62.343907 
3194.000000	62.391114 
3193.000000	62.434792 
3192.000000	62.472295 
3191.000000	62.502431 
3190.000000	62.525105 
3189.000000	62.540817 
3188.000000	62.550282 
3187.000000	62.553811 
3186.000000	62.551760 
3185.000000	62.544322 
3184.000000	62.532186 
3183.000000	62.516474 
3182.000000	62.499094 
3181.000000	62.482357 
3180.000000	62.469077 
3179.000000	62.461328 
3178.000000	62.460303 
3177.000000	62.465548 
3176.000000	62.475252 
3175.000000	62.486314 
3174.000000	62.495040 
3173.000000	62.498307 
3172.000000	62.494063 
3171.000000	62.481951 
3170.000000	62.463641 
3169.000000	62.442207 
3168.000000	62.421703 
3167.000000	62.406158 
3166.000000	62.398529 
3165.000000	62.399983 
3164.000000	62.409639 
3163.000000	62.424969 
3162.000000	62.442493 
3161.000000	62.458252 
3160.000000	62.469196 
3159.000000	62.473893 
3158.000000	62.472987 
3157.000000	62.468624 
3156.000000	62.464237 
3155.000000	62.463140 
3154.000000	62.468171 
3153.000000	62.480592 
3152.000000	62.499904 
3151.000000	62.524104 
3150.000000	62.550210 
3149.000000	62.575173 
3148.000000	62.596273 
3147.000000	62.611603 
3146.000000	62.620353 
3145.000000	62.622547 
3144.000000	62.618827 
3143.000000	62.609839 
3142.000000	62.596201 
3141.000000	62.578153 
3140.000000	62.555932 
3139.000000	62.529587 
3138.000000	62.499713 
3137.000000	62.467193 
3136.000000	62.433314 
3135.000000	62.399840 
3134.000000	62.368464 
3133.000000	62.341070 
3132.000000	62.318873 
3131.000000	62.302970 
3130.000000	62.293720 
3129.000000	62.291383 
3128.000000	62.295937 
3127.000000	62.307429 
3126.000000	62.325286 
3125.000000	62.349033 
3124.000000	62.377643 
3123.000000	62.409901 
3122.000000	62.443971 
3121.000000	62.477827 
3120.000000	62.509346 
3119.000000	62.536621 
3118.000000	62.557983 
3117.000000	62.572431 
3116.000000	62.579393 
3115.000000	62.578916 
3114.000000	62.571430 
3113.000000	62.557768 
3112.000000	62.539005 
3111.000000	62.516665 
3110.000000	62.492442 
3109.000000	62.468385 
3108.000000	62.446618 
3107.000000	62.429451 
3106.000000	62.418723 
3105.000000	62.415456 
3104.000000	62.419676 
3103.000000	62.430334 
3102.000000	62.445092 
3101.000000	62.460708 
3100.000000	62.473726 
3099.000000	62.480998 
3098.000000	62.480378 
3097.000000	62.471032 
3096.000000	62.453579 
3095.000000	62.430000 
3094.000000	62.403059 
3093.000000	62.375664 
3092.000000	62.350273 
3091.000000	62.328624 
3090.000000	62.311577 
3089.000000	62.299323 
3088.000000	62.291574 
3087.000000	62.287902 
3086.000000	62.288141 
3085.000000	62.292408 
3084.000000	62.300658 
3083.000000	62.312793 
3082.000000	62.328052 
3081.000000	62.345266 
3080.000000	62.362623 
3079.000000	62.378334 
3078.000000	62.390732 
3077.000000	62.398862 
3076.000000	62.402844 
3075.000000	62.403702 
3074.000000	62.403178 
3073.000000	62.403297 
3072.000000	62.405753 
3071.000000	62.411880 
3070.000000	62.422180 
3069.000000	62.436556 
3068.000000	62.454104 
3067.000000	62.473869 
3066.000000	62.494897 
3065.000000	62.516307 
3064.000000	62.537145 
3063.000000	62.556457 
3062.000000	62.573313 
3061.000000	62.586617 
3060.000000	62.595486 
3059.000000	62.599205 
3058.000000	62.597823 
3057.000000	62.592148 
3056.000000	62.583732 
3055.000000	62.574839 
3054.000000	62.567472 
3053.000000	62.563705 
3052.000000	62.564563 
3051.000000	62.570047 
3050.000000	62.579107 
3049.000000	62.589955 
3048.000000	62.600398 
3047.000000	62.608599 
3046.000000	62.612986 
3045.000000	62.612986 
3044.000000	62.608337 
3043.000000	62.599349 
3042.000000	62.586379 
3041.000000	62.569665 
3040.000000	62.549209 
3039.000000	62.524890 
3038.000000	62.496781 
3037.000000	62.465357 
3036.000000	62.431526 
3035.000000	62.396860 
3034.000000	62.363052 
3033.000000	62.332177 
3032.000000	62.306261 
3031.000000	62.287330 
3030.000000	62.276768 
3029.000000	62.275528 
3028.000000	62.283945 
3027.000000	62.301826 
3026.000000	62.328124 
3025.000000	62.361073 
3024.000000	62.398147 
3023.000000	62.436246 
3022.000000	62.471985 
3021.000000	62.502241 
3020.000000	62.524580 
3019.000000	62.537837 
3018.000000	62.542104 
3017.000000	62.538957 
3016.000000	62.531137 
3015.000000	62.521839 
3014.000000	62.514400 
3013.000000	62.511658 
3012.000000	62.515473 
3011.000000	62.526535 
3010.000000	62.544250 
3009.000000	62.566614 
3008.000000	62.590479 
3007.000000	62.612175 
3006.000000	62.628006 
3005.000000	62.634801 
3004.000000	62.630844 
3003.000000	62.616086 
3002.000000	62.592387 
3001.000000	62.563228 
3000.000000	62.532997 
2999.000000	62.506628 
2998.000000	62.487864 
2997.000000	62.479209 
2996.000000	62.480616 
2995.000000	62.490129 
2994.000000	62.503743 
2993.000000	62.516808 
2992.000000	62.524580 
2991.000000	62.523531 
2990.000000	62.511849 
2989.000000	62.489867 
2988.000000	62.460064 
2987.000000	62.426090 
2986.000000	62.392520 
2985.000000	62.363672 
2984.000000	62.343025 
2983.000000	62.332534 
2982.000000	62.332487 
2981.000000	62.341523 
2980.000000	62.357091 
2979.000000	62.375903 
2978.000000	62.394642 
2977.000000	62.410759 
2976.000000	62.422561 
2975.000000	62.429738 
2974.000000	62.433195 
2973.000000	62.434768 
2972.000000	62.436699 
2971.000000	62.440919 
2970.000000	62.448430 
2969.000000	62.458992 
2968.000000	62.471413 
2967.000000	62.483525 
2966.000000	62.492990 
2965.000000	62.497663 
2964.000000	62.496662 
2963.000000	62.490105 
2962.000000	62.479162 
2961.000000	62.465763 
2960.000000	62.452054 
2959.000000	62.439799 
2958.000000	62.430095 
2957.000000	62.423300 
2956.000000	62.419033 
2955.000000	62.416505 
2954.000000	62.414836 
2953.000000	62.413406 
2952.000000	62.412238 
2951.000000	62.411546 
2950.000000	62.411904 
2949.000000	62.413907 
2948.000000	62.417984 
2947.000000	62.424349 
2946.000000	62.432932 
2945.000000	62.443327 
2944.000000	62.454676 
2943.000000	62.466216 
2942.000000	62.476968 
2941.000000	62.486004 
2940.000000	62.492656 
2939.000000	62.496542 
2938.000000	62.497735 
2937.000000	62.496614 
2936.000000	62.493896 
2935.000000	62.490463 
2934.000000	62.487125 
2933.000000	62.484312 
2932.000000	62.482070 
2931.000000	62.480044 
2930.000000	62.477612 
2929.000000	62.474441 
2928.000000	62.470507 
2927.000000	62.466168 
2926.000000	62.462472 
2925.000000	62.460613 
2924.000000	62.461614 
2923.000000	62.466001 
2922.000000	62.473154 
2921.000000	62.481832 
2920.000000	62.490248 
2919.000000	62.496924 
2918.000000	62.500810 
2917.000000	62.501835 
2916.000000	62.500905 
2915.000000	62.499499 
2914.000000	62.499284 
2913.000000	62.501358 
2912.000000	62.506079 
2911.000000	62.512779 
2910.000000	62.519860 
2909.000000	62.525534 
2908.000000	62.528347 
2907.000000	62.527823 
2906.000000	62.524867 
2905.000000	62.521529 
2904.000000	62.520647 
2903.000000	62.525057 
2902.000000	62.536668 
2901.000000	62.555742 
2900.000000	62.580823 
2899.000000	62.608718 
2898.000000	62.635159 
2897.000000	62.655973 
2896.000000	62.667775 
2895.000000	62.668991 
2894.000000	62.659978 
2893.000000	62.643003 
2892.000000	62.621402 
2891.000000	62.598919 
2890.000000	62.578701 
2889.000000	62.562751 
2888.000000	62.551474 
2887.000000	62.544298 
2886.000000	62.539792 
2885.000000	62.536668 
2884.000000	62.534141 
2883.000000	62.532520 
2882.000000	62.532687 
2881.000000	62.535977 
2880.000000	62.543368 
2879.000000	62.554931 
2878.000000	62.569594 
2877.000000	62.585115 
2876.000000	62.598729 
2875.000000	62.607526 
2874.000000	62.609434 
2873.000000	62.603592 
2872.000000	62.590622 
2871.000000	62.572431 
2870.000000	62.551736 
2869.000000	62.531352 
2868.000000	62.513637 
2867.000000	62.499809 
2866.000000	62.490129 
2865.000000	62.484025 
2864.000000	62.480545 
2863.000000	62.478947 
2862.000000	62.478876 
2861.000000	62.480783 
2860.000000	62.485647 
2859.000000	62.494540 
2858.000000	62.508058 
2857.000000	62.525939 
2856.000000	62.546944 
2855.000000	62.568902 
2854.000000	62.588977 
2853.000000	62.604570 
2852.000000	62.613773 
2851.000000	62.615871 
2850.000000	62.611603 
2849.000000	62.602782 
2848.000000	62.592172 
2847.000000	62.582421 
2846.000000	62.575626 
2845.000000	62.572884 
2844.000000	62.574028 
2843.000000	62.578034 
2842.000000	62.583231 
2841.000000	62.587833 
2840.000000	62.590575 
2839.000000	62.590670 
2838.000000	62.588214 
2837.000000	62.583756 
2836.000000	62.578463 
2835.000000	62.573385 
2834.000000	62.569785 
2833.000000	62.568402 
2832.000000	62.569785 
2831.000000	62.574076 
2830.000000	62.581110 
2829.000000	62.590265 
2828.000000	62.600922 
2827.000000	62.612223 
2826.000000	62.623453 
2825.000000	62.633752 
2824.000000	62.642645 
2823.000000	62.649774 
2822.000000	62.655210 
2821.000000	62.659239 
2820.000000	62.662315 
2819.000000	62.664842 
2818.000000	62.667346 
2817.000000	62.670135 
2816.000000	62.673521 
2815.000000	62.677574 
2814.000000	62.682461 
2813.000000	62.688136 
2812.000000	62.694382 
2811.000000	62.700510 
2810.000000	62.705802 
2809.000000	62.709212 
2808.000000	62.709856 
2807.000000	62.707138 
2806.000000	62.700891 
2805.000000	62.691307 
2804.000000	62.679004 
2803.000000	62.664914 
2802.000000	62.650012 
2801.000000	62.635421 
2800.000000	62.622141 
2799.000000	62.611174 
2798.000000	62.603449 
2797.000000	62.600040 
2796.000000	62.601995 
2795.000000	62.610244 
2794.000000	62.625265 
2793.000000	62.646865 
2792.000000	62.673997 
2791.000000	62.704849 
2790.000000	62.736845 
2789.000000	62.767171 
2788.000000	62.793064 
2787.000000	62.812614 
2786.000000	62.824678 
2785.000000	62.829279 
2784.000000	62.827181 
2783.000000	62.819957 
2782.000000	62.809205 
2781.000000	62.796854 
2780.000000	62.784337 
2779.000000	62.772846 
2778.000000	62.763214 
2777.000000	62.755990 
2776.000000	62.751412 
2775.000000	62.749433 
2774.000000	62.749886 
2773.000000	62.752437 
2772.000000	62.756657 
2771.000000	62.761950 
2770.000000	62.767791 
2769.000000	62.773847 
2768.000000	62.780046 
2767.000000	62.786507 
2766.000000	62.793660 
2765.000000	62.802100 
2764.000000	62.812232 
2763.000000	62.824225 
2762.000000	62.838101 
2761.000000	62.853240 
2760.000000	62.868881 
2759.000000	62.883687 
2758.000000	62.896370 
2757.000000	62.905526 
2756.000000	62.910032 
2755.000000	62.908959 
2754.000000	62.902092 
2753.000000	62.889599 
2752.000000	62.872505 
2751.000000	62.852287 
2750.000000	62.831020 
2749.000000	62.810802 
2748.000000	62.793731 
2747.000000	62.781333 
2746.000000	62.774491 
2745.000000	62.773108 
2744.000000	62.776303 
2743.000000	62.782526 
2742.000000	62.790012 
2741.000000	62.796926 
2740.000000	62.801980 
2739.000000	62.804579 
2738.000000	62.804794 
2737.000000	62.803316 
2736.000000	62.801074 
2735.000000	62.799191 
2734.000000	62.798523 
2733.000000	62.799549 
2732.000000	62.802314 
2731.000000	62.806820 
2730.000000	62.812733 
2729.000000	62.819695 
2728.000000	62.827253 
2727.000000	62.834882 
2726.000000	62.841796 
2725.000000	62.846994 
2724.000000	62.849307 
2723.000000	62.847542 
2722.000000	62.840771 
2721.000000	62.828636 
2720.000000	62.811446 
2719.000000	62.790250 
2718.000000	62.766766 
2717.000000	62.743115 
2716.000000	62.721562 
2715.000000	62.704133 
2714.000000	62.692332 
2713.000000	62.687134 
2712.000000	62.688779 
2711.000000	62.696957 
2710.000000	62.710690 
2709.000000	62.728643 
2708.000000	62.749218 
2707.000000	62.770676 
2706.000000	62.791299 
2705.000000	62.809443 
2704.000000	62.823748 
2703.000000	62.833333 
2702.000000	62.837910 
2701.000000	62.837743 
2700.000000	62.833762 
2699.000000	62.827157 
2698.000000	62.819409 
2697.000000	62.811899 
2696.000000	62.805747 
2695.000000	62.801527 
2694.000000	62.799596 
2693.000000	62.799811 
2692.000000	62.801885 
2691.000000	62.805414 
2690.000000	62.810134 
2689.000000	62.815880 
2688.000000	62.822341 
2687.000000	62.829256 
2686.000000	62.836194 
2685.000000	62.842202 
2684.000000	62.846040 
2683.000000	62.846517 
2682.000000	62.842583 
2681.000000	62.833905 
2680.000000	62.821006 
2679.000000	62.805223 
2678.000000	62.788653 
2677.000000	62.773609 
2676.000000	62.762117 
2675.000000	62.755298 
2674.000000	62.753343 
2673.000000	62.755393 
2672.000000	62.759995 
2671.000000	62.765288 
2670.000000	62.769627 
2669.000000	62.771892 
2668.000000	62.771606 
2667.000000	62.768864 
2666.000000	62.764358 
2665.000000	62.758851 
2664.000000	62.753248 
2663.000000	62.748217 
2662.000000	62.744355 
2661.000000	62.742018 
2660.000000	62.741541 
2659.000000	62.743258 
2658.000000	62.747263 
2657.000000	62.753319 
2656.000000	62.760734 
2655.000000	62.768673 
2654.000000	62.775778 
2653.000000	62.780833 
2652.000000	62.782907 
2651.000000	62.781500 
2650.000000	62.776780 
2649.000000	62.769579 
2648.000000	62.761235 
2647.000000	62.753295 
2646.000000	62.747168 
2645.000000	62.743854 
2644.000000	62.743687 
2643.000000	62.746214 
2642.000000	62.750172 
2641.000000	62.753915 
2640.000000	62.755703 
2639.000000	62.754249 
2638.000000	62.749218 
2637.000000	62.741255 
2636.000000	62.731933 
2635.000000	62.723827 
2634.000000	62.719559 
2633.000000	62.721633 
2632.000000	62.731671 
2631.000000	62.750029 
2630.000000	62.775731 
2629.000000	62.806630 
2628.000000	62.839651 
2627.000000	62.871336 
2626.000000	62.898445 
2625.000000	62.918376 
2624.000000	62.929582 
2623.000000	62.931513 
2622.000000	62.924885 
2621.000000	62.911272 
2620.000000	62.892818 
2619.000000	62.872290 
2618.000000	62.852120 
2617.000000	62.834715 
2616.000000	62.821578 
2615.000000	62.813448 
2614.000000	62.810063 
2613.000000	62.810444 
2612.000000	62.812995 
2611.000000	62.815952 
2610.000000	62.817645 
2609.000000	62.817001 
2608.000000	62.813544 
2607.000000	62.807488 
2606.000000	62.799715 
2605.000000	62.791395 
2604.000000	62.783861 
2603.000000	62.778282 
2602.000000	62.775588 
2601.000000	62.776160 
2600.000000	62.780094 
2599.000000	62.787079 
2598.000000	62.796282 
2597.000000	62.806606 
2596.000000	62.816667 
2595.000000	62.825083 
2594.000000	62.830257 
2593.000000	62.830972 
2592.000000	62.826728 
2591.000000	62.817978 
2590.000000	62.806129 
2589.000000	62.793254 
2588.000000	62.781929 
2587.000000	62.774538 
2586.000000	62.772917 
2585.000000	62.777948 
2584.000000	62.789392 
2583.000000	62.805891 
2582.000000	62.825369 
2581.000000	62.845396 
2580.000000	62.863659 
2579.000000	62.878346 
2578.000000	62.888455 
2577.000000	62.893867 
2576.000000	62.895202 
2575.000000	62.893652 
2574.000000	62.890577 
2573.000000	62.887239 
2572.000000	62.884378 
2571.000000	62.882399 
2570.000000	62.881040 
2569.000000	62.879753 
2568.000000	62.877607 
2567.000000	62.873816 
2566.000000	62.867903 
2565.000000	62.859749 
2564.000000	62.849640 
2563.000000	62.838435 
2562.000000	62.826991 
2561.000000	62.816047 
2560.000000	62.806010 
2559.000000	62.796854 
2558.000000	62.788295 
2557.000000	62.779712 
2556.000000	62.770509 
2555.000000	62.760448 
2554.000000	62.749814 
2553.000000	62.739396 
2552.000000	62.730383 
2551.000000	62.724113 
2550.000000	62.721586 
2549.000000	62.723445 
2548.000000	62.729525 
2547.000000	62.738966 
2546.000000	62.750506 
2545.000000	62.762832 
2544.000000	62.774705 
2543.000000	62.785506 
2542.000000	62.795066 
2541.000000	62.803912 
2540.000000	62.812829 
2539.000000	62.822794 
2538.000000	62.834501 
2537.000000	62.848258 
2536.000000	62.864089 
2535.000000	62.881565 
2534.000000	62.900090 
2533.000000	62.918710 
2532.000000	62.936806 
2531.000000	62.953686 
2530.000000	62.968897 
2529.000000	62.982058 
2528.000000	62.992906 
2527.000000	63.001394 
2526.000000	63.007450 
2525.000000	63.011217 
2524.000000	63.013029 
2523.000000	63.013410 
2522.000000	63.012862 
2521.000000	63.011884 
2520.000000	63.010764 
2519.000000	63.009476 
2518.000000	63.007640 
2517.000000	63.004851 
2516.000000	63.000559 
2515.000000	62.994527 
2514.000000	62.987184 
2513.000000	62.979292 
2512.000000	62.972354 
2511.000000	62.967991 
2510.000000	62.967753 
2509.000000	62.972688 
2508.000000	62.982916 
2507.000000	62.997627 
2506.000000	63.015055 
2505.000000	63.032889 
2504.000000	63.048624 
2503.000000	63.060307 
2502.000000	63.066625 
2501.000000	63.067221 
2500.000000	63.062667 
2499.000000	63.054203 
2498.000000	63.043451 
2497.000000	63.031816 
2496.000000	63.020491 
2495.000000	63.010025 
2494.000000	63.000655 
2493.000000	62.992191 
2492.000000	62.984490 
2491.000000	62.977433 
2490.000000	62.971115 
2489.000000	62.965869 
2488.000000	62.962055 
2487.000000	62.960267 
2486.000000	62.960767 
2485.000000	62.963986 
2484.000000	62.969923 
2483.000000	62.978649 
2482.000000	62.989854 
2481.000000	63.002920 
2480.000000	63.016867 
2479.000000	63.030457 
2478.000000	63.042163 
2477.000000	63.050556 
2476.000000	63.054418 
2475.000000	63.053250 
2474.000000	63.047289 
2473.000000	63.037800 
2472.000000	63.026666 
2471.000000	63.016104 
2470.000000	63.008213 
2469.000000	63.004446 
2468.000000	63.005352 
2467.000000	63.010430 
2466.000000	63.018417 
2465.000000	63.027691 
2464.000000	63.036513 
2463.000000	63.043737 
2462.000000	63.048672 
2461.000000	63.051056 
2460.000000	63.050913 
2459.000000	63.048291 
2458.000000	63.043212 
2457.000000	63.035893 
2456.000000	63.026571 
2455.000000	63.015913 
2454.000000	63.005042 
2453.000000	62.995481 
2452.000000	62.988877 
2451.000000	62.986612 
2450.000000	62.989306 
2449.000000	62.996697 
2448.000000	63.007521 
2447.000000	63.019585 
2446.000000	63.030409 
2445.000000	63.037800 
2444.000000	63.040137 
2443.000000	63.037014 
2442.000000	63.028955 
2441.000000	63.017272 
2440.000000	63.003683 
2439.000000	62.989974 
2438.000000	62.977719 
2437.000000	62.968277 
2436.000000	62.962460 
2435.000000	62.960696 
2434.000000	62.963080 
2433.000000	62.968921 
2432.000000	62.977385 
2431.000000	62.987112 
2430.000000	62.996292 
2429.000000	63.003182 
2428.000000	63.006234 
2427.000000	63.004446 
2426.000000	62.997651 
2425.000000	62.986540 
2424.000000	62.972521 
2423.000000	62.957787 
2422.000000	62.944412 
2421.000000	62.934327 
2420.000000	62.928771 
2419.000000	62.928342 
2418.000000	62.932825 
2417.000000	62.941408 
2416.000000	62.952685 
2415.000000	62.965130 
2414.000000	62.977051 
2413.000000	62.986683 
2412.000000	62.992548 
2411.000000	62.993788 
2410.000000	62.990307 
2409.000000	62.982797 
2408.000000	62.972950 
2407.000000	62.963151 
2406.000000	62.955975 
2405.000000	62.953972 
2404.000000	62.958669 
2403.000000	62.970423 
2402.000000	62.987947 
2401.000000	63.008785 
2400.000000	63.029551 
2399.000000	63.046765 
2398.000000	63.057804 
2397.000000	63.061189 
2396.000000	63.056993 
2395.000000	63.046741 
2394.000000	63.032841 
2393.000000	63.018155 
2392.000000	63.005042 
2391.000000	62.994956 
2390.000000	62.988376 
2389.000000	62.984657 
2388.000000	62.982487 
2387.000000	62.980175 
2386.000000	62.976050 
2385.000000	62.968993 
2384.000000	62.958526 
2383.000000	62.945199 
2382.000000	62.929916 
2381.000000	62.914323 
2380.000000	62.900257 
2379.000000	62.889623 
2378.000000	62.884116 
2377.000000	62.884831 
2376.000000	62.892055 
2375.000000	62.905311 
2374.000000	62.923264 
2373.000000	62.943816 
2372.000000	62.964296 
2371.000000	62.982106 
2370.000000	62.994956 
2369.000000	63.001680 
2368.000000	63.002061 
2367.000000	62.997174 
2366.000000	62.988972 
2365.000000	62.979817 
2364.000000	62.971735 
2363.000000	62.965965 
2362.000000	62.962698 
2361.000000	62.960886 
2360.000000	62.958621 
2359.000000	62.953805 
2358.000000	62.944841 
2357.000000	62.930846 
2356.000000	62.912511 
2355.000000	62.891435 
2354.000000	62.870240 
2353.000000	62.851476 
2352.000000	62.837481 
2351.000000	62.829399 
2350.000000	62.827634 
2349.000000	62.831497 
2348.000000	62.839913 
2347.000000	62.851643 
2346.000000	62.865900 
2345.000000	62.882089 
2344.000000	62.900257 
2343.000000	62.920308 
2342.000000	62.942171 
2341.000000	62.965321 
2340.000000	62.988734 
2339.000000	63.011026 
2338.000000	63.030576 
2337.000000	63.046002 
2336.000000	63.056397 
2335.000000	63.061571 
2334.000000	63.061857 
2333.000000	63.058280 
2332.000000	63.052058 
2331.000000	63.044476 
2330.000000	63.036870 
2329.000000	63.030123 
2328.000000	63.024973 
2327.000000	63.021612 
2326.000000	63.019967 
2325.000000	63.019800 
2324.000000	63.020586 
2323.000000	63.021993 
2322.000000	63.023972 
2321.000000	63.026642 
2320.000000	63.030648 
2319.000000	63.036656 
2318.000000	63.045215 
2317.000000	63.056492 
2316.000000	63.070034 
2315.000000	63.084864 
2314.000000	63.099598 
2313.000000	63.112664 
2312.000000	63.122558 
2311.000000	63.128304 
2310.000000	63.129615 
2309.000000	63.126897 
2308.000000	63.120985 
2307.000000	63.112974 
2306.000000	63.103723 
2305.000000	63.093686 
2304.000000	63.082957 
2303.000000	63.071322 
2302.000000	63.058519 
2301.000000	63.044643 
2300.000000	63.030242 
2299.000000	63.016247 
2298.000000	63.003945 
2297.000000	62.994575 
2296.000000	62.989330 
2295.000000	62.988781 
2294.000000	62.992835 
2293.000000	63.000774 
2292.000000	63.011288 
2291.000000	63.022828 
2290.000000	63.033747 
2289.000000	63.042449 
2288.000000	63.048076 
2287.000000	63.050293 
2286.000000	63.049435 
2285.000000	63.046431 
2284.000000	63.042640 
2283.000000	63.039636 
2282.000000	63.038754 
2281.000000	63.040995 
2280.000000	63.046765 
2279.000000	63.055825 
2278.000000	63.067364 
2277.000000	63.080215 
2276.000000	63.093161 
2275.000000	63.105106 
2274.000000	63.115525 
2273.000000	63.124132 
2272.000000	63.131046 
2271.000000	63.136410 
2270.000000	63.140344 
2269.000000	63.142728 
2268.000000	63.143229 
2267.000000	63.141369 
2266.000000	63.137006 
2265.000000	63.130259 
2264.000000	63.121557 
2263.000000	63.111710 
2262.000000	63.101863 
2261.000000	63.093280 
2260.000000	63.086867 
2259.000000	63.083100 
2258.000000	63.082098 
2257.000000	63.083457 
2256.000000	63.086462 
2255.000000	63.090276 
2254.000000	63.094043 
2253.000000	63.097119 
2252.000000	63.099074 
2251.000000	63.099622 
2250.000000	63.098645 
2249.000000	63.096070 
2248.000000	63.091754 
2247.000000	63.085603 
2246.000000	63.077521 
2245.000000	63.067674 
2244.000000	63.056659 
2243.000000	63.045215 
2242.000000	63.034605 
2241.000000	63.026118 
2240.000000	63.021278 
2239.000000	63.021111 
2238.000000	63.026380 
2237.000000	63.037109 
2236.000000	63.052964 
2235.000000	63.072824 
2234.000000	63.095259 
2233.000000	63.118648 
2232.000000	63.141345 
2231.000000	63.161873 
2230.000000	63.179063 
2229.000000	63.191914 
2228.000000	63.199973 
2227.000000	63.203120 
2226.000000	63.201570 
2225.000000	63.195705 
2224.000000	63.186192 
2223.000000	63.173770 
2222.000000	63.159251 
2221.000000	63.143157 
2220.000000	63.126158 
2219.000000	63.108658 
2218.000000	63.091278 
2217.000000	63.074493 
2216.000000	63.059020 
2215.000000	63.045310 
2214.000000	63.033747 
2213.000000	63.024473 
2212.000000	63.017082 
2211.000000	63.010931 
2210.000000	63.005185 
2209.000000	62.999129 
2208.000000	62.992143 
2207.000000	62.984323 
2206.000000	62.976288 
2205.000000	62.969207 
2204.000000	62.964415 
2203.000000	62.963128 
2202.000000	62.966251 
2201.000000	62.973976 
2200.000000	62.985730 
2199.000000	63.000345 
2198.000000	63.016319 
2197.000000	63.032150 
2196.000000	63.046407 
2195.000000	63.057804 
2194.000000	63.065600 
2193.000000	63.069272 
2192.000000	63.068699 
2191.000000	63.064146 
2190.000000	63.056111 
2189.000000	63.045644 
2188.000000	63.033843 
2187.000000	63.021993 
2186.000000	63.011121 
2185.000000	63.002228 
2184.000000	62.995696 
2183.000000	62.991476 
2182.000000	62.989091 
2181.000000	62.987732 
2180.000000	62.986755 
2179.000000	62.985682 
2178.000000	62.984466 
2177.000000	62.983393 
2176.000000	62.983083 
2175.000000	62.984371 
2174.000000	62.987947 
2173.000000	62.994122 
2172.000000	63.002991 
2171.000000	63.014221 
2170.000000	63.027286 
2169.000000	63.041424 
2168.000000	63.055801 
2167.000000	63.069653 
2166.000000	63.082122 
2165.000000	63.092541 
2164.000000	63.100266 
2163.000000	63.105177 
2162.000000	63.107347 
2161.000000	63.107132 
2160.000000	63.105344 
2159.000000	63.102698 
2158.000000	63.100194 
2157.000000	63.098263 
2156.000000	63.096952 
2155.000000	63.095664 
2154.000000	63.093566 
2153.000000	63.089561 
2152.000000	63.082909 
2151.000000	63.073348 
2150.000000	63.061308 
2149.000000	63.047838 
2148.000000	63.034343 
2147.000000	63.022279 
2146.000000	63.012814 
2145.000000	63.006496 
2144.000000	63.003349 
2143.000000	63.002943 
2142.000000	63.004517 
2141.000000	63.007497 
2140.000000	63.011360 
2139.000000	63.015913 
2138.000000	63.021278 
2137.000000	63.027763 
2136.000000	63.035631 
2135.000000	63.044857 
2134.000000	63.055181 
2133.000000	63.066148 
2132.000000	63.076853 
2131.000000	63.086414 
2130.000000	63.093662 
2129.000000	63.097572 
2128.000000	63.097238 
2127.000000	63.092112 
2126.000000	63.082003 
2125.000000	63.067436 
2124.000000	63.049626 
2123.000000	63.030433 
2122.000000	63.012218 
2121.000000	62.997603 
2120.000000	62.988972 
2119.000000	62.988066 
2118.000000	62.995839 
2117.000000	63.012123 
2116.000000	63.035798 
2115.000000	63.064885 
2114.000000	63.096737 
2113.000000	63.128638 
2112.000000	63.158035 
2111.000000	63.182854 
2110.000000	63.201689 
2109.000000	63.213777 
2108.000000	63.219094 
2107.000000	63.217830 
2106.000000	63.210821 
2105.000000	63.198828 
2104.000000	63.182926 
2103.000000	63.164138 
2102.000000	63.143730 
2101.000000	63.122773 
2100.000000	63.102602 
2099.000000	63.084244 
2098.000000	63.068723 
2097.000000	63.056635 
2096.000000	63.048243 
2095.000000	63.043308 
2094.000000	63.041257 
2093.000000	63.041257 
2092.000000	63.042449 
2091.000000	63.044166 
2090.000000	63.046050 
2089.000000	63.048195 
2088.000000	63.051056 
2087.000000	63.055253 
2086.000000	63.061237 
2085.000000	63.069295 
2084.000000	63.079047 
2083.000000	63.089823 
2082.000000	63.100433 
2081.000000	63.109636 
2080.000000	63.116025 
2079.000000	63.118767 
2078.000000	63.117575 
2077.000000	63.112664 
2076.000000	63.105010 
2075.000000	63.095903 
2074.000000	63.086843 
2073.000000	63.079237 
2072.000000	63.074088 
2071.000000	63.071727 
2070.000000	63.071966 
2069.000000	63.074088 
2068.000000	63.077092 
2067.000000	63.079953 
2066.000000	63.081860 
2065.000000	63.082551 
2064.000000	63.082265 
2063.000000	63.081765 
2062.000000	63.082075 
2061.000000	63.084197 
2060.000000	63.088893 
2059.000000	63.096523 
2058.000000	63.106751 
2057.000000	63.118696 
2056.000000	63.131403 
2055.000000	63.143730 
2054.000000	63.154768 
2053.000000	63.163995 
2052.000000	63.171172 
2051.000000	63.176441 
2050.000000	63.180088 
2049.000000	63.182497 
2048.000000	63.183975 
2047.000000	63.184857 
2046.000000	63.185358 
2045.000000	63.185572 
2044.000000	63.185691 
2043.000000	63.185715 
2042.000000	63.185763 
2041.000000	63.185834 
2040.000000	63.185954 
2039.000000	63.186049 
2038.000000	63.186120 
2037.000000	63.186097 
2036.000000	63.186097 
2035.000000	63.186240 
2034.000000	63.186502 
2033.000000	63.186812 
2032.000000	63.187003 
2031.000000	63.186597 
2030.000000	63.185071 
2029.000000	63.182067 
2028.000000	63.177633 
2027.000000	63.172125 
2026.000000	63.166451 
2025.000000	63.161730 
2024.000000	63.159179 
2023.000000	63.159680 
2022.000000	63.163566 
2021.000000	63.170504 
2020.000000	63.179397 
2019.000000	63.188672 
2018.000000	63.196587 
2017.000000	63.201689 
2016.000000	63.202977 
2015.000000	63.200187 
2014.000000	63.193774 
2013.000000	63.184833 
2012.000000	63.174724 
2011.000000	63.164758 
2010.000000	63.155770 
2009.000000	63.148164 
2008.000000	63.141679 
2007.000000	63.135504 
2006.000000	63.128566 
2005.000000	63.119721 
2004.000000	63.108038 
2003.000000	63.093233 
2002.000000	63.075661 
2001.000000	63.056421 
2000.000000	63.037180 
1999.000000	63.019990 
1998.000000	63.006687 
1997.000000	62.998938 
1996.000000	62.997508 
1995.000000	63.002490 
1994.000000	63.013005 
1993.000000	63.027453 
1992.000000	63.043832 
1991.000000	63.059926 
1990.000000	63.073801 
1989.000000	63.084316 
1988.000000	63.090968 
1987.000000	63.094377 
1986.000000	63.095855 
1985.000000	63.097238 
1984.000000	63.100337 
1983.000000	63.106513 
1982.000000	63.116168 
1981.000000	63.128733 
1980.000000	63.142776 
1979.000000	63.156342 
1978.000000	63.167428 
1977.000000	63.174605 
1976.000000	63.177561 
1975.000000	63.176822 
1974.000000	63.173985 
1973.000000	63.171148 
1972.000000	63.170242 
1971.000000	63.172554 
1970.000000	63.178277 
1969.000000	63.186597 
1968.000000	63.195753 
1967.000000	63.203740 
1966.000000	63.208770 
1965.000000	63.209748 
1964.000000	63.206601 
1963.000000	63.200211 
1962.000000	63.192176 
1961.000000	63.184094 
1960.000000	63.177442 
1959.000000	63.173055 
1958.000000	63.170909 
1957.000000	63.170266 
1956.000000	63.169884 
1955.000000	63.168525 
1954.000000	63.165163 
1953.000000	63.159418 
1952.000000	63.151502 
1951.000000	63.142323 
1950.000000	63.133096 
1949.000000	63.125014 
1948.000000	63.119196 
1947.000000	63.116264 
1946.000000	63.116145 
1945.000000	63.118171 
1944.000000	63.121223 
1943.000000	63.123989 
1942.000000	63.125085 
1941.000000	63.123536 
1940.000000	63.118886 
1939.000000	63.111257 
1938.000000	63.101387 
1937.000000	63.090395 
1936.000000	63.079667 
1935.000000	63.070487 
1934.000000	63.063859 
1933.000000	63.060379 
1932.000000	63.060140 
1931.000000	63.062906 
1930.000000	63.068199 
1929.000000	63.075423 
1928.000000	63.084197 
1927.000000	63.094329 
1926.000000	63.105511 
1925.000000	63.117623 
1924.000000	63.130187 
1923.000000	63.142585 
1922.000000	63.153839 
1921.000000	63.162708 
1920.000000	63.167953 
1919.000000	63.168692 
1918.000000	63.164424 
1917.000000	63.155388 
1916.000000	63.142371 
1915.000000	63.126611 
1914.000000	63.109803 
1913.000000	63.093519 
1912.000000	63.079237 
1911.000000	63.068008 
1910.000000	63.060665 
1909.000000	63.057637 
1908.000000	63.059115 
1907.000000	63.065028 
1906.000000	63.074994 
1905.000000	63.088107 
1904.000000	63.103032 
1903.000000	63.118195 
1902.000000	63.131856 
1901.000000	63.142323 
1900.000000	63.148474 
1899.000000	63.150095 
1898.000000	63.148045 
1897.000000	63.144040 
1896.000000	63.140296 
1895.000000	63.139224 
1894.000000	63.142609 
1893.000000	63.151264 
1892.000000	63.164854 
1891.000000	63.181686 
1890.000000	63.199591 
1889.000000	63.216042 
1888.000000	63.228893 
1887.000000	63.236403 
1886.000000	63.237881 
1885.000000	63.233232 
1884.000000	63.223099 
1883.000000	63.208580 
1882.000000	63.190984 
1881.000000	63.171911 
1880.000000	63.153052 
1879.000000	63.136124 
1878.000000	63.122677 
1877.000000	63.113832 
1876.000000	63.110184 
1875.000000	63.111495 
1874.000000	63.117027 
1873.000000	63.125061 
1872.000000	63.133764 
1871.000000	63.141393 
1870.000000	63.146972 
1869.000000	63.150095 
1868.000000	63.151288 
1867.000000	63.151693 
1866.000000	63.152790 
1865.000000	63.155746 
1864.000000	63.161063 
1863.000000	63.168454 
1862.000000	63.176989 
1861.000000	63.185358 
1860.000000	63.192224 
1859.000000	63.196730 
1858.000000	63.198733 
1857.000000	63.198804 
1856.000000	63.198113 
1855.000000	63.197994 
1854.000000	63.199567 
1853.000000	63.203334 
1852.000000	63.209104 
1851.000000	63.215851 
1850.000000	63.222265 
1849.000000	63.226890 
1848.000000	63.228511 
1847.000000	63.226246 
1846.000000	63.219904 
1845.000000	63.209843 
1844.000000	63.196802 
1843.000000	63.181781 
1842.000000	63.165760 
1841.000000	63.149762 
1840.000000	63.134717 
1839.000000	63.121318 
1838.000000	63.110208 
1837.000000	63.101840 
1836.000000	63.096475 
1835.000000	63.094234 
1834.000000	63.094878 
1833.000000	63.097953 
1832.000000	63.102650 
1831.000000	63.108110 
1830.000000	63.113403 
1829.000000	63.117957 
1828.000000	63.121700 
1827.000000	63.125085 
1826.000000	63.128876 
1825.000000	63.134098 
1824.000000	63.141727 
1823.000000	63.152265 
1822.000000	63.165569 
1821.000000	63.180875 
1820.000000	63.196682 
1819.000000	63.211250 
1818.000000	63.222837 
1817.000000	63.230180 
1816.000000	63.232612 
1815.000000	63.230371 
1814.000000	63.224411 
1813.000000	63.216233 
1812.000000	63.207650 
1811.000000	63.200449 
1810.000000	63.195919 
1809.000000	63.194942 
1808.000000	63.197469 
1807.000000	63.203167 
1806.000000	63.210821 
1805.000000	63.218879 
1804.000000	63.225579 
1803.000000	63.229227 
1802.000000	63.228583 
1801.000000	63.222932 
1800.000000	63.212442 
1799.000000	63.197994 
1798.000000	63.181114 
1797.000000	63.163709 
1796.000000	63.147783 
1795.000000	63.134932 
1794.000000	63.126277 
1793.000000	63.122272 
1792.000000	63.122797 
1791.000000	63.127088 
1790.000000	63.134074 
1789.000000	63.142442 
1788.000000	63.150811 
1787.000000	63.157963 
1786.000000	63.163089 
1785.000000	63.165903 
1784.000000	63.166236 
1783.000000	63.164258 
1782.000000	63.160634 
1781.000000	63.156270 
1780.000000	63.152170 
1779.000000	63.149237 
1778.000000	63.148498 
1777.000000	63.150501 
1776.000000	63.155484 
1775.000000	63.163018 
1774.000000	63.172149 
1773.000000	63.181543 
1772.000000	63.189458 
1771.000000	63.194394 
1770.000000	63.195252 
1769.000000	63.191890 
1768.000000	63.185000 
1767.000000	63.176178 
1766.000000	63.167738 
1765.000000	63.162040 
1764.000000	63.160777 
1763.000000	63.164377 
1762.000000	63.171577 
1761.000000	63.179826 
1760.000000	63.185501 
1759.000000	63.184833 
1758.000000	63.174557 
1757.000000	63.153004 
1756.000000	63.120675 
1755.000000	63.079690 
1754.000000	63.033699 
1753.000000	62.987017 
1752.000000	62.943720 
1751.000000	62.906980 
1750.000000	62.878489 
1749.000000	62.858414 
1748.000000	62.845730 
1747.000000	62.838649 
1746.000000	62.835216 
1745.000000	62.833666 
1744.000000	62.832784 
1743.000000	62.831807 
1742.000000	62.830281 
1741.000000	62.828063 
1740.000000	62.825226 
1739.000000	62.822127 
1738.000000	62.819385 
1737.000000	62.818145 
1736.000000	62.819457 
1735.000000	62.824654 
1734.000000	62.834763 
1733.000000	62.850284 
1732.000000	62.870836 
1731.000000	62.895011 
1730.000000	62.920880 
1729.000000	62.945795 
1728.000000	62.967061 
1727.000000	62.982559 
1726.000000	62.990951 
1725.000000	62.992262 
1724.000000	62.987732 
1723.000000	62.979578 
1722.000000	62.970852 
1721.000000	62.964510 
1720.000000	62.962937 
1719.000000	62.967395 
1718.000000	62.978196 
1717.000000	62.994432 
1716.000000	63.014221 
1715.000000	63.035130 
1714.000000	63.054823 
1713.000000	63.071584 
1712.000000	63.084506 
1711.000000	63.093662 
1710.000000	63.099837 
1709.000000	63.104462 
1708.000000	63.109278 
1707.000000	63.115763 
1706.000000	63.124918 
1705.000000	63.137197 
1704.000000	63.152337 
1703.000000	63.169693 
1702.000000	63.188099 
1701.000000	63.206243 
1700.000000	63.222837 
1699.000000	63.236713 
1698.000000	63.247036 
1697.000000	63.253498 
1696.000000	63.256239 
1695.000000	63.255929 
1694.000000	63.253569 
1693.000000	63.250350 
1692.000000	63.247466 
1691.000000	63.245940 
1690.000000	63.246250 
1689.000000	63.248252 
1688.000000	63.251280 
1687.000000	63.254117 
1686.000000	63.255238 
1685.000000	63.253092 
1684.000000	63.246273 
1683.000000	63.233828 
1682.000000	63.215589 
1681.000000	63.192272 
1680.000000	63.165163 
1679.000000	63.136315 
1678.000000	63.108229 
1677.000000	63.083672 
1676.000000	63.065099 
1675.000000	63.054227 
1674.000000	63.051891 
1673.000000	63.058161 
1672.000000	63.071560 
1671.000000	63.090085 
1670.000000	63.111209 
1669.000000	63.132572 
1668.000000	63.151979 
1667.000000	63.168191 
1666.000000	63.180804 
1665.000000	63.190340 
1664.000000	63.197660 
1663.000000	63.203549 
1662.000000	63.208484 
1661.000000	63.212347 
1660.000000	63.214468 
1659.000000	63.213658 
1658.000000	63.208484 
1657.000000	63.198041 
1656.000000	63.182020 
1655.000000	63.160920 
1654.000000	63.135790 
1653.000000	63.108372 
1652.000000	63.080668 
1651.000000	63.054394 
1650.000000	63.031053 
1649.000000	63.011622 
1648.000000	62.996554 
1647.000000	62.985777 
1646.000000	62.978696 
1645.000000	62.974548 
1644.000000	62.972259 
1643.000000	62.970495 
1642.000000	62.967991 
1641.000000	62.963390 
1640.000000	62.955951 
1639.000000	62.945604 
1638.000000	62.933254 
1637.000000	62.920498 
1636.000000	62.909746 
1635.000000	62.903618 
1634.000000	62.904548 
1633.000000	62.914228 
1632.000000	62.933111 
1631.000000	62.960314 
1630.000000	62.993741 
1629.000000	63.030433 
1628.000000	63.067030 
1627.000000	63.100433 
1626.000000	63.128232 
1625.000000	63.149094 
1624.000000	63.163042 
1623.000000	63.171005 
1622.000000	63.174772 
1621.000000	63.176274 
1620.000000	63.177227 
1619.000000	63.178467 
1618.000000	63.180494 
1617.000000	63.182687 
1616.000000	63.184046 
1615.000000	63.183259 
1614.000000	63.179278 
1613.000000	63.171839 
1612.000000	63.161182 
1611.000000	63.148665 
1610.000000	63.136172 
1609.000000	63.126039 
1608.000000	63.120412 
1607.000000	63.121104 
1606.000000	63.129019 
1605.000000	63.144087 
1604.000000	63.165116 
1603.000000	63.189911 
1602.000000	63.215446 
1601.000000	63.238477 
1600.000000	63.255715 
1599.000000	63.264322 
1598.000000	63.262510 
1597.000000	63.250136 
1596.000000	63.228702 
1595.000000	63.200974 
1594.000000	63.170933 
1593.000000	63.142919 
1592.000000	63.120985 
1591.000000	63.108205 
1590.000000	63.106012 
1589.000000	63.113856 
1588.000000	63.129782 
1587.000000	63.150596 
1586.000000	63.172984 
1585.000000	63.194274 
1584.000000	63.212966 
1583.000000	63.228774 
1582.000000	63.242483 
1581.000000	63.255167 
1580.000000	63.267850 
1579.000000	63.280582 
1578.000000	63.292527 
1577.000000	63.301920 
1576.000000	63.306736 
1575.000000	63.304996 
1574.000000	63.295292 
1573.000000	63.277125 
1572.000000	63.251066 
1571.000000	63.218951 
1570.000000	63.183593 
1569.000000	63.148355 
1568.000000	63.116860 
1567.000000	63.092470 
1566.000000	63.077712 
1565.000000	63.073897 
1564.000000	63.081026 
1563.000000	63.097429 
1562.000000	63.120055 
1561.000000	63.144874 
1560.000000	63.167595 
1559.000000	63.184452 
1558.000000	63.192725 
1557.000000	63.191390 
1556.000000	63.181042 
1555.000000	63.163971 
1554.000000	63.143372 
1553.000000	63.122773 
1552.000000	63.105225 
1551.000000	63.093233 
1550.000000	63.088226 
1549.000000	63.090729 
1548.000000	63.100481 
1547.000000	63.116478 
1546.000000	63.137388 
1545.000000	63.161635 
1544.000000	63.187456 
1543.000000	63.212943 
1542.000000	63.236165 
1541.000000	63.255262 
1540.000000	63.268899 
1539.000000	63.276076 
1538.000000	63.276576 
1537.000000	63.271236 
1536.000000	63.261604 
1535.000000	63.249778 
1534.000000	63.237833 
1533.000000	63.227844 
1532.000000	63.221287 
1531.000000	63.219141 
1530.000000	63.221454 
1529.000000	63.227486 
1528.000000	63.235616 
1527.000000	63.243842 
1526.000000	63.249754 
1525.000000	63.251256 
1524.000000	63.247060 
1523.000000	63.237142 
1522.000000	63.222908 
1521.000000	63.206958 
1520.000000	63.192534 
1519.000000	63.182997 
1518.000000	63.180851 
1517.000000	63.187503 
1516.000000	63.203048 
1515.000000	63.226151 
1514.000000	63.254618 
1513.000000	63.285803 
1512.000000	63.317155 
1511.000000	63.346362 
1510.000000	63.371586 
1509.000000	63.391256 
1508.000000	63.404273 
1507.000000	63.409733 
1506.000000	63.406848 
1505.000000	63.395237 
1504.000000	63.375139 
1503.000000	63.347578 
1502.000000	63.314533 
1501.000000	63.278818 
1500.000000	63.243937 
1499.000000	63.213253 
1498.000000	63.189673 
1497.000000	63.174891 
1496.000000	63.169360 
1495.000000	63.171911 
1494.000000	63.180446 
1493.000000	63.192462 
1492.000000	63.205766 
1491.000000	63.218951 
1490.000000	63.231301 
1489.000000	63.242721 
1488.000000	63.253426 
1487.000000	63.263344 
1486.000000	63.271975 
1485.000000	63.278675 
1484.000000	63.282322 
1483.000000	63.282203 
1482.000000	63.277745 
1481.000000	63.268947 
1480.000000	63.256168 
1479.000000	63.240289 
1478.000000	63.222432 
1477.000000	63.203859 
1476.000000	63.185763 
1475.000000	63.169264 
1474.000000	63.154864 
1473.000000	63.142442 
1472.000000	63.131356 
1471.000000	63.120579 
1470.000000	63.108873 
1469.000000	63.095116 
1468.000000	63.078856 
1467.000000	63.060259 
1466.000000	63.040232 
1465.000000	63.020277 
1464.000000	63.002157 
1463.000000	62.987661 
1462.000000	62.978005 
1461.000000	62.973737 
1460.000000	62.974619 
1459.000000	62.979888 
1458.000000	62.988471 
1457.000000	62.999343 
1456.000000	63.011813 
1455.000000	63.025450 
1454.000000	63.039851 
1453.000000	63.054656 
1452.000000	63.069152 
1451.000000	63.082313 
1450.000000	63.092947 
1449.000000	63.099765 
1448.000000	63.101840 
1447.000000	63.098597 
1446.000000	63.090085 
1445.000000	63.077020 
1444.000000	63.060808 
1443.000000	63.043427 
1442.000000	63.027238 
1441.000000	63.014578 
1440.000000	63.007640 
1439.000000	63.007831 
1438.000000	63.015818 
1437.000000	63.031101 
1436.000000	63.052558 
1435.000000	63.078069 
1434.000000	63.105487 
1433.000000	63.132619 
1432.000000	63.157868 
1431.000000	63.180255 
1430.000000	63.199448 
1429.000000	63.215494 
1428.000000	63.228416 
1427.000000	63.237977 
1426.000000	63.243365 
1425.000000	63.243484 
1424.000000	63.237357 
1423.000000	63.224720 
1422.000000	63.206338 
1421.000000	63.184261 
1420.000000	63.161373 
1419.000000	63.140869 
1418.000000	63.125300 
1417.000000	63.116025 
1416.000000	63.112902 
1415.000000	63.114356 
1414.000000	63.117837 
1413.000000	63.120627 
1412.000000	63.120651 
1411.000000	63.117027 
1410.000000	63.110303 
1409.000000	63.102030 
1408.000000	63.094329 
1407.000000	63.089084 
1406.000000	63.087129 
1405.000000	63.088226 
1404.000000	63.091111 
1403.000000	63.093996 
1402.000000	63.095021 
1401.000000	63.093113 
1400.000000	63.088345 
1399.000000	63.081955 
1398.000000	63.075828 
1397.000000	63.072133 
1396.000000	63.072562 
1395.000000	63.077855 
1394.000000	63.087534 
1393.000000	63.099813 
1392.000000	63.112020 
1391.000000	63.121342 
1390.000000	63.125443 
1389.000000	63.122987 
1388.000000	63.113999 
1387.000000	63.099789 
1386.000000	63.082695 
1385.000000	63.065314 
1384.000000	63.050079 
1383.000000	63.038825 
1382.000000	63.032341 
1381.000000	63.030910 
1380.000000	63.033890 
1379.000000	63.040304 
1378.000000	63.048934 
1377.000000	63.058543 
1376.000000	63.067865 
1375.000000	63.075518 
1374.000000	63.080430 
1373.000000	63.081550 
1372.000000	63.078474 
1371.000000	63.071370 
1370.000000	63.061237 
1369.000000	63.049745 
1368.000000	63.039112 
1367.000000	63.031649 
1366.000000	63.029098 
1365.000000	63.032317 
1364.000000	63.040852 
1363.000000	63.053083 
1362.000000	63.066506 
1361.000000	63.078331 
1360.000000	63.086175 
1359.000000	63.088607 
1358.000000	63.085222 
1357.000000	63.076877 
1356.000000	63.065361 
1355.000000	63.053131 
1354.000000	63.042545 
1353.000000	63.035583 
1352.000000	63.033676 
1351.000000	63.037204 
1350.000000	63.045692 
1349.000000	63.057923 
1348.000000	63.072204 
1347.000000	63.086915 
1346.000000	63.100695 
1345.000000	63.112854 
1344.000000	63.123226 
1343.000000	63.132286 
1342.000000	63.140773 
1341.000000	63.149452 
1340.000000	63.158702 
1339.000000	63.168454 
1338.000000	63.178181 
1337.000000	63.187003 
1336.000000	63.194131 
1335.000000	63.198947 
1334.000000	63.201475 
1333.000000	63.202500 
1332.000000	63.203239 
1331.000000	63.205027 
1330.000000	63.208723 
1329.000000	63.214468 
1328.000000	63.221645 
1327.000000	63.228964 
1326.000000	63.234663 
1325.000000	63.237214 
1324.000000	63.235354 
1323.000000	63.228607 
1322.000000	63.217282 
1321.000000	63.202428 
1320.000000	63.185691 
1319.000000	63.168859 
1318.000000	63.153481 
1317.000000	63.140630 
1316.000000	63.130569 
1315.000000	63.122916 
1314.000000	63.116621 
1313.000000	63.110375 
1312.000000	63.103151 
1311.000000	63.094782 
1310.000000	63.086080 
1309.000000	63.078832 
1308.000000	63.075542 
1307.000000	63.078880 
1306.000000	63.090801 
1305.000000	63.111805 
1304.000000	63.140535 
1303.000000	63.173818 
1302.000000	63.206934 
1301.000000	63.234615 
1300.000000	63.252162 
1299.000000	63.256359 
1298.000000	63.246321 
1297.000000	63.223719 
1296.000000	63.192248 
1295.000000	63.156938 
1294.000000	63.122940 
1293.000000	63.094425 
1292.000000	63.073968 
1291.000000	63.061809 
1290.000000	63.056540 
1289.000000	63.055324 
1288.000000	63.054943 
1287.000000	63.052654 
1286.000000	63.046956 
1285.000000	63.037729 
1284.000000	63.026261 
1283.000000	63.014721 
1282.000000	63.005399 
1281.000000	63.000273 
1280.000000	63.000345 
1279.000000	63.005495 
1278.000000	63.014459 
1277.000000	63.025236 
1276.000000	63.035559 
1275.000000	63.043355 
1274.000000	63.047075 
1273.000000	63.045954 
1272.000000	63.039970 
1271.000000	63.029718 
1270.000000	63.016271 
1269.000000	63.000869 
1268.000000	62.984919 
1267.000000	62.969708 
1266.000000	62.956476 
1265.000000	62.946176 
1264.000000	62.939810 
1263.000000	62.938141 
1262.000000	62.941598 
1261.000000	62.950253 
1260.000000	62.963676 
1259.000000	62.981033 
1258.000000	63.001036 
1257.000000	63.022041 
1256.000000	63.042306 
1255.000000	63.060307 
1254.000000	63.074898 
1253.000000	63.085389 
1252.000000	63.091969 
1251.000000	63.095116 
1250.000000	63.095903 
1249.000000	63.095498 
1248.000000	63.094925 
1247.000000	63.094925 
1246.000000	63.095855 
1245.000000	63.097596 
1244.000000	63.099741 
1243.000000	63.101434 
1242.000000	63.101911 
1241.000000	63.100242 
1240.000000	63.095903 
1239.000000	63.088703 
1238.000000	63.078784 
1237.000000	63.066935 
1236.000000	63.054180 
1235.000000	63.042306 
1234.000000	63.033199 
1233.000000	63.028907 
1232.000000	63.031196 
1231.000000	63.041067 
1230.000000	63.058781 
1229.000000	63.083291 
1228.000000	63.112473 
1227.000000	63.143301 
1226.000000	63.172149 
1225.000000	63.195419 
1224.000000	63.210010 
1223.000000	63.213825 
1222.000000	63.206219 
1221.000000	63.187909 
1220.000000	63.160967 
1219.000000	63.128399 
1218.000000	63.093876 
1217.000000	63.061189 
1216.000000	63.033676 
1215.000000	63.013863 
1214.000000	63.003063 
1213.000000	63.001298 
1212.000000	63.007211 
1211.000000	63.018345 
1210.000000	63.031721 
1209.000000	63.043832 
1208.000000	63.052129 
1207.000000	63.055086 
1206.000000	63.052845 
1205.000000	63.046836 
1204.000000	63.039755 
1203.000000	63.034749 
1202.000000	63.034629 
1201.000000	63.041162 
1200.000000	63.054633 
1199.000000	63.073682 
1198.000000	63.095712 
1197.000000	63.117384 
1196.000000	63.135433 
1195.000000	63.147497 
1194.000000	63.152360 
1193.000000	63.150334 
1192.000000	63.142895 
1191.000000	63.132262 
1190.000000	63.121032 
1189.000000	63.111400 
1188.000000	63.104677 
1187.000000	63.101196 
1186.000000	63.100743 
1185.000000	63.102006 
1184.000000	63.103365 
1183.000000	63.102936 
1182.000000	63.099312 
1181.000000	63.091301 
1180.000000	63.078451 
1179.000000	63.060927 
1178.000000	63.039517 
1177.000000	63.015604 
1176.000000	62.990880 
1175.000000	62.967133 
1174.000000	62.946081 
1173.000000	62.929153 
1172.000000	62.917423 
1171.000000	62.911558 
1170.000000	62.911820 
1169.000000	62.918090 
1168.000000	62.930107 
1167.000000	62.947154 
1166.000000	62.968182 
1165.000000	62.991690 
1164.000000	63.015985 
1163.000000	63.038802 
1162.000000	63.058376 
1161.000000	63.073110 
1160.000000	63.082456 
1159.000000	63.086915 
1158.000000	63.088059 
1157.000000	63.088178 
1156.000000	63.089847 
1155.000000	63.095402 
1154.000000	63.105869 
1153.000000	63.120913 
1152.000000	63.138532 
1151.000000	63.155770 
1150.000000	63.169169 
1149.000000	63.175678 
1148.000000	63.173437 
1147.000000	63.162279 
1146.000000	63.143515 
1145.000000	63.119673 
1144.000000	63.093972 
1143.000000	63.069510 
1142.000000	63.048934 
1141.000000	63.033890 
1140.000000	63.025188 
1139.000000	63.022613 
1138.000000	63.025546 
1137.000000	63.032698 
1136.000000	63.042593 
1135.000000	63.053655 
1134.000000	63.064503 
1133.000000	63.074088 
1132.000000	63.081383 
1131.000000	63.086032 
1130.000000	63.088274 
1129.000000	63.088822 
1128.000000	63.088774 
1127.000000	63.088941 
1126.000000	63.089680 
1125.000000	63.090658 
1124.000000	63.090920 
1123.000000	63.089132 
1122.000000	63.083887 
1121.000000	63.074278 
1120.000000	63.060545 
1119.000000	63.043618 
1118.000000	63.025116 
1117.000000	63.006925 
1116.000000	62.990665 
1115.000000	62.977170 
1114.000000	62.966489 
1113.000000	62.957906 
1112.000000	62.950205 
1111.000000	62.942147 
1110.000000	62.932896 
1109.000000	62.922096 
1108.000000	62.910199 
1107.000000	62.897753 
1106.000000	62.885880 
1105.000000	62.875318 
1104.000000	62.866854 
1103.000000	62.861084 
1102.000000	62.858772 
1101.000000	62.860560 
1100.000000	62.867259 
1099.000000	62.879347 
1098.000000	62.897157 
1097.000000	62.920427 
1096.000000	62.948536 
1095.000000	62.980318 
1094.000000	63.014364 
1093.000000	63.049125 
1092.000000	63.083219 
1091.000000	63.115239 
1090.000000	63.143849 
1089.000000	63.167810 
1088.000000	63.185715 
1087.000000	63.196015 
1086.000000	63.197445 
1085.000000	63.189172 
1084.000000	63.171219 
1083.000000	63.144898 
1082.000000	63.112902 
1081.000000	63.078904 
1080.000000	63.047170 
1079.000000	63.021683 
1078.000000	63.005638 
1077.000000	63.000893 
1076.000000	63.007497 
1075.000000	63.024115 
1074.000000	63.048267 
1073.000000	63.076901 
1072.000000	63.106846 
1071.000000	63.135385 
1070.000000	63.160252 
1069.000000	63.180088 
1068.000000	63.194251 
1067.000000	63.202738 
1066.000000	63.205909 
1065.000000	63.204503 
1064.000000	63.199305 
1063.000000	63.191342 
1062.000000	63.181567 
1061.000000	63.170862 
1060.000000	63.159823 
1059.000000	63.148951 
1058.000000	63.138532 
1057.000000	63.128757 
1056.000000	63.120079 
1055.000000	63.113045 
1054.000000	63.108658 
1053.000000	63.108015 
1052.000000	63.112497 
1051.000000	63.123106 
1050.000000	63.140177 
1049.000000	63.163185 
1048.000000	63.190293 
1047.000000	63.218665 
1046.000000	63.244438 
1045.000000	63.263559 
1044.000000	63.272404 
1043.000000	63.268566 
1042.000000	63.251519 
1041.000000	63.222885 
1040.000000	63.186335 
1039.000000	63.147163 
1038.000000	63.111257 
1037.000000	63.083887 
1036.000000	63.069009 
1035.000000	63.068103 
1034.000000	63.080072 
1033.000000	63.101315 
1032.000000	63.126564 
1031.000000	63.150215 
1030.000000	63.167309 
1029.000000	63.174915 
1028.000000	63.172221 
1027.000000	63.161015 
1026.000000	63.144540 
1025.000000	63.126683 
1024.000000	63.110947 
1023.000000	63.099288 
1022.000000	63.092160 
1021.000000	63.088250 
1020.000000	63.085269 
1019.000000	63.080620 
1018.000000	63.072466 
1017.000000	63.060259 
1016.000000	63.045072 
1015.000000	63.029456 
1014.000000	63.016653 
1013.000000	63.010239 
1012.000000	63.012862 
1011.000000	63.025712 
1010.000000	63.047957 
1009.000000	63.077211 
1008.000000	63.109636 
1007.000000	63.140869 
1006.000000	63.166713 
1005.000000	63.183999 
1004.000000	63.191080 
1003.000000	63.187885 
1002.000000	63.175868 
1001.000000	63.157606 
1000.000000	63.136267 
999.000000	 63.115334 
998.000000	 63.097715 
997.000000	 63.085579 
996.000000	 63.079929 
995.000000	 63.080739 
994.000000	 63.087129 
993.000000	 63.097572 
992.000000	 63.110542 
991.000000	 63.124752 
990.000000	 63.139843 
989.000000	 63.156223 
988.000000	 63.175177 
987.000000	 63.198208 
986.000000	 63.226604 
985.000000	 63.260555 
984.000000	 63.298606 
983.000000	 63.337588 
982.000000	 63.372945 
981.000000	 63.399744 
980.000000	 63.413739 
979.000000	 63.412451 
978.000000	 63.396096 
977.000000	 63.367295 
976.000000	 63.330864 
975.000000	 63.292360 
974.000000	 63.256788 
973.000000	 63.227486 
972.000000	 63.205599 
971.000000	 63.189911 
970.000000	 63.177561 
969.000000	 63.165402 
968.000000	 63.151049 
967.000000	 63.134098 
966.000000	 63.116002 
965.000000	 63.100290 
964.000000	 63.091182 
963.000000	 63.092660 
962.000000	 63.106775 
961.000000	 63.133597 
960.000000	 63.170671 
959.000000	 63.213539 
958.000000	 63.256740 
957.000000	 63.294911 
956.000000	 63.323903 
955.000000	 63.341474 
954.000000	 63.347530 
953.000000	 63.344073 
952.000000	 63.334631 
951.000000	 63.323116 
950.000000	 63.312721 
949.000000	 63.305807 
948.000000	 63.302874 
947.000000	 63.303279 
946.000000	 63.304758 
945.000000	 63.304567 
944.000000	 63.299942 
943.000000	 63.289022 
942.000000	 63.271164 
941.000000	 63.247108 
940.000000	 63.218760 
939.000000	 63.188719 
938.000000	 63.159966 
937.000000	 63.135075 
936.000000	 63.115906 
935.000000	 63.103342 
934.000000	 63.097620 
933.000000	 63.098549 
932.000000	 63.105535 
931.000000	 63.117623 
930.000000	 63.133430 
929.000000	 63.150787 
928.000000	 63.166737 
927.000000	 63.177919 
926.000000	 63.180923 
925.000000	 63.173580 
924.000000	 63.155388 
923.000000	 63.128280 
922.000000	 63.096690 
921.000000	 63.066911 
920.000000	 63.046050 
919.000000	 63.039922 
918.000000	 63.051581 
917.000000	 63.080191 
916.000000	 63.121342 
915.000000	 63.167333 
914.000000	 63.209366 
913.000000	 63.239169 
912.000000	 63.251280 
911.000000	 63.243937 
910.000000	 63.219356 
909.000000	 63.182830 
908.000000	 63.141369 
907.000000	 63.101816 
906.000000	 63.069105 
905.000000	 63.045763 
904.000000	 63.031816 
903.000000	 63.025188 
902.000000	 63.022947 
901.000000	 63.022398 
900.000000	 63.021850 
899.000000	 63.021016 
898.000000	 63.020968 
897.000000	 63.022923 
896.000000	 63.028264 
895.000000	 63.037872 
894.000000	 63.052320 
893.000000	 63.071179 
892.000000	 63.093471 
891.000000	 63.118124 
890.000000	 63.143754 
889.000000	 63.168835 
888.000000	 63.191699 
887.000000	 63.210535 
886.000000	 63.223576 
885.000000	 63.229393 
884.000000	 63.227200 
883.000000	 63.217449 
882.000000	 63.201928 
881.000000	 63.183569 
880.000000	 63.166069 
879.000000	 63.153171 
878.000000	 63.147807 
877.000000	 63.151550 
876.000000	 63.163757 
875.000000	 63.181567 
874.000000	 63.200688 
873.000000	 63.215994 
872.000000	 63.222336 
871.000000	 63.215494 
870.000000	 63.193035 
869.000000	 63.154602 
868.000000	 63.101983 
867.000000	 63.038873 
866.000000	 62.969803 
865.000000	 62.899971 
864.000000	 62.834382 
863.000000	 62.777352 
862.000000	 62.732148 
861.000000	 62.700867 
860.000000	 62.684297 
859.000000	 62.682390 
858.000000	 62.693905 
857.000000	 62.717175 
856.000000	 62.750029 
855.000000	 62.790274 
854.000000	 62.835264 
853.000000	 62.882423 
852.000000	 62.928986 
851.000000	 62.972307 
850.000000	 63.010120 
849.000000	 63.040828 
848.000000	 63.063549 
847.000000	 63.078594 
846.000000	 63.086915 
845.000000	 63.089942 
844.000000	 63.088774 
843.000000	 63.084340 
842.000000	 63.076567 
841.000000	 63.064813 
840.000000	 63.047814 
839.000000	 63.024902 
838.000000	 62.996196 
837.000000	 62.962961 
836.000000	 62.928056 
835.000000	 62.895369 
834.000000	 62.869286 
833.000000	 62.853431 
832.000000	 62.850332 
831.000000	 62.860441 
830.000000	 62.882518 
829.000000	 62.913560 
828.000000	 62.949681 
827.000000	 62.986850 
826.000000	 63.021612 
825.000000	 63.051557 
824.000000	 63.075327 
823.000000	 63.092327 
822.000000	 63.102459 
821.000000	 63.105750 
820.000000	 63.102102 
819.000000	 63.091373 
818.000000	 63.074040 
817.000000	 63.051366 
816.000000	 63.025617 
815.000000	 62.999677 
814.000000	 62.976694 
813.000000	 62.959504 
812.000000	 62.949895 
811.000000	 62.948274 
810.000000	 62.953424 
809.000000	 62.962865 
808.000000	 62.973690 
807.000000	 62.982892 
806.000000	 62.987852 
805.000000	 62.987089 
804.000000	 62.980151 
803.000000	 62.968516 
802.000000	 62.954759 
801.000000	 62.942528 
800.000000	 62.935495 
799.000000	 62.936854 
798.000000	 62.948775 
797.000000	 62.971353 
796.000000	 63.002538 
795.000000	 63.038444 
794.000000	 63.074183 
793.000000	 63.104248 
792.000000	 63.123941 
791.000000	 63.130068 
790.000000	 63.122010 
789.000000	 63.101601 
788.000000	 63.073158 
787.000000	 63.042616 
786.000000	 63.016676 
785.000000	 63.001751 
784.000000	 63.002538 
783.000000	 63.021159 
782.000000	 63.056588 
781.000000	 63.105559 
780.000000	 63.162112 
779.000000	 63.219046 
778.000000	 63.268685 
777.000000	 63.304424 
776.000000	 63.321375 
775.000000	 63.317298 
774.000000	 63.292407 
773.000000	 63.249373 
772.000000	 63.192343 
771.000000	 63.126182 
770.000000	 63.055968 
769.000000	 62.986183 
768.000000	 62.920188 
767.000000	 62.860393 
766.000000	 62.808203 
765.000000	 62.764549 
764.000000	 62.730002 
763.000000	 62.705445 
762.000000	 62.690997 
761.000000	 62.687325 
760.000000	 62.694859 
759.000000	 62.714385 
758.000000	 62.745594 
757.000000	 62.787723 
756.000000	 62.838935 
755.000000	 62.896418 
754.000000	 62.956309 
753.000000	 63.013815 
752.000000	 63.063549 
751.000000	 63.100314 
750.000000	 63.120174 
749.000000	 63.120746 
748.000000	 63.102149 
747.000000	 63.067054 
746.000000	 63.020730 
745.000000	 62.969970 
744.000000	 62.922120 
743.000000	 62.883901 
742.000000	 62.860107 
741.000000	 62.852597 
740.000000	 62.860250 
739.000000	 62.879133 
738.000000	 62.903451 
737.000000	 62.926435 
736.000000	 62.942075 
735.000000	 62.945628 
734.000000	 62.935066 
733.000000	 62.910485 
732.000000	 62.874650 
731.000000	 62.831544 
730.000000	 62.786412 
729.000000	 62.744235 
728.000000	 62.709641 
727.000000	 62.685990 
726.000000	 62.675476 
725.000000	 62.679028 
724.000000	 62.696695 
723.000000	 62.727546 
722.000000	 62.770032 
721.000000	 62.821698 
720.000000	 62.879419 
719.000000	 62.939405 
718.000000	 62.997317 
717.000000	 63.048481 
716.000000	 63.088297 
715.000000	 63.112950 
714.000000	 63.119173 
713.000000	 63.104748 
712.000000	 63.069653 
711.000000	 63.015937 
710.000000	 62.947726 
709.000000	 62.870740 
708.000000	 62.791848 
707.000000	 62.717628 
706.000000	 62.653756 
705.000000	 62.603735 
704.000000	 62.568092 
703.000000	 62.545680 
702.000000	 62.533831 
701.000000	 62.530589 
700.000000	 62.534022 
699.000000	 62.544822 
698.000000	 62.565350 
697.000000	 62.599444 
696.000000	 62.649869 
695.000000	 62.717628 
694.000000	 62.800478 
693.000000	 62.893199 
692.000000	 62.988185 
691.000000	 63.077282 
690.000000	 63.153743 
689.000000	 63.214159 
688.000000	 63.259077 
687.000000	 63.292765 
686.000000	 63.321399 
685.000000	 63.350844 
684.000000	 63.384103 
683.000000	 63.420748 
682.000000	 63.455915 
681.000000	 63.482666 
680.000000	 63.493037 
679.000000	 63.482022 
678.000000	 63.447380 
677.000000	 63.392090 
676.000000	 63.321399 
675.000000	 63.241648 
674.000000	 63.157653 
673.000000	 63.071250 
672.000000	 62.982177 
671.000000	 62.888574 
670.000000	 62.790417 
669.000000	 62.690258 
668.000000	 62.595844 
667.000000	 62.518906 
666.000000	 62.472820 
665.000000	 62.468576 
664.000000	 62.511610 
663.000000	 62.599134 
662.000000	 62.719154 
661.000000	 62.852168 
660.000000	 62.975430 
659.000000	 63.067579 
658.000000	 63.113451 
657.000000	 63.106679 
656.000000	 63.050293 
655.000000	 62.955141 
654.000000	 62.836956 
653.000000	 62.711906 
652.000000	 62.593317 
651.000000	 62.489199 
650.000000	 62.403464 
649.000000	 62.335109 
648.000000	 62.280774 
647.000000	 62.236213 
646.000000	 62.199187 
645.000000	 62.169241 
644.000000	 62.146711 
643.000000	 62.133097 
642.000000	 62.128829 
641.000000	 62.133550 
640.000000	 62.144684 
639.000000	 62.158656 
638.000000	 62.171077 
637.000000	 62.178802 
636.000000	 62.180805 
635.000000	 62.178421 
634.000000	 62.174916 
633.000000	 62.175416 
632.000000	 62.185740 
631.000000	 62.210679 
630.000000	 62.253189 
629.000000	 62.314152 
628.000000	 62.392354 
627.000000	 62.484574 
626.000000	 62.587213 
625.000000	 62.696170 
624.000000	 62.809205 
623.000000	 62.925791 
622.000000	 63.047432 
621.000000	 63.175678 
620.000000	 63.311266 
619.000000	 63.454008 
618.000000	 63.599395 
617.000000	 63.740396 
616.000000	 63.864970 
615.000000	 63.960218 
614.000000	 64.011669 
613.000000	 64.007854 
612.000000	 63.941407 
611.000000	 63.812041 
610.000000	 63.627338 
609.000000	 63.402962 
608.000000	 63.160061 
607.000000	 62.922310 
606.000000	 62.710618 
605.000000	 62.540602 
604.000000	 62.419629 
603.000000	 62.348055 
602.000000	 62.321829 
601.000000	 62.335538 
600.000000	 62.383580 
599.000000	 62.462401 
598.000000	 62.569594 
597.000000	 62.703013 
596.000000	 62.856507 
595.000000	 63.020348 
594.000000	 63.180756 
593.000000	 63.321304 
592.000000	 63.426303 
591.000000	 63.481783 
590.000000	 63.480210 
589.000000	 63.419675 
588.000000	 63.306212 
587.000000	 63.150072 
586.000000	 62.964367 
585.000000	 62.763643 
584.000000	 62.562417 
583.000000	 62.375712 
582.000000	 62.218141 
581.000000	 62.103724 
580.000000	 62.044167 
579.000000	 62.043905 
578.000000	 62.098622 
577.000000	 62.193536 
576.000000	 62.306237 
575.000000	 62.409949 
574.000000	 62.480235 
573.000000	 62.499451 
572.000000	 62.462019 
571.000000	 62.374734 
570.000000	 62.256097 
569.000000	 62.129211 
568.000000	 62.018847 
567.000000	 61.945271 
566.000000	 61.921882 
565.000000	 61.952161 
564.000000	 62.032055 
563.000000	 62.152910 
562.000000	 62.303256 
561.000000	 62.471413 
560.000000	 62.646412 
559.000000	 62.818264 
558.000000	 62.978720 
557.000000	 63.120007 
556.000000	 63.238215 
555.000000	 63.332247 
554.000000	 63.406300 
553.000000	 63.467764 
552.000000	 63.522648 
551.000000	 63.572192 
550.000000	 63.611483 
549.000000	 63.628816 
548.000000	 63.607454 
547.000000	 63.529491 
546.000000	 63.383078 
545.000000	 63.165807 
544.000000	 62.887930 
543.000000	 62.571167 
542.000000	 62.245416 
541.000000	 61.942982 
540.000000	 61.691546 
539.000000	 61.509656 
538.000000	 61.403059 
537.000000	 61.365938 
536.000000	 61.382460 
535.000000	 61.433053 
534.000000	 61.498427 
533.000000	 61.564874 
532.000000	 61.624646 
531.000000	 61.677503 
530.000000	 61.725687 
529.000000	 61.775422 
528.000000	 61.832714 
527.000000	 61.902022 
526.000000	 61.983847 
525.000000	 62.075662 
524.000000	 62.172007 
523.000000	 62.265586 
522.000000	 62.348842 
521.000000	 62.415528 
520.000000	 62.462258 
519.000000	 62.488770 
518.000000	 62.498688 
517.000000	 62.498259 
516.000000	 62.495827 
515.000000	 62.500548 
514.000000	 62.520790 
513.000000	 62.561988 
512.000000	 62.626075 
511.000000	 62.713098 
510.000000	 62.819027 
509.000000	 62.936615 
508.000000	 63.056182 
507.000000	 63.168334 
506.000000	 63.263320 
505.000000	 63.332653 
504.000000	 63.370037 
503.000000	 63.372087 
502.000000	 63.340091 
501.000000	 63.280510 
500.000000	 63.203930 
499.000000	 63.123369 
498.000000	 63.052606 
497.000000	 63.003158 
496.000000	 62.981653 
495.000000	 62.988233 
494.000000	 63.016700 
493.000000	 63.056397 
492.000000	 63.093757 
491.000000	 63.117504 
490.000000	 63.121199 
489.000000	 63.106322 
488.000000	 63.080739 
487.000000	 63.057637 
486.000000	 63.051986 
485.000000	 63.075566 
484.000000	 63.133358 
483.000000	 63.220977 
482.000000	 63.326644 
481.000000	 63.431644 
480.000000	 63.516116 
479.000000	 63.561916 
478.000000	 63.557362 
477.000000	 63.499307 
476.000000	 63.393974 
475.000000	 63.255143 
474.000000	 63.100981 
473.000000	 62.950348 
472.000000	 62.818789 
471.000000	 62.715673 
470.000000	 62.643241 
469.000000	 62.597346 
468.000000	 62.569904 
467.000000	 62.552332 
466.000000	 62.538027 
465.000000	 62.523841 
464.000000	 62.509942 
463.000000	 62.498831 
462.000000	 62.492561 
461.000000	 62.489604 
460.000000	 62.484788 
459.000000	 62.469172 
458.000000	 62.433505 
457.000000	 62.370324 
456.000000	 62.278676 
455.000000	 62.164187 
454.000000	 62.041687 
453.000000	 61.932373 
452.000000	 61.859560 
451.000000	 61.842250 
450.000000	 61.891150 
449.000000	 62.005639 
448.000000	 62.172222 
447.000000	 62.366867 
446.000000	 62.561058 
445.000000	 62.727832 
444.000000	 62.845063 
443.000000	 62.898898 
442.000000	 62.887692 
441.000000	 62.819385 
440.000000	 62.707543 
439.000000	 62.566661 
438.000000	 62.408852 
437.000000	 62.242150 
436.000000	 62.071776 
435.000000	 61.902236 
434.000000	 61.736798 
433.000000	 61.583662 
432.000000	 61.457705 
431.000000	 61.379384 
430.000000	 61.366343 
429.000000	 61.434364 
428.000000	 61.592435 
427.000000	 61.838674 
426.000000	 62.154364 
425.000000	 62.511706 
424.000000	 62.875938 
423.000000	 63.216233 
422.000000	 63.509845 
421.000000	 63.750672 
420.000000	 63.947725 
419.000000	 64.127302 
418.000000	 64.323878 
417.000000	 64.567875 
416.000000	 64.873194 
415.000000	 65.233874 
414.000000	 65.618610 
413.000000	 65.977835 
412.000000	 66.249108 
411.000000	 66.375255 
410.000000	 66.311192 
409.000000	 66.042137 
408.000000	 65.577554 
407.000000	 64.954519 
406.000000	 64.220523 
405.000000	 63.428044 
404.000000	 62.618279 
403.000000	 61.823248 
402.000000	 61.058282 
401.000000	 60.318732 
400.000000	 59.603524 
399.000000	 58.929038 
398.000000	 58.329010 
397.000000	 57.839632 
396.000000	 57.515811 
395.000000	 57.413554 
394.000000	 57.580995 
393.000000	 58.042502 
392.000000	 58.774757 
391.000000	 59.697818 
390.000000	 60.725116 
389.000000	 61.771893 
388.000000	 62.742400 
387.000000	 63.541793 
386.000000	 64.096736 
385.000000	 64.355850 
384.000000	 64.295387 
383.000000	 63.920855 
382.000000	 63.248300 
381.000000	 62.322926 
380.000000	 61.244106 
379.000000	 60.149288 
378.000000	 59.147620 
377.000000	 58.380889 
376.000000	 57.967162 
375.000000	 58.065462 
374.000000	 58.855724 
373.000000	 60.509324 
372.000000	 63.127708 
371.000000	 66.703391 
370.000000	 71.108317 

