PE IR       SPECTRUM    SPECTRUM    ASCII       PEDS        1.60        
  -1
BZ6AA1~1.ASC
17/04/07
14:11:54.00
17/04/07
14:11:54.00
tln
$BZ1503107-1_t0012$<tbV0>[13.0,-10.4,8.0,0.0,27,1,0]
370.000000
64









2002,4.07    
MIRTGS : RIGHTBACK : INTERNAL 2
MIR : ON : INTERNAL 2
OPTKBR

0.200000
8
8.000000
FILLER
RATIO
SPECTRUM
UNLOCKED 256

DOUBLE
64
COMBINED
1
0
0


1.000000
RATIO


1
0
TRUE
51149
0
LEFT NOT FITTED RIGHT NOT FITTED 0
NONE
NONE
15600
12.000000
4.427000
51148
TRUE
1 0 8 72 0 0 0 0 

15798.010000






#HDR
-1
-1
#GR
CM-1
%T
0.00002384185791015625
0.0
5000.000000
-1.000000
4631
8
79.380917
46.264338
#DATA
5000.000000	66.294431 
4999.000000	66.220068 
4998.000000	66.116356 
4997.000000	65.982341 
4996.000000	65.819716 
4995.000000	65.632224 
4994.000000	65.428566 
4993.000000	65.220403 
4992.000000	65.024805 
4991.000000	64.862608 
4990.000000	64.753699 
4989.000000	64.712738 
4988.000000	64.744210 
4987.000000	64.840602 
4986.000000	64.980912 
4985.000000	65.134310 
4984.000000	65.267729 
4983.000000	65.353536 
4982.000000	65.377354 
4981.000000	65.341639 
4980.000000	65.263724 
4979.000000	65.171360 
4978.000000	65.094876 
4977.000000	65.059399 
4976.000000	65.079951 
4975.000000	65.157341 
4974.000000	65.279626 
4973.000000	65.424609 
4972.000000	65.569043 
4971.000000	65.690732 
4970.000000	65.774464 
4969.000000	65.811538 
4968.000000	65.800476 
4967.000000	65.743899 
4966.000000	65.646934 
4965.000000	65.514326 
4964.000000	65.349054 
4963.000000	65.155148 
4962.000000	64.939737 
4961.000000	64.714908 
4960.000000	64.497542 
4959.000000	64.311504 
4958.000000	64.183998 
4957.000000	64.144611 
4956.000000	64.218592 
4955.000000	64.422035 
4954.000000	64.754605 
4953.000000	65.197992 
4952.000000	65.713238 
4951.000000	66.244006 
4950.000000	66.722488 
4949.000000	67.080593 
4948.000000	67.261242 
4947.000000	67.229127 
4946.000000	66.978979 
4945.000000	66.536808 
4944.000000	65.957736 
4943.000000	65.317749 
4942.000000	64.699649 
4941.000000	64.180469 
4940.000000	63.817667 
4939.000000	63.642525 
4938.000000	63.655853 
4937.000000	63.832879 
4936.000000	64.129281 
4935.000000	64.492082 
4934.000000	64.868378 
4933.000000	65.212559 
4932.000000	65.492081 
4931.000000	65.687394 
4930.000000	65.792131 
4929.000000	65.808677 
4928.000000	65.747117 
4927.000000	65.621066 
4926.000000	65.446019 
4925.000000	65.237355 
4924.000000	65.011572 
4923.000000	64.785027 
4922.000000	64.575648 
4921.000000	64.400553 
4920.000000	64.273595 
4919.000000	64.204502 
4918.000000	64.197707 
4917.000000	64.252209 
4916.000000	64.358377 
4915.000000	64.502787 
4914.000000	64.668321 
4913.000000	64.839076 
4912.000000	65.001559 
4911.000000	65.146994 
4910.000000	65.269422 
4909.000000	65.367794 
4908.000000	65.444445 
4907.000000	65.503454 
4906.000000	65.548586 
4905.000000	65.583443 
4904.000000	65.611076 
4903.000000	65.634894 
4902.000000	65.658760 
4901.000000	65.686273 
4900.000000	65.719628 
4899.000000	65.758633 
4898.000000	65.799593 
4897.000000	65.835547 
4896.000000	65.857052 
4895.000000	65.853524 
4894.000000	65.816426 
4893.000000	65.742945 
4892.000000	65.637040 
4891.000000	65.509104 
4890.000000	65.374064 
4889.000000	65.249466 
4888.000000	65.149903 
4887.000000	65.084433 
4886.000000	65.053582 
4885.000000	65.049624 
4884.000000	65.058708 
4883.000000	65.065264 
4882.000000	65.056014 
4881.000000	65.022468 
4880.000000	64.964985 
4879.000000	64.892029 
4878.000000	64.818477 
4877.000000	64.760780 
4876.000000	64.734506 
4875.000000	64.750170 
4874.000000	64.811468 
4873.000000	64.914345 
4872.000000	65.049219 
4871.000000	65.202999 
4870.000000	65.361404 
4869.000000	65.511226 
4868.000000	65.642571 
4867.000000	65.749192 
4866.000000	65.828061 
4865.000000	65.878653 
4864.000000	65.902662 
4863.000000	65.902376 
4862.000000	65.881705 
4861.000000	65.843605 
4860.000000	65.791583 
4859.000000	65.728306 
4858.000000	65.657663 
4857.000000	65.583539 
4856.000000	65.509724 
4855.000000	65.440988 
4854.000000	65.382719 
4853.000000	65.340876 
4852.000000	65.321087 
4851.000000	65.327358 
4850.000000	65.360569 
4849.000000	65.416955 
4848.000000	65.488004 
4847.000000	65.561103 
4846.000000	65.621519 
4845.000000	65.654826 
4844.000000	65.649819 
4843.000000	65.601348 
4842.000000	65.511417 
4841.000000	65.389466 
4840.000000	65.249967 
4839.000000	65.108680 
4838.000000	64.979982 
4837.000000	64.874458 
4836.000000	64.798116 
4835.000000	64.752030 
4834.000000	64.734053 
4833.000000	64.740300 
4832.000000	64.766693 
4831.000000	64.810371 
4830.000000	64.868211 
4829.000000	64.935517 
4828.000000	65.005803 
4827.000000	65.069603 
4826.000000	65.117335 
4825.000000	65.140318 
4824.000000	65.135216 
4823.000000	65.105247 
4822.000000	65.061569 
4821.000000	65.020751 
4820.000000	65.001273 
4819.000000	65.017843 
4818.000000	65.075898 
4817.000000	65.169000 
4816.000000	65.278148 
4815.000000	65.377187 
4814.000000	65.439367 
4813.000000	65.446424 
4812.000000	65.392470 
4811.000000	65.289092 
4810.000000	65.162658 
4809.000000	65.048980 
4808.000000	64.983797 
4807.000000	64.994168 
4806.000000	65.091156 
4805.000000	65.266656 
4804.000000	65.496540 
4803.000000	65.744686 
4802.000000	65.972781 
4801.000000	66.147828 
4800.000000	66.249537 
4799.000000	66.273593 
4798.000000	66.230988 
4797.000000	66.143727 
4796.000000	66.037797 
4795.000000	65.937805 
4794.000000	65.860891 
4793.000000	65.815258 
4792.000000	65.799069 
4791.000000	65.802311 
4790.000000	65.809297 
4789.000000	65.803599 
4788.000000	65.771102 
4787.000000	65.701937 
4786.000000	65.593242 
4785.000000	65.447115 
4784.000000	65.272712 
4783.000000	65.083742 
4782.000000	64.897680 
4781.000000	64.732384 
4780.000000	64.603543 
4779.000000	64.523005 
4778.000000	64.495158 
4777.000000	64.516901 
4776.000000	64.576768 
4775.000000	64.656615 
4774.000000	64.735460 
4773.000000	64.792418 
4772.000000	64.812946 
4771.000000	64.791107 
4770.000000	64.732098 
4769.000000	64.649581 
4768.000000	64.565587 
4767.000000	64.504671 
4766.000000	64.488983 
4765.000000	64.531946 
4764.000000	64.634966 
4763.000000	64.785885 
4762.000000	64.962100 
4761.000000	65.134811 
4760.000000	65.275073 
4759.000000	65.360093 
4758.000000	65.377902 
4757.000000	65.329718 
4756.000000	65.228033 
4755.000000	65.094113 
4754.000000	64.952135 
4753.000000	64.824414 
4752.000000	64.727187 
4751.000000	64.667797 
4750.000000	64.646744 
4749.000000	64.656758 
4748.000000	64.686799 
4747.000000	64.724349 
4746.000000	64.759039 
4745.000000	64.783287 
4744.000000	64.792776 
4743.000000	64.786434 
4742.000000	64.765048 
4741.000000	64.731431 
4740.000000	64.689302 
4739.000000	64.643144 
4738.000000	64.597225 
4737.000000	64.555430 
4736.000000	64.520716 
4735.000000	64.495134 
4734.000000	64.479279 
4733.000000	64.472103 
4732.000000	64.471077 
4731.000000	64.472913 
4730.000000	64.474058 
4729.000000	64.471054 
4728.000000	64.461493 
4727.000000	64.443397 
4726.000000	64.416885 
4725.000000	64.383387 
4724.000000	64.346814 
4723.000000	64.312171 
4722.000000	64.285492 
4721.000000	64.272141 
4720.000000	64.276337 
4719.000000	64.300489 
4718.000000	64.343810 
4717.000000	64.402365 
4716.000000	64.469146 
4715.000000	64.535355 
4714.000000	64.591646 
4713.000000	64.630293 
4712.000000	64.646625 
4711.000000	64.640569 
4710.000000	64.616847 
4709.000000	64.584493 
4708.000000	64.555382 
4707.000000	64.541816 
4706.000000	64.554071 
4705.000000	64.597535 
4704.000000	64.672231 
4703.000000	64.771533 
4702.000000	64.883708 
4701.000000	64.993858 
4700.000000	65.086674 
4699.000000	65.150070 
4698.000000	65.177416 
4697.000000	65.168976 
4696.000000	65.131282 
4695.000000	65.075445 
4694.000000	65.014314 
4693.000000	64.959764 
4692.000000	64.920568 
4691.000000	64.900803 
4690.000000	64.900279 
4689.000000	64.915299 
4688.000000	64.940929 
4687.000000	64.971971 
4686.000000	65.004539 
4685.000000	65.036177 
4684.000000	65.065836 
4683.000000	65.093517 
4682.000000	65.119457 
4681.000000	65.143656 
4680.000000	65.165209 
4679.000000	65.182447 
4678.000000	65.192747 
4677.000000	65.193986 
4676.000000	65.184092 
4675.000000	65.161657 
4674.000000	65.126276 
4673.000000	65.078496 
4672.000000	65.020585 
4671.000000	64.956378 
4670.000000	64.891409 
4669.000000	64.831638 
4668.000000	64.783668 
4667.000000	64.753699 
4666.000000	64.746308 
4665.000000	64.763045 
4664.000000	64.802145 
4663.000000	64.858484 
4662.000000	64.924144 
4661.000000	64.989566 
4660.000000	65.045404 
4659.000000	65.084409 
4658.000000	65.102601 
4657.000000	65.100240 
4656.000000	65.082097 
4655.000000	65.056538 
4654.000000	65.033674 
4653.000000	65.022969 
4652.000000	65.031933 
4651.000000	65.063667 
4650.000000	65.116977 
4649.000000	65.185475 
4648.000000	65.259766 
4647.000000	65.328526 
4646.000000	65.381312 
4645.000000	65.410208 
4644.000000	65.410804 
4643.000000	65.383195 
4642.000000	65.332055 
4641.000000	65.264892 
4640.000000	65.190577 
4639.000000	65.117239 
4638.000000	65.051722 
4637.000000	64.997220 
4636.000000	64.953613 
4635.000000	64.917755 
4634.000000	64.885020 
4633.000000	64.850616 
4632.000000	64.811205 
4631.000000	64.765405 
4630.000000	64.714384 
4629.000000	64.661431 
4628.000000	64.611053 
4627.000000	64.566969 
4626.000000	64.531779 
4625.000000	64.506125 
4624.000000	64.489650 
4623.000000	64.480710 
4622.000000	64.478254 
4621.000000	64.481711 
4620.000000	64.492106 
4619.000000	64.511322 
4618.000000	64.541673 
4617.000000	64.584517 
4616.000000	64.639568 
4615.000000	64.703416 
4614.000000	64.770627 
4613.000000	64.834618 
4612.000000	64.889335 
4611.000000	64.930248 
4610.000000	64.956045 
4609.000000	64.968681 
4608.000000	64.973139 
4607.000000	64.976143 
4606.000000	64.983272 
4605.000000	64.997386 
4604.000000	65.017437 
4603.000000	65.039038 
4602.000000	65.055012 
4601.000000	65.058255 
4600.000000	65.043687 
4599.000000	65.010619 
4598.000000	64.963269 
4597.000000	64.910554 
4596.000000	64.864277 
4595.000000	64.836049 
4594.000000	64.834761 
4593.000000	64.863371 
4592.000000	64.918851 
4591.000000	64.991283 
4590.000000	65.066313 
4589.000000	65.127611 
4588.000000	65.160584 
4587.000000	65.156102 
4586.000000	65.112304 
4585.000000	65.035629 
4584.000000	64.938879 
4583.000000	64.838957 
4582.000000	64.753079 
4581.000000	64.694762 
4580.000000	64.671134 
4579.000000	64.681839 
4578.000000	64.719891 
4577.000000	64.773344 
4576.000000	64.828753 
4575.000000	64.874100 
4574.000000	64.902043 
4573.000000	64.910435 
4572.000000	64.902734 
4571.000000	64.886164 
4570.000000	64.869713 
4569.000000	64.861321 
4568.000000	64.866113 
4567.000000	64.885354 
4566.000000	64.916372 
4565.000000	64.954423 
4564.000000	64.993166 
4563.000000	65.026736 
4562.000000	65.050888 
4561.000000	65.063595 
4560.000000	65.065526 
4559.000000	65.059471 
4558.000000	65.049266 
4557.000000	65.038609 
4556.000000	65.029764 
4555.000000	65.023064 
4554.000000	65.016794 
4553.000000	65.008187 
4552.000000	64.994359 
4551.000000	64.973473 
4550.000000	64.946174 
4549.000000	64.915299 
4548.000000	64.884305 
4547.000000	64.856481 
4546.000000	64.833712 
4545.000000	64.816808 
4544.000000	64.806056 
4543.000000	64.801669 
4542.000000	64.804649 
4541.000000	64.815974 
4540.000000	64.835524 
4539.000000	64.861726 
4538.000000	64.890742 
4537.000000	64.917731 
4536.000000	64.937281 
4535.000000	64.945340 
4534.000000	64.940476 
4533.000000	64.924025 
4532.000000	64.899516 
4531.000000	64.872121 
4530.000000	64.846992 
4529.000000	64.828681 
4528.000000	64.820075 
4527.000000	64.822769 
4526.000000	64.837622 
4525.000000	64.863824 
4524.000000	64.898943 
4523.000000	64.940857 
4522.000000	64.987778 
4521.000000	65.036010 
4520.000000	65.081024 
4519.000000	65.117812 
4518.000000	65.143132 
4517.000000	65.156745 
4516.000000	65.162205 
4515.000000	65.168333 
4514.000000	65.185093 
4513.000000	65.218091 
4512.000000	65.268373 
4511.000000	65.331125 
4510.000000	65.397882 
4509.000000	65.460443 
4508.000000	65.511870 
4507.000000	65.549397 
4506.000000	65.573334 
4505.000000	65.586733 
4504.000000	65.593719 
4503.000000	65.594291 
4502.000000	65.593171 
4501.000000	65.599203 
4500.000000	65.627813 
4499.000000	65.697717 
4498.000000	65.829515 
4497.000000	66.039586 
4496.000000	66.330552 
4495.000000	66.687726 
4494.000000	67.078804 
4493.000000	67.461109 
4492.000000	67.787671 
4491.000000	68.022704 
4490.000000	68.154311 
4489.000000	68.198466 
4488.000000	68.198180 
4487.000000	68.207931 
4486.000000	68.282556 
4485.000000	68.453073 
4484.000000	68.720459 
4483.000000	69.045519 
4482.000000	69.365048 
4481.000000	69.598197 
4480.000000	69.671344 
4479.000000	69.533824 
4478.000000	69.180059 
4477.000000	68.640542 
4476.000000	67.975664 
4475.000000	67.258977 
4474.000000	66.558909 
4473.000000	65.929102 
4472.000000	65.403103 
4471.000000	64.982438 
4470.000000	64.642572 
4469.000000	64.352250 
4468.000000	64.085721 
4467.000000	63.826751 
4466.000000	63.573908 
4465.000000	63.331222 
4464.000000	63.108563 
4463.000000	62.911224 
4462.000000	62.743163 
4461.000000	62.601423 
4460.000000	62.480711 
4459.000000	62.387585 
4458.000000	62.320995 
4457.000000	62.288093 
4456.000000	62.266993 
4455.000000	62.209463 
4454.000000	62.034773 
4453.000000	61.635065 
4452.000000	60.924077 
4451.000000	59.849977 
4450.000000	58.462095 
4449.000000	56.899523 
4448.000000	55.418109 
4447.000000	54.335236 
4446.000000	53.974914 
4445.000000	54.583358 
4444.000000	56.254863 
4443.000000	58.888816 
4442.000000	62.189507 
4441.000000	65.718078 
4440.000000	68.976855 
4439.000000	71.516656 
4438.000000	73.031544 
4437.000000	73.419690 
4436.000000	72.788119 
4435.000000	71.415543 
4434.000000	69.677042 
4433.000000	67.948126 
4432.000000	66.533184 
4431.000000	65.596318 
4430.000000	65.179991 
4429.000000	65.192031 
4428.000000	65.484023 
4427.000000	65.877723 
4426.000000	66.235876 
4425.000000	66.475653 
4424.000000	66.571712 
4423.000000	66.552090 
4422.000000	66.454648 
4421.000000	66.328072 
4420.000000	66.200160 
4419.000000	66.087436 
4418.000000	65.992546 
4417.000000	65.911006 
4416.000000	65.838313 
4415.000000	65.772151 
4414.000000	65.714669 
4413.000000	65.667128 
4412.000000	65.629243 
4411.000000	65.590572 
4410.000000	65.535306 
4409.000000	65.454626 
4408.000000	65.347528 
4407.000000	65.214633 
4406.000000	65.064239 
4405.000000	64.915370 
4404.000000	64.790916 
4403.000000	64.710474 
4402.000000	64.686608 
4401.000000	64.715814 
4400.000000	64.785838 
4399.000000	64.882874 
4398.000000	64.990615 
4397.000000	65.093064 
4396.000000	65.178322 
4395.000000	65.238070 
4394.000000	65.271401 
4393.000000	65.283465 
4392.000000	65.283608 
4391.000000	65.281891 
4390.000000	65.287399 
4389.000000	65.305376 
4388.000000	65.337777 
4387.000000	65.382599 
4386.000000	65.433979 
4385.000000	65.483379 
4384.000000	65.522003 
4383.000000	65.542244 
4382.000000	65.538358 
4381.000000	65.508008 
4380.000000	65.452837 
4379.000000	65.378308 
4378.000000	65.291976 
4377.000000	65.202951 
4376.000000	65.120744 
4375.000000	65.053415 
4374.000000	65.006542 
4373.000000	64.981865 
4372.000000	64.978456 
4371.000000	64.991402 
4370.000000	65.013384 
4369.000000	65.035557 
4368.000000	65.048885 
4367.000000	65.047121 
4366.000000	65.027999 
4365.000000	64.994096 
4364.000000	64.951610 
4363.000000	64.910292 
4362.000000	64.880704 
4361.000000	64.871811 
4360.000000	64.888405 
4359.000000	64.930081 
4358.000000	64.991021 
4357.000000	65.061378 
4356.000000	65.129828 
4355.000000	65.186047 
4354.000000	65.223908 
4353.000000	65.241980 
4352.000000	65.244603 
4351.000000	65.240836 
4350.000000	65.241622 
4349.000000	65.257072 
4348.000000	65.292239 
4347.000000	65.346264 
4346.000000	65.410804 
4345.000000	65.473484 
4344.000000	65.519475 
4343.000000	65.536046 
4342.000000	65.515351 
4341.000000	65.457367 
4340.000000	65.369153 
4339.000000	65.262985 
4338.000000	65.153908 
4337.000000	65.055942 
4336.000000	64.980077 
4335.000000	64.932298 
4334.000000	64.913797 
4333.000000	64.921426 
4332.000000	64.949131 
4331.000000	64.989233 
4330.000000	65.033626 
4329.000000	65.074658 
4328.000000	65.105271 
4327.000000	65.120148 
4326.000000	65.114688 
4325.000000	65.087342 
4324.000000	65.039420 
4323.000000	64.976119 
4322.000000	64.905714 
4321.000000	64.838218 
4320.000000	64.783930 
4319.000000	64.751076 
4318.000000	64.744281 
4317.000000	64.763283 
4316.000000	64.803290 
4315.000000	64.856290 
4314.000000	64.913034 
4313.000000	64.965605 
4312.000000	65.008926 
4311.000000	65.041613 
4310.000000	65.065431 
4309.000000	65.084099 
4308.000000	65.101361 
4307.000000	65.119671 
4306.000000	65.139007 
4305.000000	65.156507 
4304.000000	65.167236 
4303.000000	65.166187 
4302.000000	65.149760 
4301.000000	65.116930 
4300.000000	65.069794 
4299.000000	65.013027 
4298.000000	64.953422 
4297.000000	64.898300 
4296.000000	64.854502 
4295.000000	64.826631 
4294.000000	64.817023 
4293.000000	64.825773 
4292.000000	64.850974 
4291.000000	64.889335 
4290.000000	64.936590 
4289.000000	64.988136 
4288.000000	65.039515 
4287.000000	65.086555 
4286.000000	65.125727 
4285.000000	65.154218 
4284.000000	65.170288 
4283.000000	65.173411 
4282.000000	65.164279 
4281.000000	65.144538 
4280.000000	65.116715 
4279.000000	65.083861 
4278.000000	65.049290 
4277.000000	65.016102 
4276.000000	64.987182 
4275.000000	64.964628 
4274.000000	64.949774 
4273.000000	64.942550 
4272.000000	64.941835 
4271.000000	64.945292 
4270.000000	64.949536 
4269.000000	64.950561 
4268.000000	64.944553 
4267.000000	64.928817 
4266.000000	64.901757 
4265.000000	64.864087 
4264.000000	64.818406 
4263.000000	64.769363 
4262.000000	64.722156 
4261.000000	64.682388 
4260.000000	64.654564 
4259.000000	64.642214 
4258.000000	64.647388 
4257.000000	64.670753 
4256.000000	64.711308 
4255.000000	64.766979 
4254.000000	64.834570 
4253.000000	64.909839 
4252.000000	64.987707 
4251.000000	65.062737 
4250.000000	65.129709 
4249.000000	65.183997 
4248.000000	65.222477 
4247.000000	65.243816 
4246.000000	65.248942 
4245.000000	65.240955 
4244.000000	65.224647 
4243.000000	65.205740 
4242.000000	65.189528 
4241.000000	65.180492 
4240.000000	65.180778 
4239.000000	65.190386 
4238.000000	65.206742 
4237.000000	65.226078 
4236.000000	65.243792 
4235.000000	65.255928 
4234.000000	65.260028 
4233.000000	65.255832 
4232.000000	65.245127 
4231.000000	65.231132 
4230.000000	65.217781 
4229.000000	65.208649 
4228.000000	65.206050 
4227.000000	65.210509 
4226.000000	65.220546 
4225.000000	65.233230 
4224.000000	65.245127 
4223.000000	65.253210 
4222.000000	65.255141 
4221.000000	65.249705 
4220.000000	65.237259 
4219.000000	65.219211 
4218.000000	65.197205 
4217.000000	65.172791 
4216.000000	65.147328 
4215.000000	65.121865 
4214.000000	65.096879 
4213.000000	65.073060 
4212.000000	65.051507 
4211.000000	65.033888 
4210.000000	65.022301 
4209.000000	65.019273 
4208.000000	65.026879 
4207.000000	65.046286 
4206.000000	65.077376 
4205.000000	65.118122 
4204.000000	65.164756 
4203.000000	65.212106 
4202.000000	65.254306 
4201.000000	65.285801 
4200.000000	65.302228 
4199.000000	65.301203 
4198.000000	65.282797 
4197.000000	65.249276 
4196.000000	65.204691 
4195.000000	65.154242 
4194.000000	65.103292 
4193.000000	65.056467 
4192.000000	65.016746 
4191.000000	64.985537 
4190.000000	64.962363 
4189.000000	64.945363 
4188.000000	64.932036 
4187.000000	64.919781 
4186.000000	64.907360 
4185.000000	64.894342 
4184.000000	64.882302 
4183.000000	64.873600 
4182.000000	64.871549 
4181.000000	64.879155 
4180.000000	64.898729 
4179.000000	64.930534 
4178.000000	64.972901 
4177.000000	65.022373 
4176.000000	65.074110 
4175.000000	65.122795 
4174.000000	65.163612 
4173.000000	65.193176 
4172.000000	65.209889 
4171.000000	65.214323 
4170.000000	65.208816 
4169.000000	65.196871 
4168.000000	65.182375 
4167.000000	65.169000 
4166.000000	65.159845 
4165.000000	65.156793 
4164.000000	65.161228 
4163.000000	65.173292 
4162.000000	65.192151 
4161.000000	65.215516 
4160.000000	65.240812 
4159.000000	65.264320 
4158.000000	65.281748 
4157.000000	65.288519 
4156.000000	65.280771 
4155.000000	65.256023 
4154.000000	65.213823 
4153.000000	65.156340 
4152.000000	65.088248 
4151.000000	65.016293 
4150.000000	64.948439 
4149.000000	64.892339 
4148.000000	64.853906 
4147.000000	64.836454 
4146.000000	64.839887 
4145.000000	64.860773 
4144.000000	64.893102 
4143.000000	64.929151 
4142.000000	64.961719 
4141.000000	64.984893 
4140.000000	64.995980 
4139.000000	64.995503 
4138.000000	64.987301 
4137.000000	64.977478 
4136.000000	64.972853 
4135.000000	64.979124 
4134.000000	64.999318 
4133.000000	65.033340 
4132.000000	65.077638 
4131.000000	65.126442 
4130.000000	65.172624 
4129.000000	65.209722 
4128.000000	65.232729 
4127.000000	65.239620 
4126.000000	65.230727 
4125.000000	65.208554 
4124.000000	65.176749 
4123.000000	65.139532 
4122.000000	65.100836 
4121.000000	65.064167 
4120.000000	65.032696 
4119.000000	65.009474 
4118.000000	64.997982 
4117.000000	65.001845 
4116.000000	65.024352 
4115.000000	65.067577 
4114.000000	65.131354 
4113.000000	65.212821 
4112.000000	65.306520 
4111.000000	65.404820 
4110.000000	65.498924 
4109.000000	65.580415 
4108.000000	65.643095 
4107.000000	65.683317 
4106.000000	65.701031 
4105.000000	65.698266 
4104.000000	65.679097 
4103.000000	65.647554 
4102.000000	65.607452 
4101.000000	65.561079 
4100.000000	65.509700 
4099.000000	65.453910 
4098.000000	65.394854 
4097.000000	65.334916 
4096.000000	65.278291 
4095.000000	65.230298 
4094.000000	65.196633 
4093.000000	65.181708 
4092.000000	65.187454 
4091.000000	65.212249 
4090.000000	65.251040 
4089.000000	65.296244 
4088.000000	65.339303 
4087.000000	65.372467 
4086.000000	65.390348 
4085.000000	65.390563 
4084.000000	65.373873 
4083.000000	65.343308 
4082.000000	65.303492 
4081.000000	65.259480 
4080.000000	65.215945 
4079.000000	65.176320 
4078.000000	65.143060 
4077.000000	65.118074 
4076.000000	65.102839 
4075.000000	65.098381 
4074.000000	65.105533 
4073.000000	65.124845 
4072.000000	65.156149 
4071.000000	65.197992 
4070.000000	65.247559 
4069.000000	65.300536 
4068.000000	65.351843 
4067.000000	65.396380 
4066.000000	65.429759 
4065.000000	65.449190 
4064.000000	65.454292 
4063.000000	65.446996 
4062.000000	65.431237 
4061.000000	65.412044 
4060.000000	65.394783 
4059.000000	65.383601 
4058.000000	65.381312 
4057.000000	65.388011 
4056.000000	65.401768 
4055.000000	65.418553 
4054.000000	65.433979 
4053.000000	65.443563 
4052.000000	65.444207 
4051.000000	65.434169 
4050.000000	65.413355 
4049.000000	65.383243 
4048.000000	65.346431 
4047.000000	65.306210 
4046.000000	65.265703 
4045.000000	65.227818 
4044.000000	65.194988 
4043.000000	65.168809 
4042.000000	65.150213 
4041.000000	65.139508 
4040.000000	65.136098 
4039.000000	65.139102 
4038.000000	65.147256 
4037.000000	65.159010 
4036.000000	65.172457 
4035.000000	65.185761 
4034.000000	65.196919 
4033.000000	65.204119 
4032.000000	65.205645 
4031.000000	65.200114 
4030.000000	65.186810 
4029.000000	65.165829 
4028.000000	65.138459 
4027.000000	65.106678 
4026.000000	65.073323 
4025.000000	65.041708 
4024.000000	65.015387 
4023.000000	64.997458 
4022.000000	64.990162 
4021.000000	64.994239 
4020.000000	65.008902 
4019.000000	65.031766 
4018.000000	65.059399 
4017.000000	65.087628 
4016.000000	65.112495 
4015.000000	65.130662 
4014.000000	65.140151 
4013.000000	65.140724 
4012.000000	65.133357 
4011.000000	65.119886 
4010.000000	65.102672 
4009.000000	65.084218 
4008.000000	65.066695 
4007.000000	65.051889 
4006.000000	65.041279 
4005.000000	65.036344 
4004.000000	65.038394 
4003.000000	65.048503 
4002.000000	65.067577 
4001.000000	65.095520 
4000.000000	65.130996 
3999.000000	65.171146 
3998.000000	65.211606 
3997.000000	65.247583 
3996.000000	65.274477 
3995.000000	65.289235 
3994.000000	65.290737 
3993.000000	65.280580 
3992.000000	65.262389 
3991.000000	65.241551 
3990.000000	65.223813 
3989.000000	65.214490 
3988.000000	65.217471 
3987.000000	65.234422 
3986.000000	65.264368 
3985.000000	65.303993 
3984.000000	65.348410 
3983.000000	65.391969 
3982.000000	65.429472 
3981.000000	65.457487 
3980.000000	65.474963 
3979.000000	65.483784 
3978.000000	65.487670 
3977.000000	65.491414 
3976.000000	65.499019 
3975.000000	65.513134 
3974.000000	65.533566 
3973.000000	65.557360 
3972.000000	65.579295 
3971.000000	65.593910 
3970.000000	65.596580 
3969.000000	65.585565 
3968.000000	65.562033 
3967.000000	65.530300 
3966.000000	65.496182 
3965.000000	65.465521 
3964.000000	65.441989 
3963.000000	65.426087 
3962.000000	65.415072 
3961.000000	65.404152 
3960.000000	65.388131 
3959.000000	65.363240 
3958.000000	65.328454 
3957.000000	65.286111 
3956.000000	65.241432 
3955.000000	65.200972 
3954.000000	65.171217 
3953.000000	65.157198 
3952.000000	65.160655 
3951.000000	65.180563 
3950.000000	65.213584 
3949.000000	65.255594 
3948.000000	65.302348 
3947.000000	65.350890 
3946.000000	65.399813 
3945.000000	65.449118 
3944.000000	65.499043 
3943.000000	65.548968 
3942.000000	65.597105 
3941.000000	65.639638 
3940.000000	65.671944 
3939.000000	65.688943 
3938.000000	65.686964 
3937.000000	65.664792 
3936.000000	65.624618 
3935.000000	65.571475 
3934.000000	65.512776 
3933.000000	65.456652 
3932.000000	65.410637 
3931.000000	65.379738 
3930.000000	65.365481 
3929.000000	65.365910 
3928.000000	65.376400 
3927.000000	65.390706 
3926.000000	65.402841 
3925.000000	65.407991 
3924.000000	65.403890 
3923.000000	65.390491 
3922.000000	65.370035 
3921.000000	65.345978 
3920.000000	65.322041 
3919.000000	65.301346 
3918.000000	65.285778 
3917.000000	65.275812 
3916.000000	65.270423 
3915.000000	65.267825 
3914.000000	65.265989 
3913.000000	65.262913 
3912.000000	65.257692 
3911.000000	65.250468 
3910.000000	65.242719 
3909.000000	65.236544 
3908.000000	65.234565 
3907.000000	65.239000 
3906.000000	65.251135 
3905.000000	65.270781 
3904.000000	65.296030 
3903.000000	65.323472 
3902.000000	65.348792 
3901.000000	65.367794 
3900.000000	65.376853 
3899.000000	65.373969 
3898.000000	65.359282 
3897.000000	65.335297 
3896.000000	65.306138 
3895.000000	65.277004 
3894.000000	65.253019 
3893.000000	65.238070 
3892.000000	65.234422 
3891.000000	65.241837 
3890.000000	65.258193 
3889.000000	65.279698 
3888.000000	65.301585 
3887.000000	65.319323 
3886.000000	65.329504 
3885.000000	65.330553 
3884.000000	65.322566 
3883.000000	65.307474 
3882.000000	65.288138 
3881.000000	65.267968 
3880.000000	65.249919 
3879.000000	65.236020 
3878.000000	65.226793 
3877.000000	65.221810 
3876.000000	65.219831 
3875.000000	65.219521 
3874.000000	65.219926 
3873.000000	65.220451 
3872.000000	65.221333 
3871.000000	65.223002 
3870.000000	65.226173 
3869.000000	65.231108 
3868.000000	65.237855 
3867.000000	65.245771 
3866.000000	65.254259 
3865.000000	65.262365 
3864.000000	65.270185 
3863.000000	65.278220 
3862.000000	65.288114 
3861.000000	65.302109 
3860.000000	65.322351 
3859.000000	65.350461 
3858.000000	65.385913 
3857.000000	65.426015 
3856.000000	65.465497 
3855.000000	65.497612 
3854.000000	65.515398 
3853.000000	65.513586 
3852.000000	65.490031 
3851.000000	65.446686 
3850.000000	65.389275 
3849.000000	65.326476 
3848.000000	65.268111 
3847.000000	65.223097 
3846.000000	65.197825 
3845.000000	65.194988 
3844.000000	65.213203 
3843.000000	65.247631 
3842.000000	65.291070 
3841.000000	65.335631 
3840.000000	65.373921 
3839.000000	65.400624 
3838.000000	65.412688 
3837.000000	65.410137 
3836.000000	65.394878 
3835.000000	65.370798 
3834.000000	65.342736 
3833.000000	65.315437 
3832.000000	65.293192 
3831.000000	65.278601 
3830.000000	65.272998 
3829.000000	65.275669 
3828.000000	65.284514 
3827.000000	65.296459 
3826.000000	65.308356 
3825.000000	65.317416 
3824.000000	65.321731 
3823.000000	65.320587 
3822.000000	65.314388 
3821.000000	65.304183 
3820.000000	65.291309 
3819.000000	65.276861 
3818.000000	65.261650 
3817.000000	65.245985 
3816.000000	65.230393 
3815.000000	65.215611 
3814.000000	65.202903 
3813.000000	65.194272 
3812.000000	65.192031 
3811.000000	65.197920 
3810.000000	65.212845 
3809.000000	65.235900 
3808.000000	65.264558 
3807.000000	65.295052 
3806.000000	65.322995 
3805.000000	65.344381 
3804.000000	65.356016 
3803.000000	65.356135 
3802.000000	65.344715 
3801.000000	65.323567 
3800.000000	65.295600 
3799.000000	65.264177 
3798.000000	65.232634 
3797.000000	65.204000 
3796.000000	65.180134 
3795.000000	65.161728 
3794.000000	65.148210 
3793.000000	65.138101 
3792.000000	65.129351 
3791.000000	65.120005 
3790.000000	65.108418 
3789.000000	65.093874 
3788.000000	65.076804 
3787.000000	65.058779 
3786.000000	65.042233 
3785.000000	65.029883 
3784.000000	65.023517 
3783.000000	65.024209 
3782.000000	65.031433 
3781.000000	65.043807 
3780.000000	65.059232 
3779.000000	65.075802 
3778.000000	65.092229 
3777.000000	65.108418 
3776.000000	65.125203 
3775.000000	65.144109 
3774.000000	65.166592 
3773.000000	65.193629 
3772.000000	65.225219 
3771.000000	65.260004 
3770.000000	65.295553 
3769.000000	65.328574 
3768.000000	65.355372 
3767.000000	65.372681 
3766.000000	65.378499 
3765.000000	65.372109 
3764.000000	65.354633 
3763.000000	65.328764 
3762.000000	65.298604 
3761.000000	65.269017 
3760.000000	65.245151 
3759.000000	65.231442 
3758.000000	65.230846 
3757.000000	65.244293 
3756.000000	65.270614 
3755.000000	65.306544 
3754.000000	65.347790 
3753.000000	65.389680 
3752.000000	65.428113 
3751.000000	65.460276 
3750.000000	65.484762 
3749.000000	65.501499 
3748.000000	65.511465 
3747.000000	65.515708 
3746.000000	65.515494 
3745.000000	65.512013 
3744.000000	65.506267 
3743.000000	65.499281 
3742.000000	65.491962 
3741.000000	65.485262 
3740.000000	65.479588 
3739.000000	65.474915 
3738.000000	65.470290 
3737.000000	65.464019 
3736.000000	65.453886 
3735.000000	65.437746 
3734.000000	65.414190 
3733.000000	65.383243 
3732.000000	65.346693 
3731.000000	65.307927 
3730.000000	65.271234 
3729.000000	65.241026 
3728.000000	65.220499 
3727.000000	65.211272 
3726.000000	65.212965 
3725.000000	65.223312 
3724.000000	65.238618 
3723.000000	65.254902 
3722.000000	65.268659 
3721.000000	65.277695 
3720.000000	65.280890 
3719.000000	65.278840 
3718.000000	65.272974 
3717.000000	65.265321 
3716.000000	65.257787 
3715.000000	65.251898 
3714.000000	65.248489 
3713.000000	65.247988 
3712.000000	65.250658 
3711.000000	65.256524 
3710.000000	65.265679 
3709.000000	65.278291 
3708.000000	65.294218 
3707.000000	65.312790 
3706.000000	65.332508 
3705.000000	65.351223 
3704.000000	65.366387 
3703.000000	65.375518 
3702.000000	65.376591 
3701.000000	65.368795 
3700.000000	65.352559 
3699.000000	65.329551 
3698.000000	65.302562 
3697.000000	65.274810 
3696.000000	65.249824 
3695.000000	65.230631 
3694.000000	65.219473 
3693.000000	65.217614 
3692.000000	65.225076 
3691.000000	65.241074 
3690.000000	65.263772 
3689.000000	65.290617 
3688.000000	65.318870 
3687.000000	65.346050 
3686.000000	65.370202 
3685.000000	65.390181 
3684.000000	65.405774 
3683.000000	65.417671 
3682.000000	65.427231 
3681.000000	65.435814 
3680.000000	65.444612 
3679.000000	65.453958 
3678.000000	65.463399 
3677.000000	65.471601 
3676.000000	65.476965 
3675.000000	65.477752 
3674.000000	65.473031 
3673.000000	65.462470 
3672.000000	65.446639 
3671.000000	65.426778 
3670.000000	65.404486 
3669.000000	65.381240 
3668.000000	65.358233 
3667.000000	65.335988 
3666.000000	65.314626 
3665.000000	65.293908 
3664.000000	65.273451 
3663.000000	65.253067 
3662.000000	65.233230 
3661.000000	65.214800 
3660.000000	65.199065 
3659.000000	65.187358 
3658.000000	65.180945 
3657.000000	65.180587 
3656.000000	65.186572 
3655.000000	65.198230 
3654.000000	65.214371 
3653.000000	65.233421 
3652.000000	65.253782 
3651.000000	65.273976 
3650.000000	65.292859 
3649.000000	65.309929 
3648.000000	65.325188 
3647.000000	65.338802 
3646.000000	65.350914 
3645.000000	65.361380 
3644.000000	65.369558 
3643.000000	65.374469 
3642.000000	65.375304 
3641.000000	65.371584 
3640.000000	65.363693 
3639.000000	65.353131 
3638.000000	65.342283 
3637.000000	65.333986 
3636.000000	65.331053 
3635.000000	65.335631 
3634.000000	65.348577 
3633.000000	65.369248 
3632.000000	65.395569 
3631.000000	65.424513 
3630.000000	65.452527 
3629.000000	65.476250 
3628.000000	65.492987 
3627.000000	65.501117 
3626.000000	65.500378 
3625.000000	65.491318 
3624.000000	65.475416 
3623.000000	65.454339 
3622.000000	65.429878 
3621.000000	65.403461 
3620.000000	65.376305 
3619.000000	65.349245 
3618.000000	65.323090 
3617.000000	65.298628 
3616.000000	65.276551 
3615.000000	65.257740 
3614.000000	65.242886 
3613.000000	65.232586 
3612.000000	65.227055 
3611.000000	65.226221 
3610.000000	65.229606 
3609.000000	65.236687 
3608.000000	65.246438 
3607.000000	65.257883 
3606.000000	65.270042 
3605.000000	65.281963 
3604.000000	65.292549 
3603.000000	65.300655 
3602.000000	65.305161 
3601.000000	65.304946 
3600.000000	65.299487 
3599.000000	65.288901 
3598.000000	65.274190 
3597.000000	65.257263 
3596.000000	65.240383 
3595.000000	65.225911 
3594.000000	65.215682 
3593.000000	65.210843 
3592.000000	65.211582 
3591.000000	65.217089 
3590.000000	65.226006 
3589.000000	65.236902 
3588.000000	65.248274 
3587.000000	65.258860 
3586.000000	65.267729 
3585.000000	65.274119 
3584.000000	65.277481 
3583.000000	65.277433 
3582.000000	65.273833 
3581.000000	65.266871 
3580.000000	65.257143 
3579.000000	65.245914 
3578.000000	65.234780 
3577.000000	65.225338 
3576.000000	65.218710 
3575.000000	65.215206 
3574.000000	65.214109 
3573.000000	65.214204 
3572.000000	65.213942 
3571.000000	65.212345 
3570.000000	65.209484 
3569.000000	65.206384 
3568.000000	65.204954 
3567.000000	65.207242 
3566.000000	65.214800 
3565.000000	65.228104 
3564.000000	65.246057 
3563.000000	65.266370 
3562.000000	65.285873 
3561.000000	65.301251 
3560.000000	65.309834 
3559.000000	65.310168 
3558.000000	65.302228 
3557.000000	65.287399 
3556.000000	65.268063 
3555.000000	65.247082 
3554.000000	65.227103 
3553.000000	65.210485 
3552.000000	65.199041 
3551.000000	65.193963 
3550.000000	65.195918 
3549.000000	65.204906 
3548.000000	65.220260 
3547.000000	65.240669 
3546.000000	65.264248 
3545.000000	65.288829 
3544.000000	65.312290 
3543.000000	65.333056 
3542.000000	65.349841 
3541.000000	65.361833 
3540.000000	65.368652 
3539.000000	65.370464 
3538.000000	65.367555 
3537.000000	65.360569 
3536.000000	65.349864 
3535.000000	65.336489 
3534.000000	65.320897 
3533.000000	65.303611 
3532.000000	65.284729 
3531.000000	65.264248 
3530.000000	65.242290 
3529.000000	65.219402 
3528.000000	65.196514 
3527.000000	65.174770 
3526.000000	65.155601 
3525.000000	65.140366 
3524.000000	65.129947 
3523.000000	65.124487 
3522.000000	65.123414 
3521.000000	65.125823 
3520.000000	65.130376 
3519.000000	65.136122 
3518.000000	65.142345 
3517.000000	65.149354 
3516.000000	65.157794 
3515.000000	65.169072 
3514.000000	65.184354 
3513.000000	65.204906 
3512.000000	65.231108 
3511.000000	65.262532 
3510.000000	65.298175 
3509.000000	65.336012 
3508.000000	65.373873 
3507.000000	65.408849 
3506.000000	65.438079 
3505.000000	65.458559 
3504.000000	65.467929 
3503.000000	65.464472 
3502.000000	65.447926 
3501.000000	65.419197 
3500.000000	65.380525 
3499.000000	65.334916 
3498.000000	65.285706 
3497.000000	65.235996 
3496.000000	65.188670 
3495.000000	65.145802 
3494.000000	65.109062 
3493.000000	65.079736 
3492.000000	65.059113 
3491.000000	65.048050 
3490.000000	65.047335 
3489.000000	65.056800 
3488.000000	65.075755 
3487.000000	65.102124 
3486.000000	65.133595 
3485.000000	65.166687 
3484.000000	65.198540 
3483.000000	65.226817 
3482.000000	65.250325 
3481.000000	65.268898 
3480.000000	65.282797 
3479.000000	65.292501 
3478.000000	65.297627 
3477.000000	65.296959 
3476.000000	65.288639 
3475.000000	65.270829 
3474.000000	65.242505 
3473.000000	65.204405 
3472.000000	65.159440 
3471.000000	65.112471 
3470.000000	65.069675 
3469.000000	65.037226 
3468.000000	65.019822 
3467.000000	65.019750 
3466.000000	65.036249 
3465.000000	65.065765 
3464.000000	65.102505 
3463.000000	65.139913 
3462.000000	65.172100 
3461.000000	65.195035 
3460.000000	65.206813 
3459.000000	65.208077 
3458.000000	65.201234 
3457.000000	65.189790 
3456.000000	65.177226 
3455.000000	65.166497 
3454.000000	65.159392 
3453.000000	65.156483 
3452.000000	65.157604 
3451.000000	65.161585 
3450.000000	65.167260 
3449.000000	65.173220 
3448.000000	65.178346 
3447.000000	65.181565 
3446.000000	65.182161 
3445.000000	65.179610 
3444.000000	65.173625 
3443.000000	65.164422 
3442.000000	65.152692 
3441.000000	65.139675 
3440.000000	65.126872 
3439.000000	65.115714 
3438.000000	65.107464 
3437.000000	65.102767 
3436.000000	65.101599 
3435.000000	65.103244 
3434.000000	65.106797 
3433.000000	65.111660 
3432.000000	65.117859 
3431.000000	65.125918 
3430.000000	65.136909 
3429.000000	65.152072 
3428.000000	65.172171 
3427.000000	65.197038 
3426.000000	65.225315 
3425.000000	65.254402 
3424.000000	65.281343 
3423.000000	65.303254 
3422.000000	65.318131 
3421.000000	65.325284 
3420.000000	65.325665 
3419.000000	65.321564 
3418.000000	65.315699 
3417.000000	65.310525 
3416.000000	65.307545 
3415.000000	65.306949 
3414.000000	65.307354 
3413.000000	65.306496 
3412.000000	65.301871 
3411.000000	65.291714 
3410.000000	65.275263 
3409.000000	65.253281 
3408.000000	65.227484 
3407.000000	65.200448 
3406.000000	65.174937 
3405.000000	65.153336 
3404.000000	65.137171 
3403.000000	65.127062 
3402.000000	65.123057 
3401.000000	65.124654 
3400.000000	65.131187 
3399.000000	65.141940 
3398.000000	65.156197 
3397.000000	65.173292 
3396.000000	65.192055 
3395.000000	65.211105 
3394.000000	65.228843 
3393.000000	65.243840 
3392.000000	65.254974 
3391.000000	65.262222 
3390.000000	65.266633 
3389.000000	65.270280 
3388.000000	65.275526 
3387.000000	65.284371 
3386.000000	65.297579 
3385.000000	65.314245 
3384.000000	65.331768 
3383.000000	65.346217 
3382.000000	65.353274 
3381.000000	65.349507 
3380.000000	65.333127 
3379.000000	65.304875 
3378.000000	65.267848 
3377.000000	65.226984 
3376.000000	65.187907 
3375.000000	65.155506 
3374.000000	65.133166 
3373.000000	65.122103 
3372.000000	65.121364 
3371.000000	65.128517 
3370.000000	65.140318 
3369.000000	65.153670 
3368.000000	65.166139 
3367.000000	65.176081 
3366.000000	65.182876 
3365.000000	65.186214 
3364.000000	65.186333 
3363.000000	65.183568 
3362.000000	65.178513 
3361.000000	65.171742 
3360.000000	65.164017 
3359.000000	65.156197 
3358.000000	65.149116 
3357.000000	65.143203 
3356.000000	65.138363 
3355.000000	65.133905 
3354.000000	65.128588 
3353.000000	65.121293 
3352.000000	65.111184 
3351.000000	65.098285 
3350.000000	65.083503 
3349.000000	65.068697 
3348.000000	65.055918 
3347.000000	65.047335 
3346.000000	65.044212 
3345.000000	65.047121 
3344.000000	65.055704 
3343.000000	65.068840 
3342.000000	65.085148 
3341.000000	65.102934 
3340.000000	65.120553 
3339.000000	65.136337 
3338.000000	65.148854 
3337.000000	65.157175 
3336.000000	65.160727 
3335.000000	65.159773 
3334.000000	65.155291 
3333.000000	65.149188 
3332.000000	65.143847 
3331.000000	65.142035 
3330.000000	65.146017 
3329.000000	65.157294 
3328.000000	65.176129 
3327.000000	65.201306 
3326.000000	65.230274 
3325.000000	65.259695 
3324.000000	65.285897 
3323.000000	65.305805 
3322.000000	65.317225 
3321.000000	65.319347 
3320.000000	65.312528 
3319.000000	65.298342 
3318.000000	65.279102 
3317.000000	65.257406 
3316.000000	65.235757 
3315.000000	65.216469 
3314.000000	65.201330 
3313.000000	65.191483 
3312.000000	65.187406 
3311.000000	65.188956 
3310.000000	65.195155 
3309.000000	65.204405 
3308.000000	65.214443 
3307.000000	65.222740 
3306.000000	65.226745 
3305.000000	65.224552 
3304.000000	65.214967 
3303.000000	65.198111 
3302.000000	65.175366 
3301.000000	65.149188 
3300.000000	65.122652 
3299.000000	65.099048 
3298.000000	65.081429 
3297.000000	65.071988 
3296.000000	65.071725 
3295.000000	65.080404 
3294.000000	65.096569 
3293.000000	65.117859 
3292.000000	65.141248 
3291.000000	65.163755 
3290.000000	65.182805 
3289.000000	65.196919 
3288.000000	65.205430 
3287.000000	65.208840 
3286.000000	65.208125 
3285.000000	65.204906 
3284.000000	65.200853 
3283.000000	65.197348 
3282.000000	65.195322 
3281.000000	65.195155 
3280.000000	65.196585 
3279.000000	65.198731 
3278.000000	65.200376 
3277.000000	65.200161 
3276.000000	65.196967 
3275.000000	65.190005 
3274.000000	65.179228 
3273.000000	65.165352 
3272.000000	65.149664 
3271.000000	65.134024 
3270.000000	65.120530 
3269.000000	65.110850 
3268.000000	65.106225 
3267.000000	65.106892 
3266.000000	65.112328 
3265.000000	65.121531 
3264.000000	65.133309 
3263.000000	65.146613 
3262.000000	65.160775 
3261.000000	65.175557 
3260.000000	65.190505 
3259.000000	65.204977 
3258.000000	65.217638 
3257.000000	65.226364 
3256.000000	65.228819 
3255.000000	65.223145 
3254.000000	65.208411 
3253.000000	65.185236 
3252.000000	65.156173 
3251.000000	65.125107 
3250.000000	65.096640 
3249.000000	65.074992 
3248.000000	65.062713 
3247.000000	65.060377 
3246.000000	65.066432 
3245.000000	65.077710 
3244.000000	65.090465 
3243.000000	65.101552 
3242.000000	65.109229 
3241.000000	65.113830 
3240.000000	65.116977 
3239.000000	65.121436 
3238.000000	65.129590 
3237.000000	65.143203 
3236.000000	65.162587 
3235.000000	65.186524 
3234.000000	65.212774 
3233.000000	65.238046 
3232.000000	65.259242 
3231.000000	65.273404 
3230.000000	65.278482 
3229.000000	65.273356 
3228.000000	65.257883 
3227.000000	65.232920 
3226.000000	65.200328 
3225.000000	65.162825 
3224.000000	65.123677 
3223.000000	65.086793 
3222.000000	65.055942 
3221.000000	65.034389 
3220.000000	65.024399 
3219.000000	65.026688 
3218.000000	65.040540 
3217.000000	65.063881 
3216.000000	65.093779 
3215.000000	65.126800 
3214.000000	65.159559 
3213.000000	65.189027 
3212.000000	65.212869 
3211.000000	65.229105 
3210.000000	65.236616 
3209.000000	65.234756 
3208.000000	65.223574 
3207.000000	65.203809 
3206.000000	65.176963 
3205.000000	65.145349 
3204.000000	65.111899 
3203.000000	65.080261 
3202.000000	65.054178 
3201.000000	65.037035 
3200.000000	65.031361 
3199.000000	65.038371 
3198.000000	65.057420 
3197.000000	65.086174 
3196.000000	65.120911 
3195.000000	65.156960 
3194.000000	65.189290 
3193.000000	65.213370 
3192.000000	65.225982 
3191.000000	65.225911 
3190.000000	65.213680 
3189.000000	65.191864 
3188.000000	65.164375 
3187.000000	65.135598 
3186.000000	65.109705 
3185.000000	65.089869 
3184.000000	65.077686 
3183.000000	65.073204 
3182.000000	65.075540 
3181.000000	65.082907 
3180.000000	65.093302 
3179.000000	65.105152 
3178.000000	65.117311 
3177.000000	65.129446 
3176.000000	65.141510 
3175.000000	65.153765 
3174.000000	65.166425 
3173.000000	65.179562 
3172.000000	65.192985 
3171.000000	65.206384 
3170.000000	65.219116 
3169.000000	65.230774 
3168.000000	65.240907 
3167.000000	65.249109 
3166.000000	65.254855 
3165.000000	65.257573 
3164.000000	65.256857 
3163.000000	65.252304 
3162.000000	65.243768 
3161.000000	65.231537 
3160.000000	65.216040 
3159.000000	65.197825 
3158.000000	65.177702 
3157.000000	65.156555 
3156.000000	65.135169 
3155.000000	65.114307 
3154.000000	65.094780 
3153.000000	65.077471 
3152.000000	65.063333 
3151.000000	65.052986 
3150.000000	65.046572 
3149.000000	65.043735 
3148.000000	65.043520 
3147.000000	65.044593 
3146.000000	65.045380 
3145.000000	65.044379 
3144.000000	65.040659 
3143.000000	65.034079 
3142.000000	65.025377 
3141.000000	65.016174 
3140.000000	65.008282 
3139.000000	65.003585 
3138.000000	65.003371 
3137.000000	65.008234 
3136.000000	65.017724 
3135.000000	65.030884 
3134.000000	65.046119 
3133.000000	65.062093 
3132.000000	65.077829 
3131.000000	65.092825 
3130.000000	65.107178 
3129.000000	65.121340 
3128.000000	65.135622 
3127.000000	65.149855 
3126.000000	65.163254 
3125.000000	65.174436 
3124.000000	65.181541 
3123.000000	65.182852 
3122.000000	65.177226 
3121.000000	65.164494 
3120.000000	65.145826 
3119.000000	65.123581 
3118.000000	65.101170 
3117.000000	65.082406 
3116.000000	65.070772 
3115.000000	65.068960 
3114.000000	65.078234 
3113.000000	65.098261 
3112.000000	65.127062 
3111.000000	65.161561 
3110.000000	65.197992 
3109.000000	65.232539 
3108.000000	65.262103 
3107.000000	65.284442 
3106.000000	65.298795 
3105.000000	65.305566 
3104.000000	65.306091 
3103.000000	65.302276 
3102.000000	65.295624 
3101.000000	65.287518 
3100.000000	65.278458 
3099.000000	65.268278 
3098.000000	65.256333 
3097.000000	65.242218 
3096.000000	65.225887 
3095.000000	65.208053 
3094.000000	65.190219 
3093.000000	65.174460 
3092.000000	65.163135 
3091.000000	65.158081 
3090.000000	65.160441 
3089.000000	65.170454 
3088.000000	65.187168 
3087.000000	65.208864 
3086.000000	65.233206 
3085.000000	65.257740 
3084.000000	65.280318 
3083.000000	65.299320 
3082.000000	65.313959 
3081.000000	65.324068 
3080.000000	65.329933 
3079.000000	65.331935 
3078.000000	65.330934 
3077.000000	65.327334 
3076.000000	65.321588 
3075.000000	65.313553 
3074.000000	65.303206 
3073.000000	65.290212 
3072.000000	65.274477 
3071.000000	65.255928 
3070.000000	65.234875 
3069.000000	65.211915 
3068.000000	65.188026 
3067.000000	65.164542 
3066.000000	65.142965 
3065.000000	65.124702 
3064.000000	65.110754 
3063.000000	65.101695 
3062.000000	65.097546 
3061.000000	65.097618 
3060.000000	65.100932 
3059.000000	65.106034 
3058.000000	65.111756 
3057.000000	65.117144 
3056.000000	65.121555 
3055.000000	65.124917 
3054.000000	65.127563 
3053.000000	65.129899 
3052.000000	65.132141 
3051.000000	65.134263 
3050.000000	65.135908 
3049.000000	65.136575 
3048.000000	65.135836 
3047.000000	65.133547 
3046.000000	65.130090 
3045.000000	65.126419 
3044.000000	65.123438 
3043.000000	65.121769 
3042.000000	65.121459 
3041.000000	65.121722 
3040.000000	65.121078 
3039.000000	65.117669 
3038.000000	65.110039 
3037.000000	65.097451 
3036.000000	65.080285 
3035.000000	65.060091 
3034.000000	65.039277 
3033.000000	65.020823 
3032.000000	65.007519 
3031.000000	65.001416 
3030.000000	65.003347 
3029.000000	65.013098 
3028.000000	65.029144 
3027.000000	65.049505 
3026.000000	65.071773 
3025.000000	65.093803 
3024.000000	65.113949 
3023.000000	65.131306 
3022.000000	65.145468 
3021.000000	65.156674 
3020.000000	65.165448 
3019.000000	65.172553 
3018.000000	65.178775 
3017.000000	65.184664 
3016.000000	65.190720 
3015.000000	65.197181 
3014.000000	65.204262 
3013.000000	65.212059 
3012.000000	65.220808 
3011.000000	65.230584 
3010.000000	65.241289 
3009.000000	65.252614 
3008.000000	65.263772 
3007.000000	65.273785 
3006.000000	65.281343 
3005.000000	65.285396 
3004.000000	65.285253 
3003.000000	65.281105 
3002.000000	65.273642 
3001.000000	65.264296 
3000.000000	65.254473 
2999.000000	65.245485 
2998.000000	65.238070 
2997.000000	65.232491 
2996.000000	65.228104 
2995.000000	65.223813 
2994.000000	65.218234 
2993.000000	65.210318 
2992.000000	65.199565 
2991.000000	65.185976 
2990.000000	65.170335 
2989.000000	65.153884 
2988.000000	65.138149 
2987.000000	65.124392 
2986.000000	65.113401 
2985.000000	65.105485 
2984.000000	65.100479 
2983.000000	65.097856 
2982.000000	65.096974 
2981.000000	65.097403 
2980.000000	65.099048 
2979.000000	65.101933 
2978.000000	65.106630 
2977.000000	65.113425 
2976.000000	65.122342 
2975.000000	65.132546 
2974.000000	65.142416 
2973.000000	65.149617 
2972.000000	65.151619 
2971.000000	65.146470 
2970.000000	65.133357 
2969.000000	65.113043 
2968.000000	65.088129 
2967.000000	65.062117 
2966.000000	65.038919 
2965.000000	65.021705 
2964.000000	65.012168 
2963.000000	65.010142 
2962.000000	65.013837 
2961.000000	65.020442 
2960.000000	65.027022 
2959.000000	65.031313 
2958.000000	65.032458 
2957.000000	65.031027 
2956.000000	65.028715 
2955.000000	65.027594 
2954.000000	65.029430 
2953.000000	65.034866 
2952.000000	65.043234 
2951.000000	65.052843 
2950.000000	65.061354 
2949.000000	65.066671 
2948.000000	65.067529 
2947.000000	65.063858 
2946.000000	65.056657 
2945.000000	65.047764 
2944.000000	65.039348 
2943.000000	65.033316 
2942.000000	65.030908 
2941.000000	65.032362 
2940.000000	65.037012 
2939.000000	65.043544 
2938.000000	65.050172 
2937.000000	65.055489 
2936.000000	65.058636 
2935.000000	65.059685 
2934.000000	65.059328 
2933.000000	65.058827 
2932.000000	65.059304 
2931.000000	65.061283 
2930.000000	65.064454 
2929.000000	65.067768 
2928.000000	65.069675 
2927.000000	65.068531 
2926.000000	65.063309 
2925.000000	65.053820 
2924.000000	65.040993 
2923.000000	65.026760 
2922.000000	65.013337 
2921.000000	65.002965 
2920.000000	64.997172 
2919.000000	64.996433 
2918.000000	65.000104 
2917.000000	65.006661 
2916.000000	65.014243 
2915.000000	65.020966 
2914.000000	65.025544 
2913.000000	65.027117 
2912.000000	65.025401 
2911.000000	65.020418 
2910.000000	65.012502 
2909.000000	65.002179 
2908.000000	64.990115 
2907.000000	64.977312 
2906.000000	64.965200 
2905.000000	64.955377 
2904.000000	64.949393 
2903.000000	64.948606 
2902.000000	64.953708 
2901.000000	64.964461 
2900.000000	64.979791 
2899.000000	64.997792 
2898.000000	65.016222 
2897.000000	65.032815 
2896.000000	65.045833 
2895.000000	65.054368 
2894.000000	65.058326 
2893.000000	65.058445 
2892.000000	65.055942 
2891.000000	65.052056 
2890.000000	65.048241 
2889.000000	65.045475 
2888.000000	65.044355 
2887.000000	65.045118 
2886.000000	65.047502 
2885.000000	65.051150 
2884.000000	65.055322 
2883.000000	65.059185 
2882.000000	65.062189 
2881.000000	65.064167 
2880.000000	65.065670 
2879.000000	65.067601 
2878.000000	65.071415 
2877.000000	65.078520 
2876.000000	65.090060 
2875.000000	65.106487 
2874.000000	65.127182 
2873.000000	65.150690 
2872.000000	65.174794 
2871.000000	65.197205 
2870.000000	65.216088 
2869.000000	65.230488 
2868.000000	65.240764 
2867.000000	65.248012 
2866.000000	65.254092 
2865.000000	65.260481 
2864.000000	65.267920 
2863.000000	65.275883 
2862.000000	65.282869 
2861.000000	65.286350 
2860.000000	65.283894 
2859.000000	65.273499 
2858.000000	65.254497 
2857.000000	65.227532 
2856.000000	65.194821 
2855.000000	65.159511 
2854.000000	65.125131 
2853.000000	65.094900 
2852.000000	65.071153 
2851.000000	65.055012 
2850.000000	65.046429 
2849.000000	65.044474 
2848.000000	65.047645 
2847.000000	65.054416 
2846.000000	65.063571 
2845.000000	65.074133 
2844.000000	65.085458 
2843.000000	65.097284 
2842.000000	65.109348 
2841.000000	65.121197 
2840.000000	65.132093 
2839.000000	65.141248 
2838.000000	65.147805 
2837.000000	65.151095 
2836.000000	65.150737 
2835.000000	65.146946 
2834.000000	65.140533 
2833.000000	65.132737 
2832.000000	65.125107 
2831.000000	65.118885 
2830.000000	65.115022 
2829.000000	65.113949 
2828.000000	65.115737 
2827.000000	65.119981 
2826.000000	65.126204 
2825.000000	65.133810 
2824.000000	65.142202 
2823.000000	65.150713 
2822.000000	65.158557 
2821.000000	65.164804 
2820.000000	65.168428 
2819.000000	65.168237 
2818.000000	65.163302 
2817.000000	65.153098 
2816.000000	65.137648 
2815.000000	65.117740 
2814.000000	65.094757 
2813.000000	65.070772 
2812.000000	65.047931 
2811.000000	65.028548 
2810.000000	65.014505 
2809.000000	65.007114 
2808.000000	65.007114 
2807.000000	65.014362 
2806.000000	65.028095 
2805.000000	65.047073 
2804.000000	65.069532 
2803.000000	65.093517 
2802.000000	65.116834 
2801.000000	65.137195 
2800.000000	65.152311 
2799.000000	65.160250 
2798.000000	65.159583 
2797.000000	65.149712 
2796.000000	65.131020 
2795.000000	65.105152 
2794.000000	65.074968 
2793.000000	65.043997 
2792.000000	65.016245 
2791.000000	64.995312 
2790.000000	64.984035 
2789.000000	64.983797 
2788.000000	64.994573 
2787.000000	65.014648 
2786.000000	65.041184 
2785.000000	65.070581 
2784.000000	65.099215 
2783.000000	65.123820 
2782.000000	65.142178 
2781.000000	65.153002 
2780.000000	65.156102 
2779.000000	65.152335 
2778.000000	65.143227 
2777.000000	65.130519 
2776.000000	65.116143 
2775.000000	65.101814 
2774.000000	65.089178 
2773.000000	65.079593 
2772.000000	65.074086 
2771.000000	65.073370 
2770.000000	65.077567 
2769.000000	65.086388 
2768.000000	65.098905 
2767.000000	65.113735 
2766.000000	65.129017 
2765.000000	65.142822 
2764.000000	65.153479 
2763.000000	65.159797 
2762.000000	65.160870 
2761.000000	65.156555 
2760.000000	65.147209 
2759.000000	65.133810 
2758.000000	65.117859 
2757.000000	65.101075 
2756.000000	65.085291 
2755.000000	65.072178 
2754.000000	65.063047 
2753.000000	65.058588 
2752.000000	65.058660 
2751.000000	65.062570 
2750.000000	65.069031 
2749.000000	65.076637 
2748.000000	65.083956 
2747.000000	65.089941 
2746.000000	65.093970 
2745.000000	65.096092 
2744.000000	65.096807 
2743.000000	65.097117 
2742.000000	65.098142 
2741.000000	65.100979 
2740.000000	65.106606 
2739.000000	65.115690 
2738.000000	65.128350 
2737.000000	65.144371 
2736.000000	65.162801 
2735.000000	65.182113 
2734.000000	65.200042 
2733.000000	65.214085 
2732.000000	65.221881 
2731.000000	65.221452 
2730.000000	65.211987 
2729.000000	65.194034 
2728.000000	65.169477 
2727.000000	65.141177 
2726.000000	65.112543 
2725.000000	65.086889 
2724.000000	65.067028 
2723.000000	65.054678 
2722.000000	65.050220 
2721.000000	65.053057 
2720.000000	65.061497 
2719.000000	65.073704 
2718.000000	65.087580 
2717.000000	65.101313 
2716.000000	65.113544 
2715.000000	65.123486 
2714.000000	65.130925 
2713.000000	65.135979 
2712.000000	65.139365 
2711.000000	65.142035 
2710.000000	65.145397 
2709.000000	65.150809 
2708.000000	65.159273 
2707.000000	65.171408 
2706.000000	65.186953 
2705.000000	65.204858 
2704.000000	65.223813 
2703.000000	65.241956 
2702.000000	65.257644 
2701.000000	65.269398 
2700.000000	65.276288 
2699.000000	65.277862 
2698.000000	65.274190 
2697.000000	65.265679 
2696.000000	65.253090 
2695.000000	65.237355 
2694.000000	65.219664 
2693.000000	65.201115 
2692.000000	65.182757 
2691.000000	65.165615 
2690.000000	65.150618 
2689.000000	65.138554 
2688.000000	65.130114 
2687.000000	65.125775 
2686.000000	65.125775 
2685.000000	65.130186 
2684.000000	65.138888 
2683.000000	65.151333 
2682.000000	65.166187 
2681.000000	65.181779 
2680.000000	65.195894 
2679.000000	65.205955 
2678.000000	65.209794 
2677.000000	65.205955 
2676.000000	65.194249 
2675.000000	65.175938 
2674.000000	65.153479 
2673.000000	65.130043 
2672.000000	65.109109 
2671.000000	65.093493 
2670.000000	65.084934 
2669.000000	65.083789 
2668.000000	65.089154 
2667.000000	65.099239 
2666.000000	65.111851 
2665.000000	65.124940 
2664.000000	65.137004 
2663.000000	65.147209 
2662.000000	65.155053 
2661.000000	65.160298 
2660.000000	65.162444 
2659.000000	65.160799 
2658.000000	65.154099 
2657.000000	65.140867 
2656.000000	65.120148 
2655.000000	65.091848 
2654.000000	65.056872 
2653.000000	65.017294 
2652.000000	64.976286 
2651.000000	64.937591 
2650.000000	64.904904 
2649.000000	64.881372 
2648.000000	64.868903 
2647.000000	64.868068 
2646.000000	64.877986 
2645.000000	64.896512 
2644.000000	64.920663 
2643.000000	64.947128 
2642.000000	64.972639 
2641.000000	64.994406 
2640.000000	65.010380 
2639.000000	65.019321 
2638.000000	65.020775 
2637.000000	65.015292 
2636.000000	65.004205 
2635.000000	64.989614 
2634.000000	64.974069 
2633.000000	64.960455 
2632.000000	64.951443 
2631.000000	64.949083 
2630.000000	64.954519 
2629.000000	64.967679 
2628.000000	64.987206 
2627.000000	65.010595 
2626.000000	65.034580 
2625.000000	65.055918 
2624.000000	65.071821 
2623.000000	65.080332 
2622.000000	65.080833 
2621.000000	65.073943 
2620.000000	65.061354 
2619.000000	65.045166 
2618.000000	65.027618 
2617.000000	65.010809 
2616.000000	64.996147 
2615.000000	64.984583 
2614.000000	64.976429 
2613.000000	64.971709 
2612.000000	64.970088 
2611.000000	64.971280 
2610.000000	64.974808 
2609.000000	64.979887 
2608.000000	64.985728 
2607.000000	64.991378 
2606.000000	64.996051 
2605.000000	64.999055 
2604.000000	64.999985 
2603.000000	64.998912 
2602.000000	64.996457 
2601.000000	64.993643 
2600.000000	64.991736 
2599.000000	64.992141 
2598.000000	64.995908 
2597.000000	65.003681 
2596.000000	65.015363 
2595.000000	65.030145 
2594.000000	65.046834 
2593.000000	65.063881 
2592.000000	65.079879 
2591.000000	65.093684 
2590.000000	65.104460 
2589.000000	65.111899 
2588.000000	65.115904 
2587.000000	65.116667 
2586.000000	65.114402 
2585.000000	65.109562 
2584.000000	65.102648 
2583.000000	65.094351 
2582.000000	65.085649 
2581.000000	65.077733 
2580.000000	65.071845 
2579.000000	65.068912 
2578.000000	65.069532 
2577.000000	65.073442 
2576.000000	65.079879 
2575.000000	65.087413 
2574.000000	65.094518 
2573.000000	65.099906 
2572.000000	65.103125 
2571.000000	65.104556 
2570.000000	65.105462 
2569.000000	65.107679 
2568.000000	65.113019 
2567.000000	65.122747 
2566.000000	65.137004 
2565.000000	65.154790 
2564.000000	65.173816 
2563.000000	65.191340 
2562.000000	65.204501 
2561.000000	65.211367 
2560.000000	65.211176 
2559.000000	65.204429 
2558.000000	65.192651 
2557.000000	65.177822 
2556.000000	65.161895 
2555.000000	65.146350 
2554.000000	65.131902 
2553.000000	65.118718 
2552.000000	65.106725 
2551.000000	65.095925 
2550.000000	65.086269 
2549.000000	65.077877 
2548.000000	65.070796 
2547.000000	65.065169 
2546.000000	65.060877 
2545.000000	65.057778 
2544.000000	65.055584 
2543.000000	65.054249 
2542.000000	65.053915 
2541.000000	65.054965 
2540.000000	65.057730 
2539.000000	65.062618 
2538.000000	65.069651 
2537.000000	65.078234 
2536.000000	65.087366 
2535.000000	65.095639 
2534.000000	65.101552 
2533.000000	65.104007 
2532.000000	65.102624 
2531.000000	65.097832 
2530.000000	65.090942 
2529.000000	65.083837 
2528.000000	65.078473 
2527.000000	65.076684 
2526.000000	65.079545 
2525.000000	65.087342 
2524.000000	65.099525 
2523.000000	65.114855 
2522.000000	65.131640 
2521.000000	65.148353 
2520.000000	65.163731 
2519.000000	65.176939 
2518.000000	65.187597 
2517.000000	65.195798 
2516.000000	65.201663 
2515.000000	65.205264 
2514.000000	65.206527 
2513.000000	65.205216 
2512.000000	65.200901 
2511.000000	65.193414 
2510.000000	65.182948 
2509.000000	65.170240 
2508.000000	65.156579 
2507.000000	65.143680 
2506.000000	65.133213 
2505.000000	65.126609 
2504.000000	65.124440 
2503.000000	65.126347 
2502.000000	65.130805 
2501.000000	65.135574 
2500.000000	65.138006 
2499.000000	65.135955 
2498.000000	65.128159 
2497.000000	65.114665 
2496.000000	65.096926 
2495.000000	65.077567 
2494.000000	65.059638 
2493.000000	65.046024 
2492.000000	65.038800 
2491.000000	65.038561 
2490.000000	65.044403 
2489.000000	65.054059 
2488.000000	65.064525 
2487.000000	65.072679 
2486.000000	65.076136 
2485.000000	65.073752 
2484.000000	65.065979 
2483.000000	65.054750 
2482.000000	65.042805 
2481.000000	65.033125 
2480.000000	65.027880 
2479.000000	65.028166 
2478.000000	65.033817 
2477.000000	65.043187 
2476.000000	65.053939 
2475.000000	65.063571 
2474.000000	65.070295 
2473.000000	65.073180 
2472.000000	65.072345 
2471.000000	65.068864 
2470.000000	65.064287 
2469.000000	65.059876 
2468.000000	65.056443 
2467.000000	65.054011 
2466.000000	65.052032 
2465.000000	65.049839 
2464.000000	65.046811 
2463.000000	65.042853 
2462.000000	65.038490 
2461.000000	65.034627 
2460.000000	65.032100 
2459.000000	65.031480 
2458.000000	65.032720 
2457.000000	65.035104 
2456.000000	65.037536 
2455.000000	65.038847 
2454.000000	65.038299 
2453.000000	65.035581 
2452.000000	65.031099 
2451.000000	65.025925 
2450.000000	65.021300 
2449.000000	65.018248 
2448.000000	65.017199 
2447.000000	65.018010 
2446.000000	65.020036 
2445.000000	65.022182 
2444.000000	65.023517 
2443.000000	65.023279 
2442.000000	65.021061 
2441.000000	65.016937 
2440.000000	65.011239 
2439.000000	65.004158 
2438.000000	64.995908 
2437.000000	64.986610 
2436.000000	64.976286 
2435.000000	64.965081 
2434.000000	64.953422 
2433.000000	64.942169 
2432.000000	64.932489 
2431.000000	64.925813 
2430.000000	64.923524 
2429.000000	64.926671 
2428.000000	64.935612 
2427.000000	64.949965 
2426.000000	64.968514 
2425.000000	64.989519 
2424.000000	65.010857 
2423.000000	65.030503 
2422.000000	65.046787 
2421.000000	65.058588 
2420.000000	65.065550 
2419.000000	65.067768 
2418.000000	65.065741 
2417.000000	65.060210 
2416.000000	65.051984 
2415.000000	65.041685 
2414.000000	65.029788 
2413.000000	65.016746 
2412.000000	65.003085 
2411.000000	64.989423 
2410.000000	64.976525 
2409.000000	64.965248 
2408.000000	64.956498 
2407.000000	64.950871 
2406.000000	64.948868 
2405.000000	64.950394 
2404.000000	64.955043 
2403.000000	64.962053 
2402.000000	64.970517 
2401.000000	64.979457 
2400.000000	64.987921 
2399.000000	64.995360 
2398.000000	65.001416 
2397.000000	65.006113 
2396.000000	65.009665 
2395.000000	65.012478 
2394.000000	65.015006 
2393.000000	65.017580 
2392.000000	65.020465 
2391.000000	65.023732 
2390.000000	65.027308 
2389.000000	65.031027 
2388.000000	65.034747 
2387.000000	65.038394 
2386.000000	65.042042 
2385.000000	65.045905 
2384.000000	65.050101 
2383.000000	65.054678 
2382.000000	65.059494 
2381.000000	65.064311 
2380.000000	65.068650 
2379.000000	65.072035 
2378.000000	65.073966 
2377.000000	65.074253 
2376.000000	65.072751 
2375.000000	65.069818 
2374.000000	65.065908 
2373.000000	65.061664 
2372.000000	65.057754 
2371.000000	65.054774 
2370.000000	65.053105 
2369.000000	65.052986 
2368.000000	65.054321 
2367.000000	65.056896 
2366.000000	65.060353 
2365.000000	65.064215 
2364.000000	65.068125 
2363.000000	65.071606 
2362.000000	65.074539 
2361.000000	65.077042 
2360.000000	65.079760 
2359.000000	65.083622 
2358.000000	65.089440 
2357.000000	65.097880 
2356.000000	65.108990 
2355.000000	65.122056 
2354.000000	65.135598 
2353.000000	65.147709 
2352.000000	65.156078 
2351.000000	65.158843 
2350.000000	65.154767 
2349.000000	65.143537 
2348.000000	65.125751 
2347.000000	65.102887 
2346.000000	65.077257 
2345.000000	65.051412 
2344.000000	65.028047 
2343.000000	65.009570 
2342.000000	64.997792 
2341.000000	64.993691 
2340.000000	64.997363 
2339.000000	65.007948 
2338.000000	65.023541 
2337.000000	65.041375 
2336.000000	65.058207 
2335.000000	65.070676 
2334.000000	65.076041 
2333.000000	65.072751 
2332.000000	65.060496 
2331.000000	65.040349 
2330.000000	65.014648 
2329.000000	64.986515 
2328.000000	64.959025 
2327.000000	64.935135 
2326.000000	64.916920 
2325.000000	64.905738 
2324.000000	64.901876 
2323.000000	64.904928 
2322.000000	64.913725 
2321.000000	64.926838 
2320.000000	64.942502 
2319.000000	64.959049 
2318.000000	64.974880 
2317.000000	64.988946 
2316.000000	65.000653 
2315.000000	65.010046 
2314.000000	65.017461 
2313.000000	65.023684 
2312.000000	65.029668 
2311.000000	65.035939 
2310.000000	65.042495 
2309.000000	65.048694 
2308.000000	65.053439 
2307.000000	65.055561 
2306.000000	65.054035 
2305.000000	65.048456 
2304.000000	65.039086 
2303.000000	65.026807 
2302.000000	65.012764 
2301.000000	64.998102 
2300.000000	64.983677 
2299.000000	64.969706 
2298.000000	64.956188 
2297.000000	64.942908 
2296.000000	64.929819 
2295.000000	64.917445 
2294.000000	64.906835 
2293.000000	64.899611 
2292.000000	64.897561 
2291.000000	64.901971 
2290.000000	64.913582 
2289.000000	64.931821 
2288.000000	64.955306 
2287.000000	64.981794 
2286.000000	65.008640 
2285.000000	65.033411 
2284.000000	65.053915 
2283.000000	65.068674 
2282.000000	65.076780 
2281.000000	65.077948 
2280.000000	65.072464 
2279.000000	65.061020 
2278.000000	65.044713 
2277.000000	65.024828 
2276.000000	65.003013 
2275.000000	64.980769 
2274.000000	64.959716 
2273.000000	64.941215 
2272.000000	64.926075 
2271.000000	64.914798 
2270.000000	64.907240 
2269.000000	64.903330 
2268.000000	64.902734 
2267.000000	64.905452 
2266.000000	64.911627 
2265.000000	64.921450 
2264.000000	64.934897 
2263.000000	64.951515 
2262.000000	64.970207 
2261.000000	64.989399 
2260.000000	65.007233 
2259.000000	65.021944 
2258.000000	65.032219 
2257.000000	65.037655 
2256.000000	65.038514 
2255.000000	65.035915 
2254.000000	65.031433 
2253.000000	65.026664 
2252.000000	65.023064 
2251.000000	65.021562 
2250.000000	65.022468 
2249.000000	65.025663 
2248.000000	65.030574 
2247.000000	65.036511 
2246.000000	65.042495 
2245.000000	65.047550 
2244.000000	65.050387 
2243.000000	65.049934 
2242.000000	65.045166 
2241.000000	65.035557 
2240.000000	65.021228 
2239.000000	65.003108 
2238.000000	64.982843 
2237.000000	64.962530 
2236.000000	64.944362 
2235.000000	64.930224 
2234.000000	64.921450 
2233.000000	64.918732 
2232.000000	64.922070 
2231.000000	64.930653 
2230.000000	64.943552 
2229.000000	64.959812 
2228.000000	64.978528 
2227.000000	64.998841 
2226.000000	65.020084 
2225.000000	65.041565 
2224.000000	65.062308 
2223.000000	65.081334 
2222.000000	65.097427 
2221.000000	65.109467 
2220.000000	65.116763 
2219.000000	65.119051 
2218.000000	65.116739 
2217.000000	65.110826 
2216.000000	65.102910 
2215.000000	65.094637 
2214.000000	65.087628 
2213.000000	65.082979 
2212.000000	65.081334 
2211.000000	65.082287 
2210.000000	65.084815 
2209.000000	65.087199 
2208.000000	65.087509 
2207.000000	65.083861 
2206.000000	65.074825 
2205.000000	65.059804 
2204.000000	65.039277 
2203.000000	65.014719 
2202.000000	64.988422 
2201.000000	64.963245 
2200.000000	64.942026 
2199.000000	64.927291 
2198.000000	64.920711 
2197.000000	64.922738 
2196.000000	64.932608 
2195.000000	64.948511 
2194.000000	64.967894 
2193.000000	64.987707 
2192.000000	65.005159 
2191.000000	65.018081 
2190.000000	65.025353 
2189.000000	65.026807 
2188.000000	65.023255 
2187.000000	65.016245 
2186.000000	65.007543 
2185.000000	64.998793 
2184.000000	64.991283 
2183.000000	64.985728 
2182.000000	64.982008 
2181.000000	64.979600 
2180.000000	64.977550 
2179.000000	64.974832 
2178.000000	64.970612 
2177.000000	64.964318 
2176.000000	64.955902 
2175.000000	64.945745 
2174.000000	64.934611 
2173.000000	64.923429 
2172.000000	64.913153 
2171.000000	64.904427 
2170.000000	64.897656 
2169.000000	64.892768 
2168.000000	64.889073 
2167.000000	64.885568 
2166.000000	64.881181 
2165.000000	64.875268 
2164.000000	64.867639 
2163.000000	64.858984 
2162.000000	64.850592 
2161.000000	64.843964 
2160.000000	64.840650 
2159.000000	64.841270 
2158.000000	64.845633 
2157.000000	64.852428 
2156.000000	64.859557 
2155.000000	64.864826 
2154.000000	64.866518 
2153.000000	64.863944 
2152.000000	64.857649 
2151.000000	64.849472 
2150.000000	64.841938 
2149.000000	64.837694 
2148.000000	64.838480 
2147.000000	64.844822 
2146.000000	64.855885 
2145.000000	64.869713 
2144.000000	64.883828 
2143.000000	64.896059 
2142.000000	64.905023 
2141.000000	64.910364 
2140.000000	64.912652 
2139.000000	64.913272 
2138.000000	64.913678 
2137.000000	64.915394 
2136.000000	64.919233 
2135.000000	64.925408 
2134.000000	64.933562 
2133.000000	64.942789 
2132.000000	64.952015 
2131.000000	64.960217 
2130.000000	64.966630 
2129.000000	64.971017 
2128.000000	64.973688 
2127.000000	64.975261 
2126.000000	64.976620 
2125.000000	64.978671 
2124.000000	64.982032 
2123.000000	64.986944 
2122.000000	64.993000 
2121.000000	64.999437 
2120.000000	65.005278 
2119.000000	65.009379 
2118.000000	65.011072 
2117.000000	65.010046 
2116.000000	65.006804 
2115.000000	65.002250 
2114.000000	64.997673 
2113.000000	64.994192 
2112.000000	64.992666 
2111.000000	64.993214 
2110.000000	64.995408 
2109.000000	64.998245 
2108.000000	65.000462 
2107.000000	65.000748 
2106.000000	64.997959 
2105.000000	64.991450 
2104.000000	64.980959 
2103.000000	64.966964 
2102.000000	64.950418 
2101.000000	64.932727 
2100.000000	64.915394 
2099.000000	64.899754 
2098.000000	64.886927 
2097.000000	64.877486 
2096.000000	64.871406 
2095.000000	64.868187 
2094.000000	64.866924 
2093.000000	64.866590 
2092.000000	64.866328 
2091.000000	64.865636 
2090.000000	64.864611 
2089.000000	64.863610 
2088.000000	64.863467 
2087.000000	64.864945 
2086.000000	64.868688 
2085.000000	64.874815 
2084.000000	64.882946 
2083.000000	64.892315 
2082.000000	64.901947 
2081.000000	64.910840 
2080.000000	64.918231 
2079.000000	64.923596 
2078.000000	64.926719 
2077.000000	64.927673 
2076.000000	64.926910 
2075.000000	64.925003 
2074.000000	64.922642 
2073.000000	64.920377 
2072.000000	64.918565 
2071.000000	64.917445 
2070.000000	64.916872 
2069.000000	64.916467 
2068.000000	64.915752 
2067.000000	64.914202 
2066.000000	64.911508 
2065.000000	64.907693 
2064.000000	64.902997 
2063.000000	64.897942 
2062.000000	64.893245 
2061.000000	64.889597 
2060.000000	64.887475 
2059.000000	64.887070 
2058.000000	64.888286 
2057.000000	64.890980 
2056.000000	64.895033 
2055.000000	64.900565 
2054.000000	64.907932 
2053.000000	64.917707 
2052.000000	64.930319 
2051.000000	64.945745 
2050.000000	64.963388 
2049.000000	64.981532 
2048.000000	64.997816 
2047.000000	65.009474 
2046.000000	65.013861 
2045.000000	65.009117 
2044.000000	64.994716 
2043.000000	64.971709 
2042.000000	64.942646 
2041.000000	64.911246 
2040.000000	64.881539 
2039.000000	64.857363 
2038.000000	64.841461 
2037.000000	64.835119 
2036.000000	64.838194 
2035.000000	64.849233 
2034.000000	64.865827 
2033.000000	64.885330 
2032.000000	64.905142 
2031.000000	64.923238 
2030.000000	64.938235 
2029.000000	64.949440 
2028.000000	64.956879 
2027.000000	64.960813 
2026.000000	64.961910 
2025.000000	64.960789 
2024.000000	64.958047 
2023.000000	64.954185 
2022.000000	64.949727 
2021.000000	64.945125 
2020.000000	64.940619 
2019.000000	64.936447 
2018.000000	64.932632 
2017.000000	64.929127 
2016.000000	64.925718 
2015.000000	64.922070 
2014.000000	64.918017 
2013.000000	64.913463 
2012.000000	64.908480 
2011.000000	64.903330 
2010.000000	64.898300 
2009.000000	64.893603 
2008.000000	64.889407 
2007.000000	64.885711 
2006.000000	64.882230 
2005.000000	64.878535 
2004.000000	64.873981 
2003.000000	64.868116 
2002.000000	64.860916 
2001.000000	64.852643 
2000.000000	64.843916 
1999.000000	64.835882 
1998.000000	64.829564 
1997.000000	64.826011 
1996.000000	64.825844 
1995.000000	64.829230 
1994.000000	64.835762 
1993.000000	64.844560 
1992.000000	64.854431 
1991.000000	64.864039 
1990.000000	64.872145 
1989.000000	64.877843 
1988.000000	64.880561 
1987.000000	64.880204 
1986.000000	64.877009 
1985.000000	64.871740 
1984.000000	64.865279 
1983.000000	64.858627 
1982.000000	64.852690 
1981.000000	64.848184 
1980.000000	64.845585 
1979.000000	64.844965 
1978.000000	64.846110 
1977.000000	64.848446 
1976.000000	64.851617 
1975.000000	64.855360 
1974.000000	64.859724 
1973.000000	64.865064 
1972.000000	64.871954 
1971.000000	64.880967 
1970.000000	64.892315 
1969.000000	64.905810 
1968.000000	64.920592 
1967.000000	64.935255 
1966.000000	64.948201 
1965.000000	64.957833 
1964.000000	64.963006 
1963.000000	64.963173 
1962.000000	64.958620 
1961.000000	64.950370 
1960.000000	64.940023 
1959.000000	64.929556 
1958.000000	64.920806 
1957.000000	64.915299 
1956.000000	64.913749 
1955.000000	64.916276 
1954.000000	64.922142 
1953.000000	64.930129 
1952.000000	64.938902 
1951.000000	64.947009 
1950.000000	64.953255 
1949.000000	64.956688 
1948.000000	64.956688 
1947.000000	64.952802 
1946.000000	64.944911 
1945.000000	64.933085 
1944.000000	64.917802 
1943.000000	64.899826 
1942.000000	64.880418 
1941.000000	64.861035 
1940.000000	64.843344 
1939.000000	64.828681 
1938.000000	64.817953 
1937.000000	64.811253 
1936.000000	64.808011 
1935.000000	64.806890 
1934.000000	64.806222 
1933.000000	64.804387 
1932.000000	64.800214 
1931.000000	64.793252 
1930.000000	64.783835 
1929.000000	64.773154 
1928.000000	64.762830 
1927.000000	64.754343 
1926.000000	64.748954 
1925.000000	64.747190 
1924.000000	64.748978 
1923.000000	64.753699 
1922.000000	64.760470 
1921.000000	64.768362 
1920.000000	64.776825 
1919.000000	64.785647 
1918.000000	64.795112 
1917.000000	64.805483 
1916.000000	64.817190 
1915.000000	64.830207 
1914.000000	64.844202 
1913.000000	64.858412 
1912.000000	64.872002 
1911.000000	64.884209 
1910.000000	64.894580 
1909.000000	64.903068 
1908.000000	64.909887 
1907.000000	64.915609 
1906.000000	64.920520 
1905.000000	64.924454 
1904.000000	64.926695 
1903.000000	64.926195 
1902.000000	64.921665 
1901.000000	64.912343 
1900.000000	64.898180 
1899.000000	64.880323 
1898.000000	64.860868 
1897.000000	64.842700 
1896.000000	64.828824 
1895.000000	64.821696 
1894.000000	64.822459 
1893.000000	64.830756 
1892.000000	64.844727 
1891.000000	64.861297 
1890.000000	64.877080 
1889.000000	64.889144 
1888.000000	64.895486 
1887.000000	64.895606 
1886.000000	64.890575 
1885.000000	64.882516 
1884.000000	64.874053 
1883.000000	64.867448 
1882.000000	64.864087 
1881.000000	64.864230 
1880.000000	64.866876 
1879.000000	64.870357 
1878.000000	64.872765 
1877.000000	64.872646 
1876.000000	64.869379 
1875.000000	64.863324 
1874.000000	64.855718 
1873.000000	64.848208 
1872.000000	64.842414 
1871.000000	64.839363 
1870.000000	64.839243 
1869.000000	64.841389 
1868.000000	64.844560 
1867.000000	64.847350 
1866.000000	64.848470 
1865.000000	64.847302 
1864.000000	64.843702 
1863.000000	64.838051 
1862.000000	64.831066 
1861.000000	64.823389 
1860.000000	64.815616 
1859.000000	64.808201 
1858.000000	64.801311 
1857.000000	64.795207 
1856.000000	64.790272 
1855.000000	64.787054 
1854.000000	64.786124 
1853.000000	64.787960 
1852.000000	64.792776 
1851.000000	64.800238 
1850.000000	64.809489 
1849.000000	64.819359 
1848.000000	64.828515 
1847.000000	64.835810 
1846.000000	64.840555 
1845.000000	64.842534 
1844.000000	64.842033 
1843.000000	64.839673 
1842.000000	64.836120 
1841.000000	64.832043 
1840.000000	64.827919 
1839.000000	64.824223 
1838.000000	64.821434 
1837.000000	64.820170 
1836.000000	64.821195 
1835.000000	64.825272 
1834.000000	64.832973 
1833.000000	64.844608 
1832.000000	64.859795 
1831.000000	64.877629 
1830.000000	64.896535 
1829.000000	64.914488 
1828.000000	64.929485 
1827.000000	64.939832 
1826.000000	64.944601 
1825.000000	64.943861 
1824.000000	64.938735 
1823.000000	64.931225 
1822.000000	64.923667 
1821.000000	64.918470 
1820.000000	64.917206 
1819.000000	64.920592 
1818.000000	64.928007 
1817.000000	64.937877 
1816.000000	64.947938 
1815.000000	64.955687 
1814.000000	64.959192 
1813.000000	64.957594 
1812.000000	64.951133 
1811.000000	64.941215 
1810.000000	64.929914 
1809.000000	64.919543 
1808.000000	64.911699 
1807.000000	64.907264 
1806.000000	64.905810 
1805.000000	64.906120 
1804.000000	64.906382 
1803.000000	64.904665 
1802.000000	64.899468 
1801.000000	64.890098 
1800.000000	64.876818 
1799.000000	64.860486 
1798.000000	64.842724 
1797.000000	64.825415 
1796.000000	64.810276 
1795.000000	64.798712 
1794.000000	64.791536 
1793.000000	64.788937 
1792.000000	64.790558 
1791.000000	64.795470 
1790.000000	64.802384 
1789.000000	64.809942 
1788.000000	64.816713 
1787.000000	64.821577 
1786.000000	64.823698 
1785.000000	64.822983 
1784.000000	64.819693 
1783.000000	64.814543 
1782.000000	64.808726 
1781.000000	64.803147 
1780.000000	64.798688 
1779.000000	64.795422 
1778.000000	64.793205 
1777.000000	64.791083 
1776.000000	64.788055 
1775.000000	64.782977 
1774.000000	64.775133 
1773.000000	64.764261 
1772.000000	64.750981 
1771.000000	64.736628 
1770.000000	64.723038 
1769.000000	64.712119 
1768.000000	64.705586 
1767.000000	64.704298 
1766.000000	64.708185 
1765.000000	64.716243 
1764.000000	64.726734 
1763.000000	64.737677 
1762.000000	64.747309 
1761.000000	64.754414 
1760.000000	64.758515 
1759.000000	64.759945 
1758.000000	64.759540 
1757.000000	64.757990 
1756.000000	64.755678 
1755.000000	64.752459 
1754.000000	64.747405 
1753.000000	64.739394 
1752.000000	64.727234 
1751.000000	64.710474 
1750.000000	64.689421 
1749.000000	64.665555 
1748.000000	64.641213 
1747.000000	64.618945 
1746.000000	64.601230 
1745.000000	64.589738 
1744.000000	64.585137 
1743.000000	64.586877 
1742.000000	64.593577 
1741.000000	64.603281 
1740.000000	64.613652 
1739.000000	64.622378 
1738.000000	64.627552 
1737.000000	64.628005 
1736.000000	64.622855 
1735.000000	64.611935 
1734.000000	64.595818 
1733.000000	64.575886 
1732.000000	64.553856 
1731.000000	64.532136 
1730.000000	64.513182 
1729.000000	64.499497 
1728.000000	64.492917 
1727.000000	64.494419 
1726.000000	64.503812 
1725.000000	64.519691 
1724.000000	64.539742 
1723.000000	64.561080 
1722.000000	64.580774 
1721.000000	64.596343 
1720.000000	64.606332 
1719.000000	64.610481 
1718.000000	64.609646 
1717.000000	64.605712 
1716.000000	64.600872 
1715.000000	64.597558 
1714.000000	64.597868 
1713.000000	64.603257 
1712.000000	64.614725 
1711.000000	64.632582 
1710.000000	64.656758 
1709.000000	64.686965 
1708.000000	64.722609 
1707.000000	64.762949 
1706.000000	64.806842 
1705.000000	64.852833 
1704.000000	64.898729 
1703.000000	64.942097 
1702.000000	64.979815 
1701.000000	65.008592 
1700.000000	65.025162 
1699.000000	65.027379 
1698.000000	65.014386 
1697.000000	64.987182 
1696.000000	64.948844 
1695.000000	64.904284 
1694.000000	64.859485 
1693.000000	64.820885 
1692.000000	64.793753 
1691.000000	64.781522 
1690.000000	64.784765 
1689.000000	64.801311 
1688.000000	64.826416 
1687.000000	64.853954 
1686.000000	64.877533 
1685.000000	64.892196 
1684.000000	64.895033 
1683.000000	64.885973 
1682.000000	64.867615 
1681.000000	64.844799 
1680.000000	64.822793 
1679.000000	64.806604 
1678.000000	64.799928 
1677.000000	64.804291 
1676.000000	64.819049 
1675.000000	64.841389 
1674.000000	64.867877 
1673.000000	64.894342 
1672.000000	64.917206 
1671.000000	64.933705 
1670.000000	64.942216 
1669.000000	64.942336 
1668.000000	64.934492 
1667.000000	64.919948 
1666.000000	64.900255 
1665.000000	64.877653 
1664.000000	64.854621 
1663.000000	64.833736 
1662.000000	64.817357 
1661.000000	64.807391 
1660.000000	64.805030 
1659.000000	64.810156 
1658.000000	64.821219 
1657.000000	64.835453 
1656.000000	64.849376 
1655.000000	64.859294 
1654.000000	64.862227 
1653.000000	64.856243 
1652.000000	64.841175 
1651.000000	64.818215 
1650.000000	64.789962 
1649.000000	64.759588 
1648.000000	64.730405 
1647.000000	64.705109 
1646.000000	64.685559 
1645.000000	64.672589 
1644.000000	64.666342 
1643.000000	64.666342 
1642.000000	64.671778 
1641.000000	64.681720 
1640.000000	64.695191 
1639.000000	64.711070 
1638.000000	64.728236 
1637.000000	64.745235 
1636.000000	64.760780 
1635.000000	64.773654 
1634.000000	64.782977 
1633.000000	64.788365 
1632.000000	64.789843 
1631.000000	64.787840 
1630.000000	64.783000 
1629.000000	64.776182 
1628.000000	64.768457 
1627.000000	64.760851 
1626.000000	64.754581 
1625.000000	64.750504 
1624.000000	64.749360 
1623.000000	64.751052 
1622.000000	64.754819 
1621.000000	64.759445 
1620.000000	64.763069 
1619.000000	64.763808 
1618.000000	64.760136 
1617.000000	64.751529 
1616.000000	64.738440 
1615.000000	64.722585 
1614.000000	64.706802 
1613.000000	64.694166 
1612.000000	64.687442 
1611.000000	64.688324 
1610.000000	64.697051 
1609.000000	64.712166 
1608.000000	64.730811 
1607.000000	64.749288 
1606.000000	64.763832 
1605.000000	64.771103 
1604.000000	64.769148 
1603.000000	64.757299 
1602.000000	64.736652 
1601.000000	64.709663 
1600.000000	64.679789 
1599.000000	64.651036 
1598.000000	64.627242 
1597.000000	64.611530 
1596.000000	64.605760 
1595.000000	64.610552 
1594.000000	64.624977 
1593.000000	64.646434 
1592.000000	64.671492 
1591.000000	64.696383 
1590.000000	64.717769 
1589.000000	64.733171 
1588.000000	64.741802 
1587.000000	64.744114 
1586.000000	64.742183 
1585.000000	64.738750 
1584.000000	64.736628 
1583.000000	64.737772 
1582.000000	64.742898 
1581.000000	64.751315 
1580.000000	64.761209 
1579.000000	64.770030 
1578.000000	64.775109 
1577.000000	64.774537 
1576.000000	64.767360 
1575.000000	64.754152 
1574.000000	64.736366 
1573.000000	64.716577 
1572.000000	64.697623 
1571.000000	64.682483 
1570.000000	64.674067 
1569.000000	64.674854 
1568.000000	64.686751 
1567.000000	64.710593 
1566.000000	64.746212 
1565.000000	64.791607 
1564.000000	64.843463 
1563.000000	64.896678 
1562.000000	64.945268 
1561.000000	64.982819 
1560.000000	65.003776 
1559.000000	65.004158 
1558.000000	64.982700 
1557.000000	64.941072 
1556.000000	64.883804 
1555.000000	64.817452 
1554.000000	64.749622 
1553.000000	64.687705 
1552.000000	64.637827 
1551.000000	64.604258 
1550.000000	64.589118 
1549.000000	64.592194 
1548.000000	64.611196 
1547.000000	64.642190 
1546.000000	64.680075 
1545.000000	64.719009 
1544.000000	64.753437 
1543.000000	64.778685 
1542.000000	64.791750 
1541.000000	64.791536 
1540.000000	64.779233 
1539.000000	64.757323 
1538.000000	64.729642 
1537.000000	64.700245 
1536.000000	64.672851 
1535.000000	64.650654 
1534.000000	64.635586 
1533.000000	64.628410 
1532.000000	64.628553 
1531.000000	64.634871 
1530.000000	64.645409 
1529.000000	64.657902 
1528.000000	64.670157 
1527.000000	64.680218 
1526.000000	64.686751 
1525.000000	64.689040 
1524.000000	64.686894 
1523.000000	64.680624 
1522.000000	64.671206 
1521.000000	64.660048 
1520.000000	64.648842 
1519.000000	64.639163 
1518.000000	64.632606 
1517.000000	64.630436 
1516.000000	64.633655 
1515.000000	64.642453 
1514.000000	64.656305 
1513.000000	64.673709 
1512.000000	64.692473 
1511.000000	64.709901 
1510.000000	64.723038 
1509.000000	64.729237 
1508.000000	64.726686 
1507.000000	64.714980 
1506.000000	64.695286 
1505.000000	64.670395 
1504.000000	64.643979 
1503.000000	64.620351 
1502.000000	64.603447 
1501.000000	64.596009 
1500.000000	64.599204 
1499.000000	64.612245 
1498.000000	64.632654 
1497.000000	64.656639 
1496.000000	64.680027 
1495.000000	64.698934 
1494.000000	64.710521 
1493.000000	64.713454 
1492.000000	64.708018 
1491.000000	64.695739 
1490.000000	64.679002 
1489.000000	64.660120 
1488.000000	64.641261 
1487.000000	64.623737 
1486.000000	64.608407 
1485.000000	64.595985 
1484.000000	64.587116 
1483.000000	64.582705 
1482.000000	64.583683 
1481.000000	64.590835 
1480.000000	64.604115 
1479.000000	64.622664 
1478.000000	64.644432 
1477.000000	64.666533 
1476.000000	64.685726 
1475.000000	64.699006 
1474.000000	64.704346 
1473.000000	64.701056 
1472.000000	64.690017 
1471.000000	64.673471 
1470.000000	64.654350 
1469.000000	64.635658 
1468.000000	64.619946 
1467.000000	64.608764 
1466.000000	64.602494 
1465.000000	64.600467 
1464.000000	64.601135 
1463.000000	64.602494 
1462.000000	64.602565 
1461.000000	64.599776 
1460.000000	64.593005 
1459.000000	64.582133 
1458.000000	64.567852 
1457.000000	64.551901 
1456.000000	64.536690 
1455.000000	64.524984 
1454.000000	64.518976 
1453.000000	64.520144 
1452.000000	64.528799 
1451.000000	64.543724 
1450.000000	64.562511 
1449.000000	64.581871 
1448.000000	64.598369 
1447.000000	64.609074 
1446.000000	64.612436 
1445.000000	64.608263 
1444.000000	64.597797 
1443.000000	64.583563 
1442.000000	64.568686 
1441.000000	64.556002 
1440.000000	64.547586 
1439.000000	64.544224 
1438.000000	64.545297 
1437.000000	64.549231 
1436.000000	64.554023 
1435.000000	64.557504 
1434.000000	64.558529 
1433.000000	64.556598 
1432.000000	64.552593 
1431.000000	64.548277 
1430.000000	64.545893 
1429.000000	64.547514 
1428.000000	64.554548 
1427.000000	64.567184 
1426.000000	64.584112 
1425.000000	64.603090 
1424.000000	64.620995 
1423.000000	64.634680 
1422.000000	64.641475 
1421.000000	64.639854 
1420.000000	64.629530 
1419.000000	64.611434 
1418.000000	64.587497 
1417.000000	64.560294 
1416.000000	64.532566 
1415.000000	64.506769 
1414.000000	64.484882 
1413.000000	64.468240 
1412.000000	64.457273 
1411.000000	64.451694 
1410.000000	64.450550 
1409.000000	64.452552 
1408.000000	64.456009 
1407.000000	64.459300 
1406.000000	64.460754 
1405.000000	64.459395 
1404.000000	64.454936 
1403.000000	64.447927 
1402.000000	64.439272 
1401.000000	64.430236 
1400.000000	64.422011 
1399.000000	64.415287 
1398.000000	64.410257 
1397.000000	64.406490 
1396.000000	64.403200 
1395.000000	64.399790 
1394.000000	64.395928 
1393.000000	64.391851 
1392.000000	64.388346 
1391.000000	64.386582 
1390.000000	64.387631 
1389.000000	64.392423 
1388.000000	64.401268 
1387.000000	64.413928 
1386.000000	64.429569 
1385.000000	64.446926 
1384.000000	64.464116 
1383.000000	64.479589 
1382.000000	64.491891 
1381.000000	64.499521 
1380.000000	64.501428 
1379.000000	64.496827 
1378.000000	64.485502 
1377.000000	64.467787 
1376.000000	64.444804 
1375.000000	64.418292 
1374.000000	64.390802 
1373.000000	64.365148 
1372.000000	64.344191 
1371.000000	64.330148 
1370.000000	64.324307 
1369.000000	64.326715 
1368.000000	64.336037 
1367.000000	64.349985 
1366.000000	64.365673 
1365.000000	64.380383 
1364.000000	64.392185 
1363.000000	64.400196 
1362.000000	64.404988 
1361.000000	64.408278 
1360.000000	64.412450 
1359.000000	64.419913 
1358.000000	64.432764 
1357.000000	64.451932 
1356.000000	64.477324 
1355.000000	64.507341 
1354.000000	64.539313 
1353.000000	64.569997 
1352.000000	64.596056 
1351.000000	64.614748 
1350.000000	64.624238 
1349.000000	64.624047 
1348.000000	64.615058 
1347.000000	64.599299 
1346.000000	64.579510 
1345.000000	64.558601 
1344.000000	64.539313 
1343.000000	64.523625 
1342.000000	64.512467 
1341.000000	64.505743 
1340.000000	64.502763 
1339.000000	64.502072 
1338.000000	64.502120 
1337.000000	64.501476 
1336.000000	64.499139 
1335.000000	64.494371 
1334.000000	64.486908 
1333.000000	64.476704 
1332.000000	64.463925 
1331.000000	64.448904 
1330.000000	64.432287 
1329.000000	64.414930 
1328.000000	64.397954 
1327.000000	64.382910 
1326.000000	64.371538 
1325.000000	64.365410 
1324.000000	64.365577 
1323.000000	64.372205 
1322.000000	64.384436 
1321.000000	64.400291 
1320.000000	64.417052 
1319.000000	64.431738 
1318.000000	64.441990 
1317.000000	64.446115 
1316.000000	64.443755 
1315.000000	64.435744 
1314.000000	64.423894 
1313.000000	64.410471 
1312.000000	64.397835 
1311.000000	64.387893 
1310.000000	64.381766 
1309.000000	64.379906 
1308.000000	64.381980 
1307.000000	64.387154 
1306.000000	64.394187 
1305.000000	64.401745 
1304.000000	64.408469 
1303.000000	64.413309 
1302.000000	64.415335 
1301.000000	64.414000 
1300.000000	64.409160 
1299.000000	64.401102 
1298.000000	64.390850 
1297.000000	64.379811 
1296.000000	64.369869 
1295.000000	64.362835 
1294.000000	64.360237 
1293.000000	64.362907 
1292.000000	64.370632 
1291.000000	64.382219 
1290.000000	64.395618 
1289.000000	64.408302 
1288.000000	64.417934 
1287.000000	64.422845 
1286.000000	64.422225 
1285.000000	64.416170 
1284.000000	64.405560 
1283.000000	64.391660 
1282.000000	64.375686 
1281.000000	64.358639 
1280.000000	64.340949 
1279.000000	64.322805 
1278.000000	64.304375 
1277.000000	64.285945 
1276.000000	64.268374 
1275.000000	64.252829 
1274.000000	64.240837 
1273.000000	64.233756 
1272.000000	64.232730 
1271.000000	64.237928 
1270.000000	64.248919 
1269.000000	64.264249 
1268.000000	64.282178 
1267.000000	64.300775 
1266.000000	64.318442 
1265.000000	64.334011 
1264.000000	64.346885 
1263.000000	64.357042 
1262.000000	64.364719 
1261.000000	64.370322 
1260.000000	64.374136 
1259.000000	64.376425 
1258.000000	64.377260 
1257.000000	64.376735 
1256.000000	64.374876 
1255.000000	64.371800 
1254.000000	64.367580 
1253.000000	64.362239 
1252.000000	64.355492 
1251.000000	64.346933 
1250.000000	64.336037 
1249.000000	64.322423 
1248.000000	64.306116 
1247.000000	64.287734 
1246.000000	64.268469 
1245.000000	64.250087 
1244.000000	64.234590 
1243.000000	64.223861 
1242.000000	64.219069 
1241.000000	64.220428 
1240.000000	64.226984 
1239.000000	64.236879 
1238.000000	64.247655 
1237.000000	64.256906 
1236.000000	64.262676 
1235.000000	64.264035 
1234.000000	64.261388 
1233.000000	64.256286 
1232.000000	64.250922 
1231.000000	64.247608 
1230.000000	64.248251 
1229.000000	64.253807 
1228.000000	64.264106 
1227.000000	64.277672 
1226.000000	64.292168 
1225.000000	64.304995 
1224.000000	64.313793 
1223.000000	64.317131 
1222.000000	64.314842 
1221.000000	64.307928 
1220.000000	64.298462 
1219.000000	64.288997 
1218.000000	64.281773 
1217.000000	64.278459 
1216.000000	64.279413 
1215.000000	64.284014 
1214.000000	64.290404 
1213.000000	64.296388 
1212.000000	64.299654 
1211.000000	64.298510 
1210.000000	64.292287 
1209.000000	64.281344 
1208.000000	64.267349 
1207.000000	64.252829 
1206.000000	64.240717 
1205.000000	64.233684 
1204.000000	64.233493 
1203.000000	64.240694 
1202.000000	64.254498 
1201.000000	64.272832 
1200.000000	64.292669 
1199.000000	64.310860 
1198.000000	64.324688 
1197.000000	64.332389 
1196.000000	64.333534 
1195.000000	64.328956 
1194.000000	64.320325 
1193.000000	64.309740 
1192.000000	64.299249 
1191.000000	64.290142 
1190.000000	64.282894 
1189.000000	64.276957 
1188.000000	64.271283 
1187.000000	64.264678 
1186.000000	64.256191 
1185.000000	64.245653 
1184.000000	64.233756 
1183.000000	64.221763 
1182.000000	64.211177 
1181.000000	64.203453 
1180.000000	64.199590 
1179.000000	64.199876 
1178.000000	64.203691 
1177.000000	64.209890 
1176.000000	64.217162 
1175.000000	64.224457 
1174.000000	64.231157 
1173.000000	64.237165 
1172.000000	64.242792 
1171.000000	64.248538 
1170.000000	64.254903 
1169.000000	64.261484 
1168.000000	64.267349 
1167.000000	64.271092 
1166.000000	64.271163 
1165.000000	64.266419 
1164.000000	64.256262 
1163.000000	64.241337 
1162.000000	64.223003 
1161.000000	64.203333 
1160.000000	64.184308 
1159.000000	64.167547 
1158.000000	64.153671 
1157.000000	64.142322 
1156.000000	64.132142 
1155.000000	64.121246 
1154.000000	64.107823 
1153.000000	64.090657 
1152.000000	64.069676 
1151.000000	64.045882 
1150.000000	64.021587 
1149.000000	63.999652 
1148.000000	63.983392 
1147.000000	63.975906 
1146.000000	63.979887 
1145.000000	63.997006 
1144.000000	64.027738 
1143.000000	64.071297 
1142.000000	64.125394 
1141.000000	64.186549 
1140.000000	64.250206 
1139.000000	64.311361 
1138.000000	64.365315 
1137.000000	64.408087 
1136.000000	64.437246 
1135.000000	64.452028 
1134.000000	64.453411 
1133.000000	64.443469 
1132.000000	64.425516 
1131.000000	64.402723 
1130.000000	64.378237 
1129.000000	64.354491 
1128.000000	64.333510 
1127.000000	64.316749 
1126.000000	64.305567 
1125.000000	64.301061 
1124.000000	64.304447 
1123.000000	64.316344 
1122.000000	64.336657 
1121.000000	64.364099 
1120.000000	64.396166 
1119.000000	64.429306 
1118.000000	64.459538 
1117.000000	64.483141 
1116.000000	64.497327 
1115.000000	64.500904 
1114.000000	64.494371 
1113.000000	64.479851 
1112.000000	64.460301 
1111.000000	64.439225 
1110.000000	64.419412 
1109.000000	64.402651 
1108.000000	64.389109 
1107.000000	64.378190 
1106.000000	64.368200 
1105.000000	64.357209 
1104.000000	64.343762 
1103.000000	64.327216 
1102.000000	64.308238 
1101.000000	64.288306 
1100.000000	64.269995 
1099.000000	64.256095 
1098.000000	64.249324 
1097.000000	64.251375 
1096.000000	64.262533 
1095.000000	64.281368 
1094.000000	64.305067 
1093.000000	64.329838 
1092.000000	64.351987 
1091.000000	64.368581 
1090.000000	64.378166 
1089.000000	64.381122 
1088.000000	64.379405 
1087.000000	64.375829 
1086.000000	64.373230 
1085.000000	64.373683 
1084.000000	64.377808 
1083.000000	64.384508 
1082.000000	64.391899 
1081.000000	64.397335 
1080.000000	64.398670 
1079.000000	64.394474 
1078.000000	64.384913 
1077.000000	64.370870 
1076.000000	64.353847 
1075.000000	64.334869 
1074.000000	64.314293 
1073.000000	64.291620 
1072.000000	64.265799 
1071.000000	64.235925 
1070.000000	64.201855 
1069.000000	64.164900 
1068.000000	64.127516 
1067.000000	64.093327 
1066.000000	64.066267 
1065.000000	64.049673 
1064.000000	64.045715 
1063.000000	64.054608 
1062.000000	64.074945 
1061.000000	64.103913 
1060.000000	64.138269 
1059.000000	64.174818 
1058.000000	64.211010 
1057.000000	64.245367 
1056.000000	64.276981 
1055.000000	64.305424 
1054.000000	64.329981 
1053.000000	64.349389 
1052.000000	64.361715 
1051.000000	64.364981 
1050.000000	64.357447 
1049.000000	64.338588 
1048.000000	64.309453 
1047.000000	64.273047 
1046.000000	64.233684 
1045.000000	64.196515 
1044.000000	64.166426 
1043.000000	64.147114 
1042.000000	64.140534 
1041.000000	64.146351 
1040.000000	64.162397 
1039.000000	64.185261 
1038.000000	64.210844 
1037.000000	64.235115 
1036.000000	64.254999 
1035.000000	64.268612 
1034.000000	64.275121 
1033.000000	64.274740 
1032.000000	64.268636 
1031.000000	64.258313 
1030.000000	64.245533 
1029.000000	64.231824 
1028.000000	64.218592 
1027.000000	64.206647 
1026.000000	64.196705 
1025.000000	64.188718 
1024.000000	64.182376 
1023.000000	64.177060 
1022.000000	64.171981 
1021.000000	64.166450 
1020.000000	64.159917 
1019.000000	64.152050 
1018.000000	64.142894 
1017.000000	64.132761 
1016.000000	64.122176 
1015.000000	64.111661 
1014.000000	64.101696 
1013.000000	64.092707 
1012.000000	64.085316 
1011.000000	64.080071 
1010.000000	64.077615 
1009.000000	64.078617 
1008.000000	64.083671 
1007.000000	64.093232 
1006.000000	64.107370 
1005.000000	64.125275 
1004.000000	64.145779 
1003.000000	64.167475 
1002.000000	64.188790 
1001.000000	64.208531 
1000.000000	64.225697 
999.000000	 64.239811 
998.000000	 64.250516 
997.000000	 64.258003 
996.000000	 64.262461 
995.000000	 64.264011 
994.000000	 64.262890 
993.000000	 64.259552 
992.000000	 64.254617 
991.000000	 64.249134 
990.000000	 64.244341 
989.000000	 64.241838 
988.000000	 64.243030 
987.000000	 64.249038 
986.000000	 64.260196 
985.000000	 64.276051 
984.000000	 64.294981 
983.000000	 64.314556 
982.000000	 64.331793 
981.000000	 64.343762 
980.000000	 64.347958 
979.000000	 64.342713 
978.000000	 64.327836 
977.000000	 64.304661 
976.000000	 64.275860 
975.000000	 64.245104 
974.000000	 64.216542 
973.000000	 64.194011 
972.000000	 64.180541 
971.000000	 64.177727 
970.000000	 64.185428 
969.000000	 64.201927 
968.000000	 64.224267 
967.000000	 64.248728 
966.000000	 64.271426 
965.000000	 64.288997 
964.000000	 64.299154 
963.000000	 64.300894 
962.000000	 64.294433 
961.000000	 64.281296 
960.000000	 64.263772 
959.000000	 64.244723 
958.000000	 64.227080 
957.000000	 64.213991 
956.000000	 64.208173 
955.000000	 64.211726 
954.000000	 64.225816 
953.000000	 64.250421 
952.000000	 64.284133 
951.000000	 64.324116 
950.000000	 64.366483 
949.000000	 64.406800 
948.000000	 64.440870 
947.000000	 64.465475 
946.000000	 64.478731 
945.000000	 64.480328 
944.000000	 64.471292 
943.000000	 64.454150 
942.000000	 64.431858 
941.000000	 64.407324 
940.000000	 64.382910 
939.000000	 64.360308 
938.000000	 64.340400 
937.000000	 64.323711 
936.000000	 64.310240 
935.000000	 64.299988 
934.000000	 64.292716 
933.000000	 64.288187 
932.000000	 64.285826 
931.000000	 64.284825 
930.000000	 64.283990 
929.000000	 64.282035 
928.000000	 64.277672 
927.000000	 64.270162 
926.000000	 64.259266 
925.000000	 64.245676 
924.000000	 64.230656 
923.000000	 64.216065 
922.000000	 64.204430 
921.000000	 64.198184 
920.000000	 64.199161 
919.000000	 64.208221 
918.000000	 64.225196 
917.000000	 64.248275 
916.000000	 64.274430 
915.000000	 64.299750 
914.000000	 64.319920 
913.000000	 64.331102 
912.000000	 64.330625 
911.000000	 64.317774 
910.000000	 64.293742 
909.000000	 64.262056 
908.000000	 64.227771 
907.000000	 64.196753 
906.000000	 64.174437 
905.000000	 64.164900 
904.000000	 64.170098 
903.000000	 64.189362 
902.000000	 64.219522 
901.000000	 64.255523 
900.000000	 64.291191 
899.000000	 64.320254 
898.000000	 64.337515 
897.000000	 64.339637 
896.000000	 64.325904 
895.000000	 64.298129 
894.000000	 64.260506 
893.000000	 64.218640 
892.000000	 64.178776 
891.000000	 64.146447 
890.000000	 64.125514 
889.000000	 64.117789 
888.000000	 64.122700 
887.000000	 64.137601 
886.000000	 64.158701 
885.000000	 64.181852 
884.000000	 64.203500 
883.000000	 64.221405 
882.000000	 64.234733 
881.000000	 64.243745 
880.000000	 64.249300 
879.000000	 64.252138 
878.000000	 64.252519 
877.000000	 64.250183 
876.000000	 64.244627 
875.000000	 64.235401 
874.000000	 64.222955 
873.000000	 64.208817 
872.000000	 64.195418 
871.000000	 64.185690 
870.000000	 64.181971 
869.000000	 64.185714 
868.000000	 64.196825 
867.000000	 64.213895 
866.000000	 64.234089 
865.000000	 64.254260 
864.000000	 64.271736 
863.000000	 64.285254 
862.000000	 64.294791 
861.000000	 64.301681 
860.000000	 64.307880 
859.000000	 64.315485 
858.000000	 64.325881 
857.000000	 64.339184 
856.000000	 64.354205 
855.000000	 64.369010 
854.000000	 64.381742 
853.000000	 64.391088 
852.000000	 64.396977 
851.000000	 64.400482 
850.000000	 64.403557 
849.000000	 64.408206 
848.000000	 64.415550 
847.000000	 64.425516 
846.000000	 64.436388 
845.000000	 64.445233 
844.000000	 64.448285 
843.000000	 64.442324 
842.000000	 64.424872 
841.000000	 64.395046 
840.000000	 64.353203 
839.000000	 64.301061 
838.000000	 64.241027 
837.000000	 64.175510 
836.000000	 64.107203 
835.000000	 64.038443 
834.000000	 63.972377 
833.000000	 63.912653 
832.000000	 63.863897 
831.000000	 63.830661 
830.000000	 63.817119 
829.000000	 63.825893 
828.000000	 63.857173 
827.000000	 63.907980 
826.000000	 63.972687 
825.000000	 64.043831 
824.000000	 64.113569 
823.000000	 64.174890 
822.000000	 64.223003 
821.000000	 64.255881 
820.000000	 64.274191 
819.000000	 64.280605 
818.000000	 64.278507 
817.000000	 64.271426 
816.000000	 64.261984 
815.000000	 64.251685 
814.000000	 64.241433 
813.000000	 64.231324 
812.000000	 64.221930 
811.000000	 64.213466 
810.000000	 64.206027 
809.000000	 64.199066 
808.000000	 64.191603 
807.000000	 64.182066 
806.000000	 64.168357 
805.000000	 64.148974 
804.000000	 64.123654 
803.000000	 64.093732 
802.000000	 64.061808 
801.000000	 64.031744 
800.000000	 64.007687 
799.000000	 63.993215 
798.000000	 63.990354 
797.000000	 63.999104 
796.000000	 64.017415 
795.000000	 64.041876 
794.000000	 64.068341 
793.000000	 64.092826 
792.000000	 64.112067 
791.000000	 64.124131 
790.000000	 64.128637 
789.000000	 64.125823 
788.000000	 64.116907 
787.000000	 64.103507 
786.000000	 64.087700 
785.000000	 64.071726 
784.000000	 64.057779 
783.000000	 64.047908 
782.000000	 64.043712 
781.000000	 64.046311 
780.000000	 64.056110 
779.000000	 64.072561 
778.000000	 64.094281 
777.000000	 64.119172 
776.000000	 64.144563 
775.000000	 64.167618 
774.000000	 64.185857 
773.000000	 64.197421 
772.000000	 64.201641 
771.000000	 64.198946 
770.000000	 64.191079 
769.000000	 64.180731 
768.000000	 64.170861 
767.000000	 64.164042 
766.000000	 64.161944 
765.000000	 64.164972 
764.000000	 64.171981 
763.000000	 64.180564 
762.000000	 64.187574 
761.000000	 64.189839 
760.000000	 64.185190 
759.000000	 64.173150 
758.000000	 64.154887 
757.000000	 64.133286 
756.000000	 64.112305 
755.000000	 64.095950 
754.000000	 64.087486 
753.000000	 64.088296 
752.000000	 64.097952 
751.000000	 64.114022 
750.000000	 64.132761 
749.000000	 64.150118 
748.000000	 64.162683 
747.000000	 64.168405 
746.000000	 64.167046 
745.000000	 64.159989 
744.000000	 64.149951 
743.000000	 64.139890 
742.000000	 64.132308 
741.000000	 64.128637 
740.000000	 64.128851 
739.000000	 64.131736 
738.000000	 64.135146 
737.000000	 64.136910 
736.000000	 64.135265 
735.000000	 64.129519 
734.000000	 64.120030 
733.000000	 64.107918 
732.000000	 64.094805 
731.000000	 64.082193 
730.000000	 64.071083 
729.000000	 64.061951 
728.000000	 64.054632 
727.000000	 64.048624 
726.000000	 64.043235 
725.000000	 64.037609 
724.000000	 64.031267 
723.000000	 64.024233 
722.000000	 64.016866 
721.000000	 64.009690 
720.000000	 64.003396 
719.000000	 63.998675 
718.000000	 63.995695 
717.000000	 63.993883 
716.000000	 63.992166 
715.000000	 63.989019 
714.000000	 63.982987 
713.000000	 63.972783 
712.000000	 63.958024 
711.000000	 63.939189 
710.000000	 63.917732 
709.000000	 63.895702 
708.000000	 63.875412 
707.000000	 63.858675 
706.000000	 63.846206 
705.000000	 63.837599 
704.000000	 63.831329 
703.000000	 63.825869 
702.000000	 63.820052 
701.000000	 63.814043 
700.000000	 63.809084 
699.000000	 63.807630 
698.000000	 63.812446 
697.000000	 63.826107 
696.000000	 63.849568 
695.000000	 63.882827 
694.000000	 63.924574 
693.000000	 63.972830 
692.000000	 64.025139 
691.000000	 64.078760 
690.000000	 64.131069 
689.000000	 64.179229 
688.000000	 64.220714 
687.000000	 64.253115 
686.000000	 64.274525 
685.000000	 64.284229 
684.000000	 64.282846 
683.000000	 64.273023 
682.000000	 64.258646 
681.000000	 64.244937 
680.000000	 64.236879 
679.000000	 64.238142 
678.000000	 64.249825 
677.000000	 64.270663 
676.000000	 64.296364 
675.000000	 64.321351 
674.000000	 64.339041 
673.000000	 64.344382 
672.000000	 64.333891 
671.000000	 64.306783 
670.000000	 64.264822 
669.000000	 64.211773 
668.000000	 64.153242 
667.000000	 64.095449 
666.000000	 64.044737 
665.000000	 64.006376 
664.000000	 63.984107 
663.000000	 63.979768 
662.000000	 63.992738 
661.000000	 64.020061 
660.000000	 64.056897 
659.000000	 64.097714 
658.000000	 64.136433 
657.000000	 64.168095 
656.000000	 64.189672 
655.000000	 64.200782 
654.000000	 64.203429 
653.000000	 64.201378 
652.000000	 64.198994 
651.000000	 64.200282 
650.000000	 64.207720 
649.000000	 64.222216 
648.000000	 64.242935 
647.000000	 64.267873 
646.000000	 64.294719 
645.000000	 64.320802 
644.000000	 64.344167 
643.000000	 64.363002 
642.000000	 64.375925 
641.000000	 64.381933 
640.000000	 64.380216 
639.000000	 64.370727 
638.000000	 64.354252 
637.000000	 64.332485 
636.000000	 64.308023 
635.000000	 64.283847 
634.000000	 64.262890 
633.000000	 64.247274 
632.000000	 64.237999 
631.000000	 64.234137 
630.000000	 64.233279 
629.000000	 64.232921 
628.000000	 64.231014 
627.000000	 64.226555 
626.000000	 64.219808 
625.000000	 64.212322 
624.000000	 64.205956 
623.000000	 64.201951 
622.000000	 64.200401 
621.000000	 64.199709 
620.000000	 64.197587 
619.000000	 64.190959 
618.000000	 64.177846 
617.000000	 64.157867 
616.000000	 64.133214 
615.000000	 64.108061 
614.000000	 64.087915 
613.000000	 64.078068 
612.000000	 64.081716 
611.000000	 64.099335 
610.000000	 64.126777 
609.000000	 64.155983 
608.000000	 64.176273 
607.000000	 64.176702 
606.000000	 64.147830 
605.000000	 64.084339 
604.000000	 63.986468 
603.000000	 63.860821 
602.000000	 63.719105 
601.000000	 63.576459 
600.000000	 63.448333 
599.000000	 63.347792 
598.000000	 63.283514 
597.000000	 63.257837 
596.000000	 63.267207 
595.000000	 63.302493 
594.000000	 63.350677 
593.000000	 63.398599 
592.000000	 63.434052 
591.000000	 63.450574 
590.000000	 63.447308 
589.000000	 63.430643 
588.000000	 63.410711 
587.000000	 63.399982 
586.000000	 63.408517 
585.000000	 63.442897 
584.000000	 63.504099 
583.000000	 63.588547 
582.000000	 63.689327 
581.000000	 63.798332 
580.000000	 63.908147 
579.000000	 64.011669 
578.000000	 64.102530 
577.000000	 64.174556 
576.000000	 64.222097 
575.000000	 64.239573 
574.000000	 64.223074 
573.000000	 64.172911 
572.000000	 64.093971 
571.000000	 63.996720 
570.000000	 63.894629 
569.000000	 63.804101 
568.000000	 63.738822 
567.000000	 63.706779 
566.000000	 63.708329 
565.000000	 63.735675 
564.000000	 63.776636 
563.000000	 63.818049 
562.000000	 63.850378 
561.000000	 63.870310 
560.000000	 63.881182 
559.000000	 63.891339 
558.000000	 63.910365 
557.000000	 63.944625 
556.000000	 63.995552 
555.000000	 64.058446 
554.000000	 64.124464 
553.000000	 64.183282 
552.000000	 64.226984 
551.000000	 64.252758 
550.000000	 64.264321 
549.000000	 64.271092 
548.000000	 64.285922 
547.000000	 64.320778 
546.000000	 64.383387 
545.000000	 64.473772 
544.000000	 64.584112 
543.000000	 64.699101 
542.000000	 64.800763 
541.000000	 64.871859 
540.000000	 64.900493 
539.000000	 64.882659 
538.000000	 64.823579 
537.000000	 64.735913 
536.000000	 64.636635 
535.000000	 64.543128 
534.000000	 64.469766 
533.000000	 64.424872 
532.000000	 64.410114 
531.000000	 64.421033 
530.000000	 64.449429 
529.000000	 64.486598 
528.000000	 64.526033 
527.000000	 64.564514 
526.000000	 64.602398 
525.000000	 64.642834 
524.000000	 64.690279 
523.000000	 64.747500 
522.000000	 64.814543 
521.000000	 64.889812 
520.000000	 64.969658 
519.000000	 65.049552 
518.000000	 65.124011 
517.000000	 65.188789 
516.000000	 65.240287 
515.000000	 65.276074 
514.000000	 65.294718 
513.000000	 65.296578 
512.000000	 65.283155 
511.000000	 65.257501 
510.000000	 65.223479 
509.000000	 65.186047 
508.000000	 65.149974 
507.000000	 65.119981 
506.000000	 65.099334 
505.000000	 65.089488 
504.000000	 65.090084 
503.000000	 65.099811 
502.000000	 65.115141 
501.000000	 65.130853 
500.000000	 65.140175 
499.000000	 65.135884 
498.000000	 65.110468 
497.000000	 65.057659 
496.000000	 64.972758 
495.000000	 64.854669 
494.000000	 64.707350 
493.000000	 64.540171 
492.000000	 64.366745 
491.000000	 64.202713 
490.000000	 64.063501 
489.000000	 63.960790 
488.000000	 63.899469 
487.000000	 63.877964 
486.000000	 63.888573 
485.000000	 63.921189 
484.000000	 63.963723 
483.000000	 64.008164 
482.000000	 64.050340 
481.000000	 64.092683 
480.000000	 64.140796 
479.000000	 64.203047 
478.000000	 64.286446 
477.000000	 64.393663 
476.000000	 64.520812 
475.000000	 64.657044 
474.000000	 64.786791 
473.000000	 64.892339 
472.000000	 64.958238 
471.000000	 64.973473 
470.000000	 64.934182 
469.000000	 64.845728 
468.000000	 64.721393 
467.000000	 64.579439 
466.000000	 64.438915 
465.000000	 64.317440 
464.000000	 64.226555 
463.000000	 64.169216 
462.000000	 64.140415 
461.000000	 64.129447 
460.000000	 64.124274 
459.000000	 64.115953 
458.000000	 64.101076 
457.000000	 64.082264 
456.000000	 64.065742 
455.000000	 64.059042 
454.000000	 64.065241 
453.000000	 64.080166 
452.000000	 64.092302 
451.000000	 64.084458 
450.000000	 64.040493 
449.000000	 63.950419 
448.000000	 63.816642 
447.000000	 63.655209 
446.000000	 63.494753 
445.000000	 63.370394 
444.000000	 63.316273 
443.000000	 63.357114 
442.000000	 63.501310 
441.000000	 63.738274 
440.000000	 64.041137 
439.000000	 64.371252 
438.000000	 64.689087 
437.000000	 64.958739 
436.000000	 65.153861 
435.000000	 65.258407 
434.000000	 65.269088 
433.000000	 65.190482 
432.000000	 65.030074 
431.000000	 64.798760 
430.000000	 64.511394 
429.000000	 64.187455 
428.000000	 63.850784 
427.000000	 63.531565 
426.000000	 63.264846 
425.000000	 63.085508 
424.000000	 63.024377 
423.000000	 63.095879 
422.000000	 63.291311 
421.000000	 63.582324 
420.000000	 63.926982 
419.000000	 64.269280 
418.000000	 64.549350 
417.000000	 64.728260 
416.000000	 64.796447 
415.000000	 64.766836 
414.000000	 64.672827 
413.000000	 64.562439 
412.000000	 64.485049 
411.000000	 64.483428 
410.000000	 64.583063 
409.000000	 64.774560 
408.000000	 65.028905 
407.000000	 65.319561 
406.000000	 65.624737 
405.000000	 65.931010 
404.000000	 66.236019 
403.000000	 66.549181 
402.000000	 66.877222 
401.000000	 67.222309 
400.000000	 67.562580 
399.000000	 67.861938 
398.000000	 68.053102 
397.000000	 68.064236 
396.000000	 67.806577 
395.000000	 67.200899 
394.000000	 66.190695 
393.000000	 64.764046 
392.000000	 62.948417 
391.000000	 60.828161 
390.000000	 58.443117 
389.000000	 55.824828 
388.000000	 53.067946 
387.000000	 50.322246 
386.000000	 48.000264 
385.000000	 46.650838 
384.000000	 46.264338 
383.000000	 46.675825 
382.000000	 47.833108 
381.000000	 49.733972 
380.000000	 53.192329 
379.000000	 58.712410 
378.000000	 65.852642 
377.000000	 73.515629 
376.000000	 78.739762 
375.000000	 79.380917 
374.000000	 75.582027 
373.000000	 69.129729 
372.000000	 64.994382 
371.000000	 66.278076 
370.000000	 72.102785 

