PE IR       SPECTRUM    SPECTRUM    ASCII       PEDS        1.60        
  -1
BZ61B6~1.ASC
17/04/07
19:44:05.00
17/04/07
19:44:05.00
tln
$BZ1503107-1_t0079$<tbV0>[10.4,5.2,8.0,0.0,27,1,0]
370.000000
64









2002,4.07    
MIRTGS : RIGHTBACK : INTERNAL 2
MIR : ON : INTERNAL 2
OPTKBR

0.200000
8
8.000000
FILLER
RATIO
SPECTRUM
UNLOCKED 256

DOUBLE
64
COMBINED
1
0
0


1.000000
RATIO


1
0
TRUE
51149
0
LEFT NOT FITTED RIGHT NOT FITTED 0
NONE
NONE
15600
12.000000
4.427000
51148
TRUE
1 0 8 72 0 0 0 0 

15798.010000






#HDR
-1
-1
#GR
CM-1
%T
0.00002384185791015625
0.0
5000.000000
-1.000000
4631
8
78.064227
44.358062
#DATA
5000.000000	64.575648 
4999.000000	64.754962 
4998.000000	64.948606 
4997.000000	65.141034 
4996.000000	65.314054 
4995.000000	65.449070 
4994.000000	65.530395 
4993.000000	65.549373 
4992.000000	65.505886 
4991.000000	65.409088 
4990.000000	65.276074 
4989.000000	65.129470 
4988.000000	64.992284 
4987.000000	64.883828 
4986.000000	64.816713 
4985.000000	64.795827 
4984.000000	64.818453 
4983.000000	64.877080 
4982.000000	64.961147 
4981.000000	65.061283 
4980.000000	65.173506 
4979.000000	65.299701 
4978.000000	65.445470 
4977.000000	65.615868 
4976.000000	65.812158 
4975.000000	66.026377 
4974.000000	66.241121 
4973.000000	66.429352 
4972.000000	66.561126 
4971.000000	66.608572 
4970.000000	66.554665 
4969.000000	66.397094 
4968.000000	66.151404 
4967.000000	65.848278 
4966.000000	65.528368 
4965.000000	65.234446 
4964.000000	65.002989 
4963.000000	64.858174 
4962.000000	64.807629 
4961.000000	64.844870 
4960.000000	64.953136 
4959.000000	65.109610 
4958.000000	65.290713 
4957.000000	65.473651 
4956.000000	65.638446 
4955.000000	65.767335 
4954.000000	65.844941 
4953.000000	65.857553 
4952.000000	65.794610 
4951.000000	65.651392 
4950.000000	65.431308 
4949.000000	65.147495 
4948.000000	64.822793 
4947.000000	64.487743 
4946.000000	64.176821 
4945.000000	63.923239 
4944.000000	63.753819 
4943.000000	63.684082 
4942.000000	63.716173 
4941.000000	63.839483 
4940.000000	64.031505 
4939.000000	64.262056 
4938.000000	64.497113 
4937.000000	64.702844 
4936.000000	64.851832 
4935.000000	64.924883 
4934.000000	64.915752 
4933.000000	64.829659 
4932.000000	64.685320 
4931.000000	64.510393 
4930.000000	64.337420 
4929.000000	64.197349 
4928.000000	64.114260 
4927.000000	64.101052 
4926.000000	64.158296 
4925.000000	64.274835 
4924.000000	64.430809 
4923.000000	64.602875 
4922.000000	64.768910 
4921.000000	64.913010 
4920.000000	65.026831 
4919.000000	65.110516 
4918.000000	65.168786 
4917.000000	65.209579 
4916.000000	65.240669 
4915.000000	65.267586 
4914.000000	65.292501 
4913.000000	65.314936 
4912.000000	65.335297 
4911.000000	65.353274 
4910.000000	65.370368 
4909.000000	65.387701 
4908.000000	65.406680 
4907.000000	65.426874 
4906.000000	65.446209 
4905.000000	65.460157 
4904.000000	65.462708 
4903.000000	65.448617 
4902.000000	65.415143 
4901.000000	65.363788 
4900.000000	65.300631 
4899.000000	65.235424 
4898.000000	65.179395 
4897.000000	65.142846 
4896.000000	65.132665 
4895.000000	65.150737 
4894.000000	65.193414 
4893.000000	65.251874 
4892.000000	65.314745 
4891.000000	65.371346 
4890.000000	65.413641 
4889.000000	65.436625 
4888.000000	65.439796 
4887.000000	65.426778 
4886.000000	65.403819 
4885.000000	65.377116 
4884.000000	65.352201 
4883.000000	65.332818 
4882.000000	65.320944 
4881.000000	65.317106 
4880.000000	65.321373 
4879.000000	65.334296 
4878.000000	65.356922 
4877.000000	65.390634 
4876.000000	65.436053 
4875.000000	65.492320 
4874.000000	65.555930 
4873.000000	65.620565 
4872.000000	65.677785 
4871.000000	65.718054 
4870.000000	65.733075 
4869.000000	65.717053 
4868.000000	65.668320 
4867.000000	65.589427 
4866.000000	65.487575 
4865.000000	65.372514 
4864.000000	65.254783 
4863.000000	65.143609 
4862.000000	65.045595 
4861.000000	64.963936 
4860.000000	64.899063 
4859.000000	64.849042 
4858.000000	64.810466 
4857.000000	64.780354 
4856.000000	64.756536 
4855.000000	64.738702 
4854.000000	64.727354 
4853.000000	64.723896 
4852.000000	64.728856 
4851.000000	64.742016 
4850.000000	64.761543 
4849.000000	64.784383 
4848.000000	64.806604 
4847.000000	64.824223 
4846.000000	64.834237 
4845.000000	64.835453 
4844.000000	64.828824 
4843.000000	64.817070 
4842.000000	64.804053 
4841.000000	64.794492 
4840.000000	64.792108 
4839.000000	64.799022 
4838.000000	64.814090 
4837.000000	64.833259 
4836.000000	64.849853 
4835.000000	64.856123 
4834.000000	64.845943 
4833.000000	64.815640 
4832.000000	64.766645 
4831.000000	64.705371 
4830.000000	64.642333 
4829.000000	64.589285 
4828.000000	64.557218 
4827.000000	64.553523 
4826.000000	64.580535 
4825.000000	64.634799 
4824.000000	64.708423 
4823.000000	64.790964 
4822.000000	64.871120 
4821.000000	64.938950 
4820.000000	64.987277 
4819.000000	65.012478 
4818.000000	65.013790 
4817.000000	64.992761 
4816.000000	64.952206 
4815.000000	64.895606 
4814.000000	64.827346 
4813.000000	64.751887 
4812.000000	64.674782 
4811.000000	64.601540 
4810.000000	64.537882 
4809.000000	64.488387 
4808.000000	64.456009 
4807.000000	64.441418 
4806.000000	64.442563 
4805.000000	64.455747 
4804.000000	64.475631 
4803.000000	64.497184 
4802.000000	64.515709 
4801.000000	64.529109 
4800.000000	64.537429 
4799.000000	64.543604 
4798.000000	64.551830 
4797.000000	64.567542 
4796.000000	64.595603 
4795.000000	64.638853 
4794.000000	64.697098 
4793.000000	64.766812 
4792.000000	64.841461 
4791.000000	64.912915 
4790.000000	64.972877 
4789.000000	65.013933 
4788.000000	65.030980 
4787.000000	65.022397 
4786.000000	64.989972 
4785.000000	64.938497 
4784.000000	64.874672 
4783.000000	64.805746 
4782.000000	64.738821 
4781.000000	64.679884 
4780.000000	64.633727 
4779.000000	64.603710 
4778.000000	64.592289 
4777.000000	64.600849 
4776.000000	64.630007 
4775.000000	64.679074 
4774.000000	64.746284 
4773.000000	64.827919 
4772.000000	64.919471 
4771.000000	65.015435 
4770.000000	65.109992 
4769.000000	65.196990 
4768.000000	65.270447 
4767.000000	65.325140 
4766.000000	65.356469 
4765.000000	65.361118 
4764.000000	65.337657 
4763.000000	65.286898 
4762.000000	65.212488 
4761.000000	65.120434 
4760.000000	65.018963 
4759.000000	64.917182 
4758.000000	64.824175 
4757.000000	64.747262 
4756.000000	64.690804 
4755.000000	64.655637 
4754.000000	64.639329 
4753.000000	64.637303 
4752.000000	64.643573 
4751.000000	64.652681 
4750.000000	64.660406 
4749.000000	64.664459 
4748.000000	64.663815 
4747.000000	64.658641 
4746.000000	64.649128 
4745.000000	64.635562 
4744.000000	64.618062 
4743.000000	64.596509 
4742.000000	64.570760 
4741.000000	64.540958 
4740.000000	64.508008 
4739.000000	64.473104 
4738.000000	64.438056 
4737.000000	64.405703 
4736.000000	64.380049 
4735.000000	64.365315 
4734.000000	64.366149 
4733.000000	64.386558 
4732.000000	64.429569 
4731.000000	64.496016 
4730.000000	64.584231 
4729.000000	64.689207 
4728.000000	64.803266 
4727.000000	64.917302 
4726.000000	65.021967 
4725.000000	65.109014 
4724.000000	65.172719 
4723.000000	65.211367 
4722.000000	65.226221 
4721.000000	65.221095 
4720.000000	65.201020 
4719.000000	65.171313 
4718.000000	65.136337 
4717.000000	65.099430 
4716.000000	65.062451 
4715.000000	65.026593 
4714.000000	64.992070 
4713.000000	64.958977 
4712.000000	64.927053 
4711.000000	64.896273 
4710.000000	64.867281 
4709.000000	64.841580 
4708.000000	64.820933 
4707.000000	64.807224 
4706.000000	64.801621 
4705.000000	64.804482 
4704.000000	64.814901 
4703.000000	64.831137 
4702.000000	64.850640 
4701.000000	64.870810 
4700.000000	64.889621 
4699.000000	64.905786 
4698.000000	64.919018 
4697.000000	64.929604 
4696.000000	64.937996 
4695.000000	64.944219 
4694.000000	64.948034 
4693.000000	64.948558 
4692.000000	64.944434 
4691.000000	64.934444 
4690.000000	64.918184 
4689.000000	64.895653 
4688.000000	64.867639 
4687.000000	64.834523 
4686.000000	64.796352 
4685.000000	64.752340 
4684.000000	64.701676 
4683.000000	64.644265 
4682.000000	64.581799 
4681.000000	64.518380 
4680.000000	64.460778 
4679.000000	64.417052 
4678.000000	64.395499 
4677.000000	64.402151 
4676.000000	64.439821 
4675.000000	64.506363 
4674.000000	64.595556 
4673.000000	64.697766 
4672.000000	64.802098 
4671.000000	64.898252 
4670.000000	64.978480 
4669.000000	65.038442 
4668.000000	65.077376 
4667.000000	65.097427 
4666.000000	65.102314 
4665.000000	65.096211 
4664.000000	65.081977 
4663.000000	65.061068 
4662.000000	65.033650 
4661.000000	64.999914 
4660.000000	64.959859 
4659.000000	64.914274 
4658.000000	64.864945 
4657.000000	64.814877 
4656.000000	64.767026 
4655.000000	64.724183 
4654.000000	64.688444 
4653.000000	64.661574 
4652.000000	64.644694 
4651.000000	64.639019 
4650.000000	64.645934 
4649.000000	64.666485 
4648.000000	64.701032 
4647.000000	64.748334 
4646.000000	64.804697 
4645.000000	64.864230 
4644.000000	64.919042 
4643.000000	64.961338 
4642.000000	64.983987 
4641.000000	64.983892 
4640.000000	64.962768 
4639.000000	64.927601 
4638.000000	64.888954 
4637.000000	64.859056 
4636.000000	64.849066 
4635.000000	64.866042 
4634.000000	64.911508 
4633.000000	64.981269 
4632.000000	65.066719 
4631.000000	65.157175 
4630.000000	65.242290 
4629.000000	65.314197 
4628.000000	65.368580 
4627.000000	65.405011 
4626.000000	65.426015 
4625.000000	65.435290 
4624.000000	65.436267 
4623.000000	65.431666 
4622.000000	65.422272 
4621.000000	65.407729 
4620.000000	65.386605 
4619.000000	65.358448 
4618.000000	65.323758 
4617.000000	65.284967 
4616.000000	65.245842 
4615.000000	65.210938 
4614.000000	65.184783 
4613.000000	65.170741 
4612.000000	65.170383 
4611.000000	65.183019 
4610.000000	65.205597 
4609.000000	65.233302 
4608.000000	65.260195 
4607.000000	65.280413 
4606.000000	65.288901 
4605.000000	65.282416 
4604.000000	65.260076 
4603.000000	65.223789 
4602.000000	65.178585 
4601.000000	65.131711 
4600.000000	65.091252 
4599.000000	65.064764 
4598.000000	65.058541 
4597.000000	65.075635 
4596.000000	65.115118 
4595.000000	65.171909 
4594.000000	65.237617 
4593.000000	65.302276 
4592.000000	65.355944 
4591.000000	65.391135 
4590.000000	65.403866 
4589.000000	65.395116 
4588.000000	65.369868 
4587.000000	65.336847 
4586.000000	65.306091 
4585.000000	65.287232 
4584.000000	65.287256 
4583.000000	65.309548 
4582.000000	65.353560 
4581.000000	65.414810 
4580.000000	65.486454 
4579.000000	65.559744 
4578.000000	65.625715 
4577.000000	65.676450 
4576.000000	65.706133 
4575.000000	65.711402 
4574.000000	65.691709 
4573.000000	65.649390 
4572.000000	65.589380 
4571.000000	65.518498 
4570.000000	65.444517 
4569.000000	65.375638 
4568.000000	65.319013 
4567.000000	65.280103 
4566.000000	65.261650 
4565.000000	65.263915 
4564.000000	65.283751 
4563.000000	65.315961 
4562.000000	65.353345 
4561.000000	65.387630 
4560.000000	65.411138 
4559.000000	65.417814 
4558.000000	65.404391 
4557.000000	65.370345 
4556.000000	65.318799 
4555.000000	65.255331 
4554.000000	65.188384 
4553.000000	65.127229 
4552.000000	65.081524 
4551.000000	65.059137 
4550.000000	65.065336 
4549.000000	65.101265 
4548.000000	65.163445 
4547.000000	65.244102 
4546.000000	65.331935 
4545.000000	65.414619 
4544.000000	65.481042 
4543.000000	65.524005 
4542.000000	65.541410 
4541.000000	65.536451 
4540.000000	65.516161 
4539.000000	65.489292 
4538.000000	65.464472 
4537.000000	65.447402 
4536.000000	65.439701 
4535.000000	65.438866 
4534.000000	65.440082 
4533.000000	65.437650 
4532.000000	65.427827 
4531.000000	65.409731 
4530.000000	65.386104 
4529.000000	65.362644 
4528.000000	65.346121 
4527.000000	65.342497 
4526.000000	65.354871 
4525.000000	65.383005 
4524.000000	65.423083 
4523.000000	65.468978 
4522.000000	65.513610 
4521.000000	65.550637 
4520.000000	65.575814 
4519.000000	65.587401 
4518.000000	65.586829 
4517.000000	65.578079 
4516.000000	65.566945 
4515.000000	65.559530 
4514.000000	65.560770 
4513.000000	65.574336 
4512.000000	65.600395 
4511.000000	65.636467 
4510.000000	65.676641 
4509.000000	65.713167 
4508.000000	65.737891 
4507.000000	65.743803 
4506.000000	65.727281 
4505.000000	65.689015 
4504.000000	65.634632 
4503.000000	65.573072 
4502.000000	65.515661 
4501.000000	65.473628 
4500.000000	65.455007 
4499.000000	65.462875 
4498.000000	65.494060 
4497.000000	65.540099 
4496.000000	65.588617 
4495.000000	65.626525 
4494.000000	65.644121 
4493.000000	65.637254 
4492.000000	65.608143 
4491.000000	65.564060 
4490.000000	65.513515 
4489.000000	65.464639 
4488.000000	65.422010 
4487.000000	65.387439 
4486.000000	65.361452 
4485.000000	65.343618 
4484.000000	65.334916 
4483.000000	65.335893 
4482.000000	65.348505 
4481.000000	65.371751 
4480.000000	65.398144 
4479.000000	65.417981 
4478.000000	65.423274 
4477.000000	65.406727 
4476.000000	65.362429 
4475.000000	65.290522 
4474.000000	65.199685 
4473.000000	65.098762 
4472.000000	64.992666 
4471.000000	64.888024 
4470.000000	64.793348 
4469.000000	64.708328 
4468.000000	64.626908 
4467.000000	64.545702 
4466.000000	64.466071 
4465.000000	64.403724 
4464.000000	64.382219 
4463.000000	64.410400 
4462.000000	64.484715 
4461.000000	64.602589 
4460.000000	64.750671 
4459.000000	64.905214 
4458.000000	65.030050 
4457.000000	65.093851 
4456.000000	65.059232 
4455.000000	64.891624 
4454.000000	64.560699 
4453.000000	64.048361 
4452.000000	63.354468 
4451.000000	62.509560 
4450.000000	61.558246 
4449.000000	60.570335 
4448.000000	59.588265 
4447.000000	58.625936 
4446.000000	57.636880 
4445.000000	56.533765 
4444.000000	55.200624 
4443.000000	53.545999 
4442.000000	51.550722 
4441.000000	49.319505 
4440.000000	47.107720 
4439.000000	45.304203 
4438.000000	44.358062 
4437.000000	44.682598 
4436.000000	46.553587 
4435.000000	50.010299 
4434.000000	54.811859 
4433.000000	60.450863 
4432.000000	66.232681 
4431.000000	71.414065 
4430.000000	75.339293 
4429.000000	77.590894 
4428.000000	78.064227 
4427.000000	76.976394 
4426.000000	74.809265 
4425.000000	72.164392 
4424.000000	69.620561 
4423.000000	67.607307 
4422.000000	66.346216 
4421.000000	65.842223 
4420.000000	65.960025 
4419.000000	66.485524 
4418.000000	67.237138 
4417.000000	68.056249 
4416.000000	68.843388 
4415.000000	69.520807 
4414.000000	70.027327 
4413.000000	70.315480 
4412.000000	70.350193 
4411.000000	70.136785 
4410.000000	69.709372 
4409.000000	69.128775 
4408.000000	68.463850 
4407.000000	67.777419 
4406.000000	67.115569 
4405.000000	66.511797 
4404.000000	65.981841 
4403.000000	65.533089 
4402.000000	65.164637 
4401.000000	64.882922 
4400.000000	64.690160 
4399.000000	64.565062 
4398.000000	64.488458 
4397.000000	64.448523 
4396.000000	64.436960 
4395.000000	64.443588 
4394.000000	64.461088 
4393.000000	64.477372 
4392.000000	64.488029 
4391.000000	64.496350 
4390.000000	64.507246 
4389.000000	64.524531 
4388.000000	64.552855 
4387.000000	64.595961 
4386.000000	64.657831 
4385.000000	64.741063 
4384.000000	64.844584 
4383.000000	64.963054 
4382.000000	65.088462 
4381.000000	65.210533 
4380.000000	65.317678 
4379.000000	65.399694 
4378.000000	65.449142 
4377.000000	65.463972 
4376.000000	65.451073 
4375.000000	65.421652 
4374.000000	65.386939 
4373.000000	65.356993 
4372.000000	65.339946 
4371.000000	65.339517 
4370.000000	65.354490 
4369.000000	65.381598 
4368.000000	65.418434 
4367.000000	65.462756 
4366.000000	65.513372 
4365.000000	65.568804 
4364.000000	65.626645 
4363.000000	65.682554 
4362.000000	65.730094 
4361.000000	65.761232 
4360.000000	65.768098 
4359.000000	65.745639 
4358.000000	65.693259 
4357.000000	65.616059 
4356.000000	65.524148 
4355.000000	65.431308 
4354.000000	65.351581 
4353.000000	65.296149 
4352.000000	65.270519 
4351.000000	65.274071 
4350.000000	65.299963 
4349.000000	65.337300 
4348.000000	65.374398 
4347.000000	65.402173 
4346.000000	65.416216 
4345.000000	65.416908 
4344.000000	65.409135 
4343.000000	65.399861 
4342.000000	65.395593 
4341.000000	65.399765 
4340.000000	65.411400 
4339.000000	65.425205 
4338.000000	65.433120 
4337.000000	65.426850 
4336.000000	65.400266 
4335.000000	65.351700 
4334.000000	65.284109 
4333.000000	65.204715 
4332.000000	65.123152 
4331.000000	65.049505 
4330.000000	64.991569 
4329.000000	64.953660 
4328.000000	64.936709 
4327.000000	64.938354 
4326.000000	64.954590 
4325.000000	64.980506 
4324.000000	65.011262 
4323.000000	65.042829 
4322.000000	65.071845 
4321.000000	65.096259 
4320.000000	65.113949 
4319.000000	65.123605 
4318.000000	65.124368 
4317.000000	65.116333 
4316.000000	65.100836 
4315.000000	65.080332 
4314.000000	65.057921 
4313.000000	65.037059 
4312.000000	65.021157 
4311.000000	65.012574 
4310.000000	65.012502 
4309.000000	65.020346 
4308.000000	65.033960 
4307.000000	65.050148 
4306.000000	65.065503 
4305.000000	65.076494 
4304.000000	65.080308 
4303.000000	65.075135 
4302.000000	65.060830 
4301.000000	65.038418 
4300.000000	65.010428 
4299.000000	64.980769 
4298.000000	64.953875 
4297.000000	64.934325 
4296.000000	64.925289 
4295.000000	64.928698 
4294.000000	64.943504 
4293.000000	64.966559 
4292.000000	64.992141 
4291.000000	65.013051 
4290.000000	65.022039 
4289.000000	65.013098 
4288.000000	64.983487 
4287.000000	64.933872 
4286.000000	64.869427 
4285.000000	64.798378 
4284.000000	64.731144 
4283.000000	64.677906 
4282.000000	64.647054 
4281.000000	64.643430 
4280.000000	64.667606 
4279.000000	64.715647 
4278.000000	64.780163 
4277.000000	64.851856 
4276.000000	64.921402 
4275.000000	64.981198 
4274.000000	65.026354 
4273.000000	65.055227 
4272.000000	65.069007 
4271.000000	65.070629 
4270.000000	65.063166 
4269.000000	65.049195 
4268.000000	65.030097 
4267.000000	65.006256 
4266.000000	64.977836 
4265.000000	64.945435 
4264.000000	64.911222 
4263.000000	64.878439 
4262.000000	64.851379 
4261.000000	64.834141 
4260.000000	64.829468 
4259.000000	64.837837 
4258.000000	64.856839 
4257.000000	64.881706 
4256.000000	64.906501 
4255.000000	64.925384 
4254.000000	64.933991 
4253.000000	64.930748 
4252.000000	64.917635 
4251.000000	64.899086 
4250.000000	64.881205 
4249.000000	64.869999 
4248.000000	64.869952 
4247.000000	64.883422 
4246.000000	64.909863 
4245.000000	64.945793 
4244.000000	64.985585 
4243.000000	65.023255 
4242.000000	65.053081 
4241.000000	65.070676 
4240.000000	65.073585 
4239.000000	65.061759 
4238.000000	65.037584 
4237.000000	65.004897 
4236.000000	64.968895 
4235.000000	64.934754 
4234.000000	64.907479 
4233.000000	64.891242 
4232.000000	64.889144 
4231.000000	64.903092 
4230.000000	64.933514 
4229.000000	64.979529 
4228.000000	65.038681 
4227.000000	65.107035 
4226.000000	65.179061 
4225.000000	65.247988 
4224.000000	65.306353 
4223.000000	65.346670 
4222.000000	65.362715 
4221.000000	65.350556 
4220.000000	65.309786 
4219.000000	65.243506 
4218.000000	65.158700 
4217.000000	65.064692 
4216.000000	64.971733 
4215.000000	64.889144 
4214.000000	64.824128 
4213.000000	64.780616 
4212.000000	64.759588 
4211.000000	64.759349 
4210.000000	64.776206 
4209.000000	64.805674 
4208.000000	64.843058 
4207.000000	64.884138 
4206.000000	64.924812 
4205.000000	64.961910 
4204.000000	64.992547 
4203.000000	65.014767 
4202.000000	65.027070 
4201.000000	65.029120 
4200.000000	65.021538 
4199.000000	65.006279 
4198.000000	64.986276 
4197.000000	64.964914 
4196.000000	64.945554 
4195.000000	64.930748 
4194.000000	64.921784 
4193.000000	64.919066 
4192.000000	64.921998 
4191.000000	64.929223 
4190.000000	64.939117 
4189.000000	64.950203 
4188.000000	64.961481 
4187.000000	64.972424 
4186.000000	64.983010 
4185.000000	64.992976 
4184.000000	65.002083 
4183.000000	65.010094 
4182.000000	65.016412 
4181.000000	65.019679 
4180.000000	65.018343 
4179.000000	65.011191 
4178.000000	64.997625 
4177.000000	64.978098 
4176.000000	64.954400 
4175.000000	64.929461 
4174.000000	64.907312 
4173.000000	64.892387 
4172.000000	64.888501 
4171.000000	64.897823 
4170.000000	64.920186 
4169.000000	64.952731 
4168.000000	64.990115 
4167.000000	65.025615 
4166.000000	65.052366 
4165.000000	65.064978 
4164.000000	65.060567 
4163.000000	65.039682 
4162.000000	65.005707 
4161.000000	64.964532 
4160.000000	64.923214 
4159.000000	64.888715 
4158.000000	64.866828 
4157.000000	64.861083 
4156.000000	64.872789 
4155.000000	64.900445 
4154.000000	64.940547 
4153.000000	64.987754 
4152.000000	65.036034 
4151.000000	65.079259 
4150.000000	65.112328 
4149.000000	65.131425 
4148.000000	65.134716 
4147.000000	65.122580 
4146.000000	65.097403 
4145.000000	65.063238 
4144.000000	65.024733 
4143.000000	64.986252 
4142.000000	64.950942 
4141.000000	64.920377 
4140.000000	64.894652 
4139.000000	64.872574 
4138.000000	64.852929 
4137.000000	64.834761 
4136.000000	64.818572 
4135.000000	64.806246 
4134.000000	64.801192 
4133.000000	64.806842 
4132.000000	64.826059 
4131.000000	64.859652 
4130.000000	64.906167 
4129.000000	64.961791 
4128.000000	65.020632 
4127.000000	65.075826 
4126.000000	65.120744 
4125.000000	65.150666 
4124.000000	65.162897 
4123.000000	65.157341 
4122.000000	65.136051 
4121.000000	65.102696 
4120.000000	65.061902 
4119.000000	65.018606 
4118.000000	64.977407 
4117.000000	64.941811 
4116.000000	64.914107 
4115.000000	64.895033 
4114.000000	64.884066 
4113.000000	64.879512 
4112.000000	64.878749 
4111.000000	64.879131 
4110.000000	64.878106 
4109.000000	64.874362 
4108.000000	64.867186 
4107.000000	64.857840 
4106.000000	64.848089 
4105.000000	64.841151 
4104.000000	64.840555 
4103.000000	64.849853 
4102.000000	64.871382 
4101.000000	64.905667 
4100.000000	64.951300 
4099.000000	65.004277 
4098.000000	65.058898 
4097.000000	65.108489 
4096.000000	65.146732 
4095.000000	65.168547 
4094.000000	65.171194 
4093.000000	65.154623 
4092.000000	65.121507 
4091.000000	65.076899 
4090.000000	65.027093 
4089.000000	64.978742 
4088.000000	64.937639 
4087.000000	64.908337 
4086.000000	64.893364 
4085.000000	64.892959 
4084.000000	64.905166 
4083.000000	64.926528 
4082.000000	64.952397 
4081.000000	64.977741 
4080.000000	64.997911 
4079.000000	65.009093 
4078.000000	65.009284 
4077.000000	64.998149 
4076.000000	64.977192 
4075.000000	64.949369 
4074.000000	64.918327 
4073.000000	64.887595 
4072.000000	64.859890 
4071.000000	64.837002 
4070.000000	64.819335 
4069.000000	64.806604 
4068.000000	64.797878 
4067.000000	64.792275 
4066.000000	64.789509 
4065.000000	64.790034 
4064.000000	64.794564 
4063.000000	64.803862 
4062.000000	64.818215 
4061.000000	64.837408 
4060.000000	64.860224 
4059.000000	64.885377 
4058.000000	64.911293 
4057.000000	64.936923 
4056.000000	64.962029 
4055.000000	64.987063 
4054.000000	65.012454 
4053.000000	65.038537 
4052.000000	65.064811 
4051.000000	65.090322 
4050.000000	65.113711 
4049.000000	65.133619 
4048.000000	65.149354 
4047.000000	65.160894 
4046.000000	65.169215 
4045.000000	65.175628 
4044.000000	65.181612 
4043.000000	65.187883 
4042.000000	65.194010 
4041.000000	65.198755 
4040.000000	65.200471 
4039.000000	65.197753 
4038.000000	65.189981 
4037.000000	65.178036 
4036.000000	65.164136 
4035.000000	65.151214 
4034.000000	65.142059 
4033.000000	65.138339 
4032.000000	65.140438 
4031.000000	65.147209 
4030.000000	65.156459 
4029.000000	65.165710 
4028.000000	65.172767 
4027.000000	65.176606 
4026.000000	65.177273 
4025.000000	65.175366 
4024.000000	65.171933 
4023.000000	65.167737 
4022.000000	65.163397 
4021.000000	65.158653 
4020.000000	65.153336 
4019.000000	65.147399 
4018.000000	65.141463 
4017.000000	65.137195 
4016.000000	65.136480 
4015.000000	65.141153 
4014.000000	65.152215 
4013.000000	65.169429 
4012.000000	65.191316 
4011.000000	65.215301 
4010.000000	65.238451 
4009.000000	65.258073 
4008.000000	65.272235 
4007.000000	65.280032 
4006.000000	65.281701 
4005.000000	65.277600 
4004.000000	65.268135 
4003.000000	65.252900 
4002.000000	65.231013 
4001.000000	65.201139 
4000.000000	65.162301 
3999.000000	65.114498 
3998.000000	65.059375 
3997.000000	65.000534 
3996.000000	64.943242 
3995.000000	64.893865 
3994.000000	64.858317 
3993.000000	64.841651 
3992.000000	64.846777 
3991.000000	64.874053 
3990.000000	64.920973 
3989.000000	64.982461 
3988.000000	65.051507 
3987.000000	65.120172 
3986.000000	65.180802 
3985.000000	65.226840 
3984.000000	65.253806 
3983.000000	65.259885 
3982.000000	65.246033 
3981.000000	65.215587 
3980.000000	65.173363 
3979.000000	65.125322 
3978.000000	65.077042 
3977.000000	65.033364 
3976.000000	64.997196 
3975.000000	64.969921 
3974.000000	64.950919 
3973.000000	64.938426 
3972.000000	64.929866 
3971.000000	64.922451 
3970.000000	64.913940 
3969.000000	64.902567 
3968.000000	64.887809 
3967.000000	64.869642 
3966.000000	64.849209 
3965.000000	64.827847 
3964.000000	64.807605 
3963.000000	64.790511 
3962.000000	64.778375 
3961.000000	64.772558 
3960.000000	64.773726 
3959.000000	64.781856 
3958.000000	64.796304 
3957.000000	64.816188 
3956.000000	64.840507 
3955.000000	64.867973 
3954.000000	64.897775 
3953.000000	64.929080 
3952.000000	64.961290 
3951.000000	64.993715 
3950.000000	65.025091 
3949.000000	65.053558 
3948.000000	65.077209 
3947.000000	65.093660 
3946.000000	65.100717 
3945.000000	65.096592 
3944.000000	65.081048 
3943.000000	65.054965 
3942.000000	65.020489 
3941.000000	64.980697 
3940.000000	64.939427 
3939.000000	64.900279 
3938.000000	64.866328 
3937.000000	64.839410 
3936.000000	64.820122 
3935.000000	64.807796 
3934.000000	64.800667 
3933.000000	64.796710 
3932.000000	64.793992 
3931.000000	64.791798 
3930.000000	64.790749 
3929.000000	64.792704 
3928.000000	64.800262 
3927.000000	64.816141 
3926.000000	64.842200 
3925.000000	64.878582 
3924.000000	64.923381 
3923.000000	64.972925 
3922.000000	65.022110 
3921.000000	65.065670 
3920.000000	65.098905 
3919.000000	65.118741 
3918.000000	65.124225 
3917.000000	65.116596 
3916.000000	65.099143 
3915.000000	65.076303 
3914.000000	65.052843 
3913.000000	65.033054 
3912.000000	65.019917 
3911.000000	65.014791 
3910.000000	65.017008 
3909.000000	65.024757 
3908.000000	65.034842 
3907.000000	65.043735 
3906.000000	65.048241 
3905.000000	65.046238 
3904.000000	65.036988 
3903.000000	65.021204 
3902.000000	65.001034 
3901.000000	64.979577 
3900.000000	64.960002 
3899.000000	64.944958 
3898.000000	64.936184 
3897.000000	64.934277 
3896.000000	64.938807 
3895.000000	64.948582 
3894.000000	64.962077 
3893.000000	64.977526 
3892.000000	64.993143 
3891.000000	65.007138 
3890.000000	65.017604 
3889.000000	65.022778 
3888.000000	65.021347 
3887.000000	65.012502 
3886.000000	64.996337 
3885.000000	64.973902 
3884.000000	64.947319 
3883.000000	64.919471 
3882.000000	64.893507 
3881.000000	64.872336 
3880.000000	64.858007 
3879.000000	64.851808 
3878.000000	64.853787 
3877.000000	64.863729 
3876.000000	64.881420 
3875.000000	64.906740 
3874.000000	64.939689 
3873.000000	64.980101 
3872.000000	65.027451 
3871.000000	65.079903 
3870.000000	65.134620 
3869.000000	65.187954 
3868.000000	65.235948 
3867.000000	65.275454 
3866.000000	65.304279 
3865.000000	65.321850 
3864.000000	65.328764 
3863.000000	65.327072 
3862.000000	65.318799 
3861.000000	65.306162 
3860.000000	65.290236 
3859.000000	65.271520 
3858.000000	65.249490 
3857.000000	65.223526 
3856.000000	65.193128 
3855.000000	65.158629 
3854.000000	65.121126 
3853.000000	65.082430 
3852.000000	65.044808 
3851.000000	65.010333 
3850.000000	64.980578 
3849.000000	64.956331 
3848.000000	64.937520 
3847.000000	64.923405 
3846.000000	64.912629 
3845.000000	64.903974 
3844.000000	64.896249 
3843.000000	64.889049 
3842.000000	64.882707 
3841.000000	64.878320 
3840.000000	64.877104 
3839.000000	64.880132 
3838.000000	64.887380 
3837.000000	64.897727 
3836.000000	64.908790 
3835.000000	64.917373 
3834.000000	64.920258 
3833.000000	64.915180 
3832.000000	64.901232 
3831.000000	64.879441 
3830.000000	64.852452 
3829.000000	64.824318 
3828.000000	64.799070 
3827.000000	64.780282 
3826.000000	64.769864 
3825.000000	64.768362 
3824.000000	64.774847 
3823.000000	64.787554 
3822.000000	64.804482 
3821.000000	64.824318 
3820.000000	64.846706 
3819.000000	64.871644 
3818.000000	64.899635 
3817.000000	64.930796 
3816.000000	64.964795 
3815.000000	65.000534 
3814.000000	65.036344 
3813.000000	65.070652 
3812.000000	65.101981 
3811.000000	65.129661 
3810.000000	65.153241 
3809.000000	65.172791 
3808.000000	65.188026 
3807.000000	65.198493 
3806.000000	65.202784 
3805.000000	65.199089 
3804.000000	65.185618 
3803.000000	65.161490 
3802.000000	65.127182 
3801.000000	65.085196 
3800.000000	65.039777 
3799.000000	64.996623 
3798.000000	64.961719 
3797.000000	64.940166 
3796.000000	64.935183 
3795.000000	64.947414 
3794.000000	64.974737 
3793.000000	65.012598 
3792.000000	65.055108 
3791.000000	65.096306 
3790.000000	65.130877 
3789.000000	65.155434 
3788.000000	65.168833 
3787.000000	65.172195 
3786.000000	65.168046 
3785.000000	65.159249 
3784.000000	65.148353 
3783.000000	65.136456 
3782.000000	65.123391 
3781.000000	65.107822 
3780.000000	65.087723 
3779.000000	65.061497 
3778.000000	65.028834 
3777.000000	64.991021 
3776.000000	64.951086 
3775.000000	64.913201 
3774.000000	64.881849 
3773.000000	64.860558 
3772.000000	64.850831 
3771.000000	64.851808 
3770.000000	64.860486 
3769.000000	64.872193 
3768.000000	64.881801 
3767.000000	64.884829 
3766.000000	64.878535 
3765.000000	64.861774 
3764.000000	64.835429 
3763.000000	64.801645 
3762.000000	64.763665 
3761.000000	64.725112 
3760.000000	64.689898 
3759.000000	64.661359 
3758.000000	64.642357 
3757.000000	64.635038 
3756.000000	64.640784 
3755.000000	64.659404 
3754.000000	64.689970 
3753.000000	64.730191 
3752.000000	64.777493 
3751.000000	64.828586 
3750.000000	64.880824 
3749.000000	64.931988 
3748.000000	64.980888 
3747.000000	65.027189 
3746.000000	65.070676 
3745.000000	65.111136 
3744.000000	65.147757 
3743.000000	65.179347 
3742.000000	65.204381 
3741.000000	65.221500 
3740.000000	65.230298 
3739.000000	65.231633 
3738.000000	65.227556 
3737.000000	65.220856 
3736.000000	65.214490 
3735.000000	65.210843 
3734.000000	65.210986 
3733.000000	65.214252 
3732.000000	65.218758 
3731.000000	65.221619 
3730.000000	65.220022 
3729.000000	65.211629 
3728.000000	65.195608 
3727.000000	65.172672 
3726.000000	65.144705 
3725.000000	65.114521 
3724.000000	65.084767 
3723.000000	65.057897 
3722.000000	65.035605 
3721.000000	65.018653 
3720.000000	65.006685 
3719.000000	64.998745 
3718.000000	64.993691 
3717.000000	64.990186 
3716.000000	64.986920 
3715.000000	64.983129 
3714.000000	64.978909 
3713.000000	64.974927 
3712.000000	64.972186 
3711.000000	64.972090 
3710.000000	64.976048 
3709.000000	64.984989 
3708.000000	64.999175 
3707.000000	65.018033 
3706.000000	65.040302 
3705.000000	65.064215 
3704.000000	65.087819 
3703.000000	65.109252 
3702.000000	65.126824 
3701.000000	65.139794 
3700.000000	65.147924 
3699.000000	65.151476 
3698.000000	65.150952 
3697.000000	65.147113 
3696.000000	65.140533 
3695.000000	65.131521 
3694.000000	65.120410 
3693.000000	65.107560 
3692.000000	65.093421 
3691.000000	65.078520 
3690.000000	65.063405 
3689.000000	65.048623 
3688.000000	65.034437 
3687.000000	65.020799 
3686.000000	65.007185 
3685.000000	64.992880 
3684.000000	64.977383 
3683.000000	64.960789 
3682.000000	64.943909 
3681.000000	64.928579 
3680.000000	64.917516 
3679.000000	64.913821 
3678.000000	64.920163 
3677.000000	64.938044 
3676.000000	64.967012 
3675.000000	65.004706 
3674.000000	65.046882 
3673.000000	65.088438 
3672.000000	65.124440 
3671.000000	65.151262 
3670.000000	65.167403 
3669.000000	65.173578 
3668.000000	65.172457 
3667.000000	65.167665 
3666.000000	65.162706 
3665.000000	65.160036 
3664.000000	65.160560 
3663.000000	65.163373 
3662.000000	65.166449 
3661.000000	65.167212 
3660.000000	65.163516 
3659.000000	65.154242 
3658.000000	65.139675 
3657.000000	65.121483 
3656.000000	65.102028 
3655.000000	65.083956 
3654.000000	65.069580 
3653.000000	65.060162 
3652.000000	65.056276 
3651.000000	65.057730 
3650.000000	65.063858 
3649.000000	65.073704 
3648.000000	65.086197 
3647.000000	65.100622 
3646.000000	65.116167 
3645.000000	65.131902 
3644.000000	65.146708 
3643.000000	65.159153 
3642.000000	65.167450 
3641.000000	65.170025 
3640.000000	65.165376 
3639.000000	65.152668 
3638.000000	65.131878 
3637.000000	65.104317 
3636.000000	65.072131 
3635.000000	65.038132 
3634.000000	65.005254 
3633.000000	64.976143 
3632.000000	64.952635 
3631.000000	64.935684 
3630.000000	64.925241 
3629.000000	64.920830 
3628.000000	64.921689 
3627.000000	64.927411 
3626.000000	64.937925 
3625.000000	64.953804 
3624.000000	64.975857 
3623.000000	65.004944 
3622.000000	65.041375 
3621.000000	65.084576 
3620.000000	65.132880 
3619.000000	65.183353 
3618.000000	65.232229 
3617.000000	65.275144 
3616.000000	65.308094 
3615.000000	65.327954 
3614.000000	65.333104 
3613.000000	65.323543 
3612.000000	65.301060 
3611.000000	65.268659 
3610.000000	65.230250 
3609.000000	65.189766 
3608.000000	65.150785 
3607.000000	65.116143 
3606.000000	65.087652 
3605.000000	65.066313 
3604.000000	65.052509 
3603.000000	65.046048 
3602.000000	65.046429 
3601.000000	65.052843 
3600.000000	65.064215 
3599.000000	65.078830 
3598.000000	65.094661 
3597.000000	65.109133 
3596.000000	65.119791 
3595.000000	65.124750 
3594.000000	65.123176 
3593.000000	65.115284 
3592.000000	65.102481 
3591.000000	65.086960 
3590.000000	65.071010 
3589.000000	65.056562 
3588.000000	65.044522 
3587.000000	65.034914 
3586.000000	65.026903 
3585.000000	65.019154 
3584.000000	65.010428 
3583.000000	64.999938 
3582.000000	64.987921 
3581.000000	64.975357 
3580.000000	64.964127 
3579.000000	64.956283 
3578.000000	64.953756 
3577.000000	64.957809 
3576.000000	64.968490 
3575.000000	64.984631 
3574.000000	65.004324 
3573.000000	65.025043 
3572.000000	65.044069 
3571.000000	65.059041 
3570.000000	65.068316 
3569.000000	65.071272 
3568.000000	65.068101 
3567.000000	65.059828 
3566.000000	65.047931 
3565.000000	65.033960 
3564.000000	65.019536 
3563.000000	65.005993 
3562.000000	64.994549 
3561.000000	64.986419 
3560.000000	64.982914 
3559.000000	64.985251 
3558.000000	64.994525 
3557.000000	65.010905 
3556.000000	65.033459 
3555.000000	65.059852 
3554.000000	65.086579 
3553.000000	65.109610 
3552.000000	65.125179 
3551.000000	65.130829 
3550.000000	65.126156 
3549.000000	65.112662 
3548.000000	65.093755 
3547.000000	65.073823 
3546.000000	65.057444 
3545.000000	65.048360 
3544.000000	65.048742 
3543.000000	65.058732 
3542.000000	65.076375 
3541.000000	65.098690 
3540.000000	65.121817 
3539.000000	65.142202 
3538.000000	65.156888 
3537.000000	65.164399 
3536.000000	65.164422 
3535.000000	65.157938 
3534.000000	65.146636 
3533.000000	65.132284 
3532.000000	65.116596 
3531.000000	65.100955 
3530.000000	65.086364 
3529.000000	65.073752 
3528.000000	65.063905 
3527.000000	65.057921 
3526.000000	65.056872 
3525.000000	65.061831 
3524.000000	65.073490 
3523.000000	65.091657 
3522.000000	65.114951 
3521.000000	65.140795 
3520.000000	65.165543 
3519.000000	65.184926 
3518.000000	65.194773 
3517.000000	65.191864 
3516.000000	65.174651 
3515.000000	65.143895 
3514.000000	65.102434 
3513.000000	65.055131 
3512.000000	65.008068 
3511.000000	64.967417 
3510.000000	64.938545 
3509.000000	64.924740 
3508.000000	64.926815 
3507.000000	64.943027 
3506.000000	64.969468 
3505.000000	65.000748 
3504.000000	65.031003 
3503.000000	65.055227 
3502.000000	65.069985 
3501.000000	65.073966 
3500.000000	65.067911 
3499.000000	65.054297 
3498.000000	65.036463 
3497.000000	65.018010 
3496.000000	65.001773 
3495.000000	64.989662 
3494.000000	64.982295 
3493.000000	64.979267 
3492.000000	64.979553 
3491.000000	64.981985 
3490.000000	64.985799 
3489.000000	64.990663 
3488.000000	64.997029 
3487.000000	65.005540 
3486.000000	65.017080 
3485.000000	65.032219 
3484.000000	65.050888 
3483.000000	65.072417 
3482.000000	65.095305 
3481.000000	65.117692 
3480.000000	65.137147 
3479.000000	65.151095 
3478.000000	65.157175 
3477.000000	65.154004 
3476.000000	65.141367 
3475.000000	65.120434 
3474.000000	65.093755 
3473.000000	65.064787 
3472.000000	65.037035 
3471.000000	65.013456 
3470.000000	64.995694 
3469.000000	64.983725 
3468.000000	64.976096 
3467.000000	64.970493 
3466.000000	64.964628 
3465.000000	64.957141 
3464.000000	64.948058 
3463.000000	64.938950 
3462.000000	64.932417 
3461.000000	64.931321 
3460.000000	64.937639 
3459.000000	64.952158 
3458.000000	64.973330 
3457.000000	64.998269 
3456.000000	65.023350 
3455.000000	65.045046 
3454.000000	65.061044 
3453.000000	65.070557 
3452.000000	65.074491 
3451.000000	65.074753 
3450.000000	65.073513 
3449.000000	65.072631 
3448.000000	65.072774 
3447.000000	65.073490 
3446.000000	65.073561 
3445.000000	65.071320 
3444.000000	65.065431 
3443.000000	65.055418 
3442.000000	65.042066 
3441.000000	65.026998 
3440.000000	65.012359 
3439.000000	65.000247 
3438.000000	64.991950 
3437.000000	64.987683 
3436.000000	64.986324 
3435.000000	64.985966 
3434.000000	64.984226 
3433.000000	64.978957 
3432.000000	64.968991 
3431.000000	64.954066 
3430.000000	64.935445 
3429.000000	64.915132 
3428.000000	64.895939 
3427.000000	64.880371 
3426.000000	64.870643 
3425.000000	64.867925 
3424.000000	64.872431 
3423.000000	64.883255 
3422.000000	64.898991 
3421.000000	64.917874 
3420.000000	64.938235 
3419.000000	64.958477 
3418.000000	64.977288 
3417.000000	64.993453 
3416.000000	65.005850 
3415.000000	65.013456 
3414.000000	65.015506 
3413.000000	65.011787 
3412.000000	65.002727 
3411.000000	64.989376 
3410.000000	64.973402 
3409.000000	64.956760 
3408.000000	64.941596 
3407.000000	64.929652 
3406.000000	64.922118 
3405.000000	64.919447 
3404.000000	64.921617 
3403.000000	64.928007 
3402.000000	64.937901 
3401.000000	64.950704 
3400.000000	64.965844 
3399.000000	64.982867 
3398.000000	65.001296 
3397.000000	65.020513 
3396.000000	65.039610 
3395.000000	65.057396 
3394.000000	65.072393 
3393.000000	65.083193 
3392.000000	65.088605 
3391.000000	65.087890 
3390.000000	65.080928 
3389.000000	65.068340 
3388.000000	65.051341 
3387.000000	65.031719 
3386.000000	65.011644 
3385.000000	64.993262 
3384.000000	64.978528 
3383.000000	64.968991 
3382.000000	64.965415 
3381.000000	64.967918 
3380.000000	64.975810 
3379.000000	64.987826 
3378.000000	65.002346 
3377.000000	65.017700 
3376.000000	65.032291 
3375.000000	65.044951 
3374.000000	65.054655 
3373.000000	65.060782 
3372.000000	65.063023 
3371.000000	65.061140 
3370.000000	65.055060 
3369.000000	65.044760 
3368.000000	65.030670 
3367.000000	65.013742 
3366.000000	64.995598 
3365.000000	64.978241 
3364.000000	64.964008 
3363.000000	64.955019 
3362.000000	64.952611 
3361.000000	64.956974 
3360.000000	64.966988 
3359.000000	64.980459 
3358.000000	64.994406 
3357.000000	65.006089 
3356.000000	65.013408 
3355.000000	65.015673 
3354.000000	65.013623 
3353.000000	65.009546 
3352.000000	65.006160 
3351.000000	65.006232 
3350.000000	65.011620 
3349.000000	65.022850 
3348.000000	65.039181 
3347.000000	65.058803 
3346.000000	65.079236 
3345.000000	65.098023 
3344.000000	65.113377 
3343.000000	65.124320 
3342.000000	65.130782 
3341.000000	65.133357 
3340.000000	65.132689 
3339.000000	65.129351 
3338.000000	65.123748 
3337.000000	65.115904 
3336.000000	65.105986 
3335.000000	65.094327 
3334.000000	65.081906 
3333.000000	65.070104 
3332.000000	65.060710 
3331.000000	65.055465 
3330.000000	65.055823 
3329.000000	65.062499 
3328.000000	65.075182 
3327.000000	65.092492 
3326.000000	65.111970 
3325.000000	65.130615 
3324.000000	65.145206 
3323.000000	65.152621 
3322.000000	65.150618 
3321.000000	65.138220 
3320.000000	65.116167 
3319.000000	65.086650 
3318.000000	65.053367 
3317.000000	65.020775 
3316.000000	64.993405 
3315.000000	64.975070 
3314.000000	64.967942 
3313.000000	64.972138 
3312.000000	64.985704 
3311.000000	65.005064 
3310.000000	65.025901 
3309.000000	65.044283 
3308.000000	65.057492 
3307.000000	65.064430 
3306.000000	65.065860 
3305.000000	65.064024 
3304.000000	65.061593 
3303.000000	65.060687 
3302.000000	65.062236 
3301.000000	65.065622 
3300.000000	65.068769 
3299.000000	65.068793 
3298.000000	65.063071 
3297.000000	65.049552 
3296.000000	65.027832 
3295.000000	64.999127 
3294.000000	64.965987 
3293.000000	64.931845 
3292.000000	64.899945 
3291.000000	64.873266 
3290.000000	64.854049 
3289.000000	64.843654 
3288.000000	64.842557 
3287.000000	64.850211 
3286.000000	64.865350 
3285.000000	64.885950 
3284.000000	64.909625 
3283.000000	64.933538 
3282.000000	64.954829 
3281.000000	64.970922 
3280.000000	64.980101 
3279.000000	64.981603 
3278.000000	64.975643 
3277.000000	64.963626 
3276.000000	64.947533 
3275.000000	64.929771 
3274.000000	64.912414 
3273.000000	64.897155 
3272.000000	64.884901 
3271.000000	64.876055 
3270.000000	64.870381 
3269.000000	64.867424 
3268.000000	64.866352 
3267.000000	64.866042 
3266.000000	64.865255 
3265.000000	64.862608 
3264.000000	64.857244 
3263.000000	64.848423 
3262.000000	64.836525 
3261.000000	64.822721 
3260.000000	64.809179 
3259.000000	64.798331 
3258.000000	64.792799 
3257.000000	64.794611 
3256.000000	64.805030 
3255.000000	64.824032 
3254.000000	64.850616 
3253.000000	64.882826 
3252.000000	64.918279 
3251.000000	64.954257 
3250.000000	64.988136 
3249.000000	65.017366 
3248.000000	65.039658 
3247.000000	65.053224 
3246.000000	65.056562 
3245.000000	65.049052 
3244.000000	65.031218 
3243.000000	65.005016 
3242.000000	64.974093 
3241.000000	64.943027 
3240.000000	64.917182 
3239.000000	64.901208 
3238.000000	64.898633 
3237.000000	64.910507 
3236.000000	64.935374 
3235.000000	64.969396 
3234.000000	65.006947 
3233.000000	65.041947 
3232.000000	65.069127 
3231.000000	65.085124 
3230.000000	65.089154 
3229.000000	65.083003 
3228.000000	65.070319 
3227.000000	65.055680 
3226.000000	65.043330 
3225.000000	65.036010 
3224.000000	65.034294 
3223.000000	65.036678 
3222.000000	65.040111 
3221.000000	65.041160 
3220.000000	65.036630 
3219.000000	65.024662 
3218.000000	65.005135 
3217.000000	64.979505 
3216.000000	64.950394 
3215.000000	64.920663 
3214.000000	64.893245 
3213.000000	64.870142 
3212.000000	64.852428 
3211.000000	64.840340 
3210.000000	64.833331 
3209.000000	64.830350 
3208.000000	64.830446 
3207.000000	64.832592 
3206.000000	64.836311 
3205.000000	64.841175 
3204.000000	64.847230 
3203.000000	64.854407 
3202.000000	64.863014 
3201.000000	64.873456 
3200.000000	64.886045 
3199.000000	64.900732 
3198.000000	64.917278 
3197.000000	64.935064 
3196.000000	64.953112 
3195.000000	64.970183 
3194.000000	64.985466 
3193.000000	64.998412 
3192.000000	65.009284 
3191.000000	65.018630 
3190.000000	65.027499 
3189.000000	65.036535 
3188.000000	65.046048 
3187.000000	65.055441 
3186.000000	65.063476 
3185.000000	65.068507 
3184.000000	65.069222 
3183.000000	65.064835 
3182.000000	65.055584 
3181.000000	65.042781 
3180.000000	65.028858 
3179.000000	65.016555 
3178.000000	65.008258 
3177.000000	65.005469 
3176.000000	65.008521 
3175.000000	65.016269 
3174.000000	65.026402 
3173.000000	65.035939 
3172.000000	65.041923 
3171.000000	65.041947 
3170.000000	65.034675 
3169.000000	65.019774 
3168.000000	64.997982 
3167.000000	64.970874 
3166.000000	64.940786 
3165.000000	64.909934 
3164.000000	64.880514 
3163.000000	64.854264 
3162.000000	64.832401 
3161.000000	64.815473 
3160.000000	64.803314 
3159.000000	64.795446 
3158.000000	64.791369 
3157.000000	64.790296 
3156.000000	64.792227 
3155.000000	64.797306 
3154.000000	64.806652 
3153.000000	64.821600 
3152.000000	64.843654 
3151.000000	64.873743 
3150.000000	64.911746 
3149.000000	64.956188 
3148.000000	65.003585 
3147.000000	65.048861 
3146.000000	65.086102 
3145.000000	65.109634 
3144.000000	65.115189 
3143.000000	65.100932 
3142.000000	65.068125 
3141.000000	65.020918 
3140.000000	64.965462 
3139.000000	64.908576 
3138.000000	64.856624 
3137.000000	64.814162 
3136.000000	64.783477 
3135.000000	64.764499 
3134.000000	64.755392 
3133.000000	64.753460 
3132.000000	64.755725 
3131.000000	64.760303 
3130.000000	64.766049 
3129.000000	64.773488 
3128.000000	64.783525 
3127.000000	64.798045 
3126.000000	64.818143 
3125.000000	64.844560 
3124.000000	64.876866 
3123.000000	64.913702 
3122.000000	64.952778 
3121.000000	64.991211 
3120.000000	65.026187 
3119.000000	65.055274 
3118.000000	65.076780 
3117.000000	65.090227 
3116.000000	65.096235 
3115.000000	65.096569 
3114.000000	65.093207 
3113.000000	65.088224 
3112.000000	65.082907 
3111.000000	65.077805 
3110.000000	65.072321 
3109.000000	65.065193 
3108.000000	65.054845 
3107.000000	65.040445 
3106.000000	65.022087 
3105.000000	65.000963 
3104.000000	64.979171 
3103.000000	64.959478 
3102.000000	64.944624 
3101.000000	64.936470 
3100.000000	64.935517 
3099.000000	64.940810 
3098.000000	64.950180 
3097.000000	64.960861 
3096.000000	64.970064 
3095.000000	64.975738 
3094.000000	64.976859 
3093.000000	64.973473 
3092.000000	64.966535 
3091.000000	64.957475 
3090.000000	64.947843 
3089.000000	64.938950 
3088.000000	64.931488 
3087.000000	64.925622 
3086.000000	64.921212 
3085.000000	64.918017 
3084.000000	64.915800 
3083.000000	64.914512 
3082.000000	64.914059 
3081.000000	64.914679 
3080.000000	64.916348 
3079.000000	64.919209 
3078.000000	64.923143 
3077.000000	64.928150 
3076.000000	64.934134 
3075.000000	64.941048 
3074.000000	64.948630 
3073.000000	64.956712 
3072.000000	64.964985 
3071.000000	64.973306 
3070.000000	64.981603 
3069.000000	64.990139 
3068.000000	64.999389 
3067.000000	65.010070 
3066.000000	65.022659 
3065.000000	65.037250 
3064.000000	65.053343 
3063.000000	65.069556 
3062.000000	65.083861 
3061.000000	65.094017 
3060.000000	65.097856 
3059.000000	65.094041 
3058.000000	65.082478 
3057.000000	65.064549 
3056.000000	65.042734 
3055.000000	65.020060 
3054.000000	64.999318 
3053.000000	64.982557 
3052.000000	64.970660 
3051.000000	64.963531 
3050.000000	64.960265 
3049.000000	64.959645 
3048.000000	64.960646 
3047.000000	64.963030 
3046.000000	64.967131 
3045.000000	64.973568 
3044.000000	64.983034 
3043.000000	64.995789 
3042.000000	65.011286 
3041.000000	65.027976 
3040.000000	65.043616 
3039.000000	65.055751 
3038.000000	65.062189 
3037.000000	65.061616 
3036.000000	65.053725 
3035.000000	65.039467 
3034.000000	65.020823 
3033.000000	65.000510 
3032.000000	64.981603 
3031.000000	64.966893 
3030.000000	64.958477 
3029.000000	64.957451 
3028.000000	64.963722 
3027.000000	64.975881 
3026.000000	64.991664 
3025.000000	65.008306 
3024.000000	65.023040 
3023.000000	65.033555 
3022.000000	65.038537 
3021.000000	65.037655 
3020.000000	65.031337 
3019.000000	65.020728 
3018.000000	65.007114 
3017.000000	64.991688 
3016.000000	64.975523 
3015.000000	64.959549 
3014.000000	64.944553 
3013.000000	64.931678 
3012.000000	64.922642 
3011.000000	64.919352 
3010.000000	64.923691 
3009.000000	64.936947 
3008.000000	64.959263 
3007.000000	64.989185 
3006.000000	65.023636 
3005.000000	65.058422 
3004.000000	65.089154 
3003.000000	65.111947 
3002.000000	65.124487 
3001.000000	65.126323 
3000.000000	65.118837 
2999.000000	65.105080 
2998.000000	65.088462 
2997.000000	65.072131 
2996.000000	65.057897 
2995.000000	65.046191 
2994.000000	65.035748 
2993.000000	65.024471 
2992.000000	65.009999 
2991.000000	64.990592 
2990.000000	64.965653 
2989.000000	64.936137 
2988.000000	64.904308 
2987.000000	64.873051 
2986.000000	64.845442 
2985.000000	64.823818 
2984.000000	64.809536 
2983.000000	64.802575 
2982.000000	64.801764 
2981.000000	64.805197 
2980.000000	64.810562 
2979.000000	64.815711 
2978.000000	64.819097 
2977.000000	64.820146 
2976.000000	64.818620 
2975.000000	64.815330 
2974.000000	64.811468 
2973.000000	64.808583 
2972.000000	64.807987 
2971.000000	64.810752 
2970.000000	64.817333 
2969.000000	64.827585 
2968.000000	64.840793 
2967.000000	64.855313 
2966.000000	64.869236 
2965.000000	64.880323 
2964.000000	64.886736 
2963.000000	64.887189 
2962.000000	64.881205 
2961.000000	64.869356 
2960.000000	64.853191 
2959.000000	64.834856 
2958.000000	64.816856 
2957.000000	64.801383 
2956.000000	64.789986 
2955.000000	64.783000 
2954.000000	64.779496 
2953.000000	64.777565 
2952.000000	64.774990 
2951.000000	64.769625 
2950.000000	64.760160 
2949.000000	64.746379 
2948.000000	64.729499 
2947.000000	64.711642 
2946.000000	64.695787 
2945.000000	64.684605 
2944.000000	64.680147 
2943.000000	64.683485 
2942.000000	64.694571 
2941.000000	64.712190 
2940.000000	64.734196 
2939.000000	64.758205 
2938.000000	64.781785 
2937.000000	64.802718 
2936.000000	64.819359 
2935.000000	64.830708 
2934.000000	64.836359 
2933.000000	64.836478 
2932.000000	64.831614 
2931.000000	64.822697 
2930.000000	64.811158 
2929.000000	64.798665 
2928.000000	64.787220 
2927.000000	64.778757 
2926.000000	64.775109 
2925.000000	64.777398 
2924.000000	64.785671 
2923.000000	64.798665 
2922.000000	64.814090 
2921.000000	64.828729 
2920.000000	64.839267 
2919.000000	64.842891 
2918.000000	64.837932 
2917.000000	64.824271 
2916.000000	64.803314 
2915.000000	64.777612 
2914.000000	64.750361 
2913.000000	64.724826 
2912.000000	64.703798 
2911.000000	64.689135 
2910.000000	64.681434 
2909.000000	64.680242 
2908.000000	64.684271 
2907.000000	64.691662 
2906.000000	64.700269 
2905.000000	64.708375 
2904.000000	64.714741 
2903.000000	64.718747 
2902.000000	64.720392 
2901.000000	64.720129 
2900.000000	64.718747 
2899.000000	64.717149 
2898.000000	64.716124 
2897.000000	64.716434 
2896.000000	64.718651 
2895.000000	64.723324 
2894.000000	64.730644 
2893.000000	64.740562 
2892.000000	64.752411 
2891.000000	64.765262 
2890.000000	64.777731 
2889.000000	64.788269 
2888.000000	64.795422 
2887.000000	64.798092 
2886.000000	64.795923 
2885.000000	64.789342 
2884.000000	64.779686 
2883.000000	64.768910 
2882.000000	64.759278 
2881.000000	64.752840 
2880.000000	64.751005 
2879.000000	64.754319 
2878.000000	64.762067 
2877.000000	64.772534 
2876.000000	64.783191 
2875.000000	64.791440 
2874.000000	64.794945 
2873.000000	64.792513 
2872.000000	64.784049 
2871.000000	64.770555 
2870.000000	64.754080 
2869.000000	64.737200 
2868.000000	64.722323 
2867.000000	64.711284 
2866.000000	64.705228 
2865.000000	64.704346 
2864.000000	64.708042 
2863.000000	64.715027 
2862.000000	64.723730 
2861.000000	64.732408 
2860.000000	64.739489 
2859.000000	64.743733 
2858.000000	64.744353 
2857.000000	64.741206 
2856.000000	64.734697 
2855.000000	64.725828 
2854.000000	64.716076 
2853.000000	64.707112 
2852.000000	64.700818 
2851.000000	64.698672 
2850.000000	64.701318 
2849.000000	64.708685 
2848.000000	64.719963 
2847.000000	64.733624 
2846.000000	64.747691 
2845.000000	64.760160 
2844.000000	64.769268 
2843.000000	64.773797 
2842.000000	64.773130 
2841.000000	64.767408 
2840.000000	64.757347 
2839.000000	64.744138 
2838.000000	64.729332 
2837.000000	64.714550 
2836.000000	64.701461 
2835.000000	64.691090 
2834.000000	64.684295 
2833.000000	64.681220 
2832.000000	64.681720 
2831.000000	64.685344 
2830.000000	64.691877 
2829.000000	64.700913 
2828.000000	64.712476 
2827.000000	64.726758 
2826.000000	64.744067 
2825.000000	64.764332 
2824.000000	64.787054 
2823.000000	64.811062 
2822.000000	64.834690 
2821.000000	64.856028 
2820.000000	64.873242 
2819.000000	64.885163 
2818.000000	64.891648 
2817.000000	64.893770 
2816.000000	64.893412 
2815.000000	64.892840 
2814.000000	64.894342 
2813.000000	64.899230 
2812.000000	64.907956 
2811.000000	64.919614 
2810.000000	64.932298 
2809.000000	64.943671 
2808.000000	64.951419 
2807.000000	64.953756 
2806.000000	64.950013 
2805.000000	64.940524 
2804.000000	64.926624 
2803.000000	64.910221 
2802.000000	64.893245 
2801.000000	64.877414 
2800.000000	64.863801 
2799.000000	64.852881 
2798.000000	64.844679 
2797.000000	64.839029 
2796.000000	64.835906 
2795.000000	64.835524 
2794.000000	64.838361 
2793.000000	64.844942 
2792.000000	64.855742 
2791.000000	64.870619 
2790.000000	64.888739 
2789.000000	64.908814 
2788.000000	64.928913 
2787.000000	64.947009 
2786.000000	64.961218 
2785.000000	64.970445 
2784.000000	64.974188 
2783.000000	64.972949 
2782.000000	64.967370 
2781.000000	64.958524 
2780.000000	64.946985 
2779.000000	64.933347 
2778.000000	64.917540 
2777.000000	64.899468 
2776.000000	64.879226 
2775.000000	64.857339 
2774.000000	64.834928 
2773.000000	64.813637 
2772.000000	64.795565 
2771.000000	64.782762 
2770.000000	64.776897 
2769.000000	64.778780 
2768.000000	64.788174 
2767.000000	64.803862 
2766.000000	64.823651 
2765.000000	64.844679 
2764.000000	64.863967 
2763.000000	64.878892 
2762.000000	64.887523 
2761.000000	64.889073 
2760.000000	64.883661 
2759.000000	64.872455 
2758.000000	64.857506 
2757.000000	64.841198 
2756.000000	64.825868 
2755.000000	64.813446 
2754.000000	64.805269 
2753.000000	64.801764 
2752.000000	64.802575 
2751.000000	64.806747 
2750.000000	64.813160 
2749.000000	64.820766 
2748.000000	64.828658 
2747.000000	64.836573 
2746.000000	64.844369 
2745.000000	64.852380 
2744.000000	64.860916 
2743.000000	64.870309 
2742.000000	64.880394 
2741.000000	64.890956 
2740.000000	64.901518 
2739.000000	64.911270 
2738.000000	64.919161 
2737.000000	64.924073 
2736.000000	64.924955 
2735.000000	64.920902 
2734.000000	64.911365 
2733.000000	64.896154 
2732.000000	64.875745 
2731.000000	64.851498 
2730.000000	64.825248 
2729.000000	64.799451 
2728.000000	64.776325 
2727.000000	64.757800 
2726.000000	64.744949 
2725.000000	64.737772 
2724.000000	64.735388 
2723.000000	64.736127 
2722.000000	64.738297 
2721.000000	64.740228 
2720.000000	64.741277 
2719.000000	64.741468 
2718.000000	64.741826 
2717.000000	64.743733 
2716.000000	64.748573 
2715.000000	64.757156 
2714.000000	64.769387 
2713.000000	64.784049 
2712.000000	64.799332 
2711.000000	64.812922 
2710.000000	64.822745 
2709.000000	64.827370 
2708.000000	64.826321 
2707.000000	64.820146 
2706.000000	64.810323 
2705.000000	64.798831 
2704.000000	64.787960 
2703.000000	64.779710 
2702.000000	64.775872 
2701.000000	64.777207 
2700.000000	64.783883 
2699.000000	64.795136 
2698.000000	64.809703 
2697.000000	64.825892 
2696.000000	64.841961 
2695.000000	64.856624 
2694.000000	64.869093 
2693.000000	64.879393 
2692.000000	64.888143 
2691.000000	64.896559 
2690.000000	64.905953 
2689.000000	64.917373 
2688.000000	64.931154 
2687.000000	64.946651 
2686.000000	64.962434 
2685.000000	64.976429 
2684.000000	64.986371 
2683.000000	64.990377 
2682.000000	64.987325 
2681.000000	64.977288 
2680.000000	64.961385 
2679.000000	64.941549 
2678.000000	64.919829 
2677.000000	64.898538 
2676.000000	64.879107 
2675.000000	64.862251 
2674.000000	64.847731 
2673.000000	64.834618 
2672.000000	64.821481 
2671.000000	64.807081 
2670.000000	64.790844 
2669.000000	64.772915 
2668.000000	64.754629 
2667.000000	64.737749 
2666.000000	64.724659 
2665.000000	64.717435 
2664.000000	64.717674 
2663.000000	64.725732 
2662.000000	64.740967 
2661.000000	64.761900 
2660.000000	64.786458 
2659.000000	64.812278 
2658.000000	64.837312 
2657.000000	64.859771 
2656.000000	64.878487 
2655.000000	64.892578 
2654.000000	64.901518 
2653.000000	64.905095 
2652.000000	64.903092 
2651.000000	64.895653 
2650.000000	64.883327 
2649.000000	64.867186 
2648.000000	64.848971 
2647.000000	64.831018 
2646.000000	64.815640 
2645.000000	64.804863 
2644.000000	64.800000 
2643.000000	64.801073 
2642.000000	64.806771 
2641.000000	64.814686 
2640.000000	64.821887 
2639.000000	64.825677 
2638.000000	64.824247 
2637.000000	64.817452 
2636.000000	64.806699 
2635.000000	64.794588 
2634.000000	64.784216 
2633.000000	64.778208 
2632.000000	64.778065 
2631.000000	64.783740 
2630.000000	64.793586 
2629.000000	64.804744 
2628.000000	64.814066 
2627.000000	64.818811 
2626.000000	64.817547 
2625.000000	64.810109 
2624.000000	64.797949 
2623.000000	64.783239 
2622.000000	64.768552 
2621.000000	64.756059 
2620.000000	64.747118 
2619.000000	64.742112 
2618.000000	64.740443 
2617.000000	64.740967 
2616.000000	64.742565 
2615.000000	64.744353 
2614.000000	64.746260 
2613.000000	64.748787 
2612.000000	64.752984 
2611.000000	64.760088 
2610.000000	64.771056 
2609.000000	64.786171 
2608.000000	64.804959 
2607.000000	64.826107 
2606.000000	64.847517 
2605.000000	64.866924 
2604.000000	64.882111 
2603.000000	64.891505 
2602.000000	64.894533 
2601.000000	64.892053 
2600.000000	64.886307 
2599.000000	64.880323 
2598.000000	64.877676 
2597.000000	64.881134 
2596.000000	64.892053 
2595.000000	64.909458 
2594.000000	64.930415 
2593.000000	64.950251 
2592.000000	64.964008 
2591.000000	64.967346 
2590.000000	64.957904 
2589.000000	64.935803 
2588.000000	64.903736 
2587.000000	64.866328 
2586.000000	64.828848 
2585.000000	64.796209 
2584.000000	64.772033 
2583.000000	64.757680 
2582.000000	64.752435 
2581.000000	64.754009 
2580.000000	64.759254 
2579.000000	64.765167 
2578.000000	64.769530 
2577.000000	64.771127 
2576.000000	64.769887 
2575.000000	64.766430 
2574.000000	64.761710 
2573.000000	64.756703 
2572.000000	64.752006 
2571.000000	64.748024 
2570.000000	64.744782 
2569.000000	64.742040 
2568.000000	64.739322 
2567.000000	64.736151 
2566.000000	64.731907 
2565.000000	64.725971 
2564.000000	64.717721 
2563.000000	64.706635 
2562.000000	64.692378 
2561.000000	64.675045 
2560.000000	64.655113 
2559.000000	64.633488 
2558.000000	64.611601 
2557.000000	64.591145 
2556.000000	64.573955 
2555.000000	64.561724 
2554.000000	64.555668 
2553.000000	64.556384 
2552.000000	64.563870 
2551.000000	64.577436 
2550.000000	64.596033 
2549.000000	64.618325 
2548.000000	64.642834 
2547.000000	64.668226 
2546.000000	64.693379 
2545.000000	64.717292 
2544.000000	64.739203 
2543.000000	64.758396 
2542.000000	64.774298 
2541.000000	64.786338 
2540.000000	64.794182 
2539.000000	64.797544 
2538.000000	64.796710 
2537.000000	64.791965 
2536.000000	64.784193 
2535.000000	64.774227 
2534.000000	64.762973 
2533.000000	64.751076 
2532.000000	64.739155 
2531.000000	64.727640 
2530.000000	64.716839 
2529.000000	64.707279 
2528.000000	64.699387 
2527.000000	64.693641 
2526.000000	64.690208 
2525.000000	64.689183 
2524.000000	64.690232 
2523.000000	64.693069 
2522.000000	64.697289 
2521.000000	64.702630 
2520.000000	64.708852 
2519.000000	64.715623 
2518.000000	64.722418 
2517.000000	64.728379 
2516.000000	64.732289 
2515.000000	64.733004 
2514.000000	64.729595 
2513.000000	64.721584 
2512.000000	64.709305 
2511.000000	64.694023 
2510.000000	64.677667 
2509.000000	64.662551 
2508.000000	64.650774 
2507.000000	64.643597 
2506.000000	64.641475 
2505.000000	64.643716 
2504.000000	64.648938 
2503.000000	64.655709 
2502.000000	64.662814 
2501.000000	64.669775 
2500.000000	64.676618 
2499.000000	64.683723 
2498.000000	64.691424 
2497.000000	64.699697 
2496.000000	64.708232 
2495.000000	64.716100 
2494.000000	64.722371 
2493.000000	64.726209 
2492.000000	64.727258 
2491.000000	64.725756 
2490.000000	64.722561 
2489.000000	64.719033 
2488.000000	64.716434 
2487.000000	64.716053 
2486.000000	64.718651 
2485.000000	64.724588 
2484.000000	64.733719 
2483.000000	64.745330 
2482.000000	64.758467 
2481.000000	64.771676 
2480.000000	64.783263 
2479.000000	64.791488 
2478.000000	64.794731 
2477.000000	64.792108 
2476.000000	64.783525 
2475.000000	64.770030 
2474.000000	64.753675 
2473.000000	64.737200 
2472.000000	64.723348 
2471.000000	64.714193 
2470.000000	64.710617 
2469.000000	64.711880 
2468.000000	64.715862 
2467.000000	64.719676 
2466.000000	64.720606 
2465.000000	64.716839 
2464.000000	64.708018 
2463.000000	64.695549 
2462.000000	64.681887 
2461.000000	64.669942 
2460.000000	64.661860 
2459.000000	64.658498 
2458.000000	64.659190 
2457.000000	64.661908 
2456.000000	64.664125 
2455.000000	64.663577 
2454.000000	64.659118 
2453.000000	64.650940 
2452.000000	64.640641 
2451.000000	64.630270 
2450.000000	64.622139 
2449.000000	64.617776 
2448.000000	64.617896 
2447.000000	64.621949 
2446.000000	64.628934 
2445.000000	64.637947 
2444.000000	64.648652 
2443.000000	64.661431 
2442.000000	64.676976 
2441.000000	64.696240 
2440.000000	64.719343 
2439.000000	64.745664 
2438.000000	64.773535 
2437.000000	64.800667 
2436.000000	64.824652 
2435.000000	64.843606 
2434.000000	64.856433 
2433.000000	64.863085 
2432.000000	64.864563 
2431.000000	64.862084 
2430.000000	64.857196 
2429.000000	64.850783 
2428.000000	64.843535 
2427.000000	64.835309 
2426.000000	64.825725 
2425.000000	64.813828 
2424.000000	64.799332 
2423.000000	64.781928 
2422.000000	64.762067 
2421.000000	64.740300 
2420.000000	64.717435 
2419.000000	64.694213 
2418.000000	64.671373 
2417.000000	64.649510 
2416.000000	64.629054 
2415.000000	64.610362 
2414.000000	64.593911 
2413.000000	64.580154 
2412.000000	64.569473 
2411.000000	64.562416 
2410.000000	64.559531 
2409.000000	64.561080 
2408.000000	64.567208 
2407.000000	64.577651 
2406.000000	64.591956 
2405.000000	64.609193 
2404.000000	64.628291 
2403.000000	64.648103 
2402.000000	64.667415 
2401.000000	64.685010 
2400.000000	64.699673 
2399.000000	64.710283 
2398.000000	64.715886 
2397.000000	64.715862 
2396.000000	64.709901 
2395.000000	64.698219 
2394.000000	64.681768 
2393.000000	64.662098 
2392.000000	64.641189 
2391.000000	64.621067 
2390.000000	64.603686 
2389.000000	64.590454 
2388.000000	64.581727 
2387.000000	64.577102 
2386.000000	64.575171 
2385.000000	64.574384 
2384.000000	64.573192 
2383.000000	64.570760 
2382.000000	64.567065 
2381.000000	64.563059 
2380.000000	64.560127 
2379.000000	64.559864 
2378.000000	64.563250 
2377.000000	64.570379 
2376.000000	64.580559 
2375.000000	64.592027 
2374.000000	64.602708 
2373.000000	64.610528 
2372.000000	64.614033 
2371.000000	64.612865 
2370.000000	64.607644 
2369.000000	64.599871 
2368.000000	64.591360 
2367.000000	64.583992 
2366.000000	64.578986 
2365.000000	64.576745 
2364.000000	64.576530 
2363.000000	64.576959 
2362.000000	64.576411 
2361.000000	64.573407 
2360.000000	64.567065 
2359.000000	64.557361 
2358.000000	64.545392 
2357.000000	64.532828 
2356.000000	64.521646 
2355.000000	64.513731 
2354.000000	64.510154 
2353.000000	64.511060 
2352.000000	64.515566 
2351.000000	64.521956 
2350.000000	64.528107 
2349.000000	64.532184 
2348.000000	64.533305 
2347.000000	64.531230 
2346.000000	64.527320 
2345.000000	64.523530 
2344.000000	64.522457 
2343.000000	64.526319 
2342.000000	64.536833 
2341.000000	64.554667 
2340.000000	64.579296 
2339.000000	64.609074 
2338.000000	64.641666 
2337.000000	64.674329 
2336.000000	64.704465 
2335.000000	64.729952 
2334.000000	64.749240 
2333.000000	64.761567 
2332.000000	64.766693 
2331.000000	64.765071 
2330.000000	64.757776 
2329.000000	64.746069 
2328.000000	64.731740 
2327.000000	64.716315 
2326.000000	64.701485 
2325.000000	64.688372 
2324.000000	64.677786 
2323.000000	64.669942 
2322.000000	64.664673 
2321.000000	64.661359 
2320.000000	64.659190 
2319.000000	64.657521 
2318.000000	64.655876 
2317.000000	64.653944 
2316.000000	64.651608 
2315.000000	64.648890 
2314.000000	64.645934 
2313.000000	64.642930 
2312.000000	64.639973 
2311.000000	64.637184 
2310.000000	64.634656 
2309.000000	64.632487 
2308.000000	64.630675 
2307.000000	64.629006 
2306.000000	64.626955 
2305.000000	64.623570 
2304.000000	64.617753 
2303.000000	64.608550 
2302.000000	64.595317 
2301.000000	64.578247 
2300.000000	64.558339 
2299.000000	64.537596 
2298.000000	64.518618 
2297.000000	64.504194 
2296.000000	64.496803 
2295.000000	64.497709 
2294.000000	64.506912 
2293.000000	64.523005 
2292.000000	64.543318 
2291.000000	64.564490 
2290.000000	64.583253 
2289.000000	64.596867 
2288.000000	64.603853 
2287.000000	64.604043 
2286.000000	64.598560 
2285.000000	64.589524 
2284.000000	64.579510 
2283.000000	64.571213 
2282.000000	64.566707 
2281.000000	64.567255 
2280.000000	64.572787 
2279.000000	64.582180 
2278.000000	64.593243 
2277.000000	64.603543 
2276.000000	64.610910 
2275.000000	64.613914 
2274.000000	64.612317 
2273.000000	64.606976 
2272.000000	64.599728 
2271.000000	64.592838 
2270.000000	64.588379 
2269.000000	64.587759 
2268.000000	64.591217 
2267.000000	64.597940 
2266.000000	64.606571 
2265.000000	64.615464 
2264.000000	64.623403 
2263.000000	64.629793 
2262.000000	64.634966 
2261.000000	64.639663 
2260.000000	64.644718 
2259.000000	64.650297 
2258.000000	64.655733 
2257.000000	64.659619 
2256.000000	64.660024 
2255.000000	64.655089 
2254.000000	64.643692 
2253.000000	64.625763 
2252.000000	64.602375 
2251.000000	64.575743 
2250.000000	64.548635 
2249.000000	64.523839 
2248.000000	64.503741 
2247.000000	64.489722 
2246.000000	64.482331 
2245.000000	64.481067 
2244.000000	64.484906 
2243.000000	64.492392 
2242.000000	64.502120 
2241.000000	64.512920 
2240.000000	64.523816 
2239.000000	64.533948 
2238.000000	64.542937 
2237.000000	64.550495 
2236.000000	64.556741 
2235.000000	64.561891 
2234.000000	64.566397 
2233.000000	64.570856 
2232.000000	64.575862 
2231.000000	64.581775 
2230.000000	64.588665 
2229.000000	64.596104 
2228.000000	64.603209 
2227.000000	64.608931 
2226.000000	64.612102 
2225.000000	64.611721 
2224.000000	64.607262 
2223.000000	64.598894 
2222.000000	64.587497 
2221.000000	64.574408 
2220.000000	64.561438 
2219.000000	64.550590 
2218.000000	64.543271 
2217.000000	64.540386 
2216.000000	64.542102 
2215.000000	64.547872 
2214.000000	64.556384 
2213.000000	64.565706 
2212.000000	64.573979 
2211.000000	64.579248 
2210.000000	64.580154 
2209.000000	64.575934 
2208.000000	64.566540 
2207.000000	64.552664 
2206.000000	64.535880 
2205.000000	64.517974 
2204.000000	64.500832 
2203.000000	64.486002 
2202.000000	64.474391 
2201.000000	64.466190 
2200.000000	64.460730 
2199.000000	64.456868 
2198.000000	64.453339 
2197.000000	64.449143 
2196.000000	64.443778 
2195.000000	64.437413 
2194.000000	64.430904 
2193.000000	64.425373 
2192.000000	64.422106 
2191.000000	64.422059 
2190.000000	64.425778 
2189.000000	64.433193 
2188.000000	64.443659 
2187.000000	64.456129 
2186.000000	64.469194 
2185.000000	64.481687 
2184.000000	64.492416 
2183.000000	64.500546 
2182.000000	64.505410 
2181.000000	64.506697 
2180.000000	64.504289 
2179.000000	64.498329 
2178.000000	64.489197 
2177.000000	64.477562 
2176.000000	64.464139 
2175.000000	64.449858 
2174.000000	64.435815 
2173.000000	64.423131 
2172.000000	64.412927 
2171.000000	64.406132 
2170.000000	64.403462 
2169.000000	64.405131 
2168.000000	64.410948 
2167.000000	64.420104 
2166.000000	64.431333 
2165.000000	64.443182 
2164.000000	64.454412 
2163.000000	64.464068 
2162.000000	64.471864 
2161.000000	64.478063 
2160.000000	64.483261 
2159.000000	64.488196 
2158.000000	64.493489 
2157.000000	64.499187 
2156.000000	64.504861 
2155.000000	64.509582 
2154.000000	64.512276 
2153.000000	64.512181 
2152.000000	64.509201 
2151.000000	64.503931 
2150.000000	64.497637 
2149.000000	64.491772 
2148.000000	64.487481 
2147.000000	64.485287 
2146.000000	64.484667 
2145.000000	64.484238 
2144.000000	64.482116 
2143.000000	64.476633 
2142.000000	64.466857 
2141.000000	64.452672 
2140.000000	64.435315 
2139.000000	64.417052 
2138.000000	64.400672 
2137.000000	64.388918 
2136.000000	64.384078 
2135.000000	64.387345 
2134.000000	64.398622 
2133.000000	64.416861 
2132.000000	64.440035 
2131.000000	64.465594 
2130.000000	64.490675 
2129.000000	64.512872 
2128.000000	64.529967 
2127.000000	64.540529 
2126.000000	64.543604 
2125.000000	64.539051 
2124.000000	64.527225 
2123.000000	64.509272 
2122.000000	64.486670 
2121.000000	64.461326 
2120.000000	64.435267 
2119.000000	64.410519 
2118.000000	64.389109 
2117.000000	64.372825 
2116.000000	64.363169 
2115.000000	64.361047 
2114.000000	64.366888 
2113.000000	64.380359 
2112.000000	64.400434 
2111.000000	64.425373 
2110.000000	64.452767 
2109.000000	64.479875 
2108.000000	64.503836 
2107.000000	64.522147 
2106.000000	64.532971 
2105.000000	64.535284 
2104.000000	64.529466 
2103.000000	64.516735 
2102.000000	64.499402 
2101.000000	64.480161 
2100.000000	64.461755 
2099.000000	64.446449 
2098.000000	64.435720 
2097.000000	64.429998 
2096.000000	64.428758 
2095.000000	64.430570 
2094.000000	64.433550 
2093.000000	64.435672 
2092.000000	64.435291 
2091.000000	64.431333 
2090.000000	64.423394 
2089.000000	64.411926 
2088.000000	64.398026 
2087.000000	64.383029 
2086.000000	64.368510 
2085.000000	64.355874 
2084.000000	64.346194 
2083.000000	64.340019 
2082.000000	64.337372 
2081.000000	64.337825 
2080.000000	64.340734 
2079.000000	64.345145 
2078.000000	64.350247 
2077.000000	64.355206 
2076.000000	64.359545 
2075.000000	64.363026 
2074.000000	64.365768 
2073.000000	64.367938 
2072.000000	64.369869 
2071.000000	64.371871 
2070.000000	64.374256 
2069.000000	64.377188 
2068.000000	64.380669 
2067.000000	64.384460 
2066.000000	64.388179 
2065.000000	64.391517 
2064.000000	64.394068 
2063.000000	64.395618 
2062.000000	64.396047 
2061.000000	64.395427 
2060.000000	64.393925 
2059.000000	64.391946 
2058.000000	64.389824 
2057.000000	64.388060 
2056.000000	64.387059 
2055.000000	64.387392 
2054.000000	64.389657 
2053.000000	64.394474 
2052.000000	64.402103 
2051.000000	64.412617 
2050.000000	64.425754 
2049.000000	64.440608 
2048.000000	64.455890 
2047.000000	64.469790 
2046.000000	64.480566 
2045.000000	64.486718 
2044.000000	64.487457 
2043.000000	64.482879 
2042.000000	64.473795 
2041.000000	64.461827 
2040.000000	64.448904 
2039.000000	64.436864 
2038.000000	64.426922 
2037.000000	64.419555 
2036.000000	64.414310 
2035.000000	64.410042 
2034.000000	64.405298 
2033.000000	64.398694 
2032.000000	64.389443 
2031.000000	64.377427 
2030.000000	64.363646 
2029.000000	64.349722 
2028.000000	64.338040 
2027.000000	64.330792 
2026.000000	64.329814 
2025.000000	64.336085 
2024.000000	64.349508 
2023.000000	64.368844 
2022.000000	64.392089 
2021.000000	64.416670 
2020.000000	64.440011 
2019.000000	64.459800 
2018.000000	64.474415 
2017.000000	64.483046 
2016.000000	64.485740 
2015.000000	64.483284 
2014.000000	64.476966 
2013.000000	64.468526 
2012.000000	64.459609 
2011.000000	64.451766 
2010.000000	64.445948 
2009.000000	64.442324 
2008.000000	64.440369 
2007.000000	64.439010 
2006.000000	64.436650 
2005.000000	64.431691 
2004.000000	64.422917 
2003.000000	64.409804 
2002.000000	64.392638 
2001.000000	64.372730 
2000.000000	64.351963 
1999.000000	64.332556 
1998.000000	64.316368 
1997.000000	64.304637 
1996.000000	64.297676 
1995.000000	64.295005 
1994.000000	64.295244 
1993.000000	64.296770 
1992.000000	64.298129 
1991.000000	64.298534 
1990.000000	64.297938 
1989.000000	64.297080 
1988.000000	64.297056 
1987.000000	64.299201 
1986.000000	64.304518 
1985.000000	64.313364 
1984.000000	64.325165 
1983.000000	64.338541 
1982.000000	64.351630 
1981.000000	64.362382 
1980.000000	64.369177 
1979.000000	64.371275 
1978.000000	64.368844 
1977.000000	64.363169 
1976.000000	64.356398 
1975.000000	64.350891 
1974.000000	64.348912 
1973.000000	64.352059 
1972.000000	64.361071 
1971.000000	64.375710 
1970.000000	64.394950 
1969.000000	64.417362 
1968.000000	64.440917 
1967.000000	64.463639 
1966.000000	64.483571 
1965.000000	64.499330 
1964.000000	64.509916 
1963.000000	64.515089 
1962.000000	64.515304 
1961.000000	64.511513 
1960.000000	64.504933 
1959.000000	64.496755 
1958.000000	64.487719 
1957.000000	64.478063 
1956.000000	64.467620 
1955.000000	64.455819 
1954.000000	64.442014 
1953.000000	64.425826 
1952.000000	64.407491 
1951.000000	64.387941 
1950.000000	64.368486 
1949.000000	64.350938 
1948.000000	64.337038 
1947.000000	64.328145 
1946.000000	64.324855 
1945.000000	64.326953 
1944.000000	64.333462 
1943.000000	64.343190 
1942.000000	64.354610 
1941.000000	64.366483 
1940.000000	64.377927 
1939.000000	64.388632 
1938.000000	64.398407 
1937.000000	64.407515 
1936.000000	64.416027 
1935.000000	64.424037 
1934.000000	64.431238 
1933.000000	64.436960 
1932.000000	64.440369 
1931.000000	64.440536 
1930.000000	64.436817 
1929.000000	64.429020 
1928.000000	64.417529 
1927.000000	64.403390 
1926.000000	64.388012 
1925.000000	64.372801 
1924.000000	64.358758 
1923.000000	64.346361 
1922.000000	64.335608 
1921.000000	64.326071 
1920.000000	64.317297 
1919.000000	64.308929 
1918.000000	64.300823 
1917.000000	64.293146 
1916.000000	64.286327 
1915.000000	64.280509 
1914.000000	64.275979 
1913.000000	64.272665 
1912.000000	64.270567 
1911.000000	64.269566 
1910.000000	64.269828 
1909.000000	64.271855 
1908.000000	64.276337 
1907.000000	64.283871 
1906.000000	64.294719 
1905.000000	64.308667 
1904.000000	64.324736 
1903.000000	64.341330 
1902.000000	64.356684 
1901.000000	64.369249 
1900.000000	64.378046 
1899.000000	64.382934 
1898.000000	64.384675 
1897.000000	64.384627 
1896.000000	64.384341 
1895.000000	64.384889 
1894.000000	64.386773 
1893.000000	64.389467 
1892.000000	64.391922 
1891.000000	64.392757 
1890.000000	64.390754 
1889.000000	64.385366 
1888.000000	64.376854 
1887.000000	64.366459 
1886.000000	64.355826 
1885.000000	64.346647 
1884.000000	64.340257 
1883.000000	64.337086 
1882.000000	64.336752 
1881.000000	64.338016 
1880.000000	64.339447 
1879.000000	64.339447 
1878.000000	64.337134 
1877.000000	64.332079 
1876.000000	64.324617 
1875.000000	64.315414 
1874.000000	64.305448 
1873.000000	64.295458 
1872.000000	64.285826 
1871.000000	64.276647 
1870.000000	64.267802 
1869.000000	64.259028 
1868.000000	64.250349 
1867.000000	64.242053 
1866.000000	64.234972 
1865.000000	64.229917 
1864.000000	64.227652 
1863.000000	64.228677 
1862.000000	64.232945 
1861.000000	64.239764 
1860.000000	64.248180 
1859.000000	64.256882 
1858.000000	64.264845 
1857.000000	64.271306 
1856.000000	64.276170 
1855.000000	64.279866 
1854.000000	64.283299 
1853.000000	64.287376 
1852.000000	64.292860 
1851.000000	64.300084 
1850.000000	64.308810 
1849.000000	64.318227 
1848.000000	64.327144 
1847.000000	64.333963 
1846.000000	64.337301 
1845.000000	64.336109 
1844.000000	64.329767 
1843.000000	64.318251 
1842.000000	64.302301 
1841.000000	64.283084 
1840.000000	64.262151 
1839.000000	64.241051 
1838.000000	64.221286 
1837.000000	64.204239 
1836.000000	64.191007 
1835.000000	64.182448 
1834.000000	64.178967 
1833.000000	64.180445 
1832.000000	64.186382 
1831.000000	64.195704 
1830.000000	64.206671 
1829.000000	64.217305 
1828.000000	64.225411 
1827.000000	64.229202 
1826.000000	64.227366 
1825.000000	64.219689 
1824.000000	64.206957 
1823.000000	64.191007 
1822.000000	64.174413 
1821.000000	64.159893 
1820.000000	64.150166 
1819.000000	64.146995 
1818.000000	64.151191 
1817.000000	64.162421 
1816.000000	64.179277 
1815.000000	64.199662 
1814.000000	64.220857 
1813.000000	64.240360 
1812.000000	64.256000 
1811.000000	64.266324 
1810.000000	64.270591 
1809.000000	64.268660 
1808.000000	64.261174 
1807.000000	64.249420 
1806.000000	64.234948 
1805.000000	64.219427 
1804.000000	64.204406 
1803.000000	64.191436 
1802.000000	64.181613 
1801.000000	64.175653 
1800.000000	64.173722 
1799.000000	64.175534 
1798.000000	64.180254 
1797.000000	64.186811 
1796.000000	64.193749 
1795.000000	64.199709 
1794.000000	64.203333 
1793.000000	64.203786 
1792.000000	64.200520 
1791.000000	64.193677 
1790.000000	64.183735 
1789.000000	64.171695 
1788.000000	64.158773 
1787.000000	64.146351 
1786.000000	64.135861 
1785.000000	64.128708 
1784.000000	64.125800 
1783.000000	64.127802 
1782.000000	64.135146 
1781.000000	64.147925 
1780.000000	64.165711 
1779.000000	64.187669 
1778.000000	64.212870 
1777.000000	64.240002 
1776.000000	64.267444 
1775.000000	64.293289 
1774.000000	64.315605 
1773.000000	64.332485 
1772.000000	64.342379 
1771.000000	64.344477 
1770.000000	64.338850 
1769.000000	64.326596 
1768.000000	64.309740 
1767.000000	64.290833 
1766.000000	64.272570 
1765.000000	64.257192 
1764.000000	64.245963 
1763.000000	64.239120 
1762.000000	64.235830 
1761.000000	64.234495 
1760.000000	64.233088 
1759.000000	64.229846 
1758.000000	64.223504 
1757.000000	64.213490 
1756.000000	64.200139 
1755.000000	64.184069 
1754.000000	64.165949 
1753.000000	64.146399 
1752.000000	64.125657 
1751.000000	64.103627 
1750.000000	64.080095 
1749.000000	64.055132 
1748.000000	64.029073 
1747.000000	64.002895 
1746.000000	63.977742 
1745.000000	63.955044 
1744.000000	63.935995 
1743.000000	63.921332 
1742.000000	63.911008 
1741.000000	63.904309 
1740.000000	63.899946 
1739.000000	63.896489 
1738.000000	63.892650 
1737.000000	63.887715 
1736.000000	63.881492 
1735.000000	63.874602 
1734.000000	63.868045 
1733.000000	63.863301 
1732.000000	63.861584 
1731.000000	63.863945 
1730.000000	63.870930 
1729.000000	63.882613 
1728.000000	63.898324 
1727.000000	63.917064 
1726.000000	63.937520 
1725.000000	63.958477 
1724.000000	63.978791 
1723.000000	63.997888 
1722.000000	64.015603 
1721.000000	64.032292 
1720.000000	64.048457 
1719.000000	64.064550 
1718.000000	64.080905 
1717.000000	64.097189 
1716.000000	64.112424 
1715.000000	64.125132 
1714.000000	64.133596 
1713.000000	64.136123 
1712.000000	64.131593 
1711.000000	64.119839 
1710.000000	64.101839 
1709.000000	64.079666 
1708.000000	64.056086 
1707.000000	64.034128 
1706.000000	64.016580 
1705.000000	64.005398 
1704.000000	64.001536 
1703.000000	64.004659 
1702.000000	64.013409 
1701.000000	64.025855 
1700.000000	64.039850 
1699.000000	64.053225 
1698.000000	64.064574 
1697.000000	64.073157 
1696.000000	64.078855 
1695.000000	64.082050 
1694.000000	64.083194 
1693.000000	64.082765 
1692.000000	64.080905 
1691.000000	64.077568 
1690.000000	64.072632 
1689.000000	64.066195 
1688.000000	64.058589 
1687.000000	64.050626 
1686.000000	64.043521 
1685.000000	64.038515 
1684.000000	64.036726 
1683.000000	64.038777 
1682.000000	64.044404 
1681.000000	64.052700 
1680.000000	64.062047 
1679.000000	64.070606 
1678.000000	64.076733 
1677.000000	64.079213 
1676.000000	64.077639 
1675.000000	64.072394 
1674.000000	64.064383 
1673.000000	64.054560 
1672.000000	64.043974 
1671.000000	64.033389 
1670.000000	64.023327 
1669.000000	64.014267 
1668.000000	64.006495 
1667.000000	64.000773 
1666.000000	63.998031 
1665.000000	63.999414 
1664.000000	64.005780 
1663.000000	64.017295 
1662.000000	64.033246 
1661.000000	64.051914 
1660.000000	64.070916 
1659.000000	64.087462 
1658.000000	64.099287 
1657.000000	64.105033 
1656.000000	64.104771 
1655.000000	64.099884 
1654.000000	64.092803 
1653.000000	64.086341 
1652.000000	64.082860 
1651.000000	64.083981 
1650.000000	64.089989 
1649.000000	64.100170 
1648.000000	64.112591 
1647.000000	64.125347 
1646.000000	64.136409 
1645.000000	64.144325 
1644.000000	64.148235 
1643.000000	64.147663 
1642.000000	64.142704 
1641.000000	64.133405 
1640.000000	64.120364 
1639.000000	64.104294 
1638.000000	64.086461 
1637.000000	64.068698 
1636.000000	64.053106 
1635.000000	64.042091 
1634.000000	64.037609 
1633.000000	64.040732 
1632.000000	64.051437 
1631.000000	64.068341 
1630.000000	64.088845 
1629.000000	64.109587 
1628.000000	64.126968 
1627.000000	64.137983 
1626.000000	64.140534 
1625.000000	64.133977 
1624.000000	64.119291 
1623.000000	64.098572 
1622.000000	64.074850 
1621.000000	64.051127 
1620.000000	64.030003 
1619.000000	64.013171 
1618.000000	64.001345 
1617.000000	63.994169 
1616.000000	63.990521 
1615.000000	63.989019 
1614.000000	63.988208 
1613.000000	63.987088 
1612.000000	63.985157 
1611.000000	63.982653 
1610.000000	63.979983 
1609.000000	63.977885 
1608.000000	63.976955 
1607.000000	63.977670 
1606.000000	63.980174 
1605.000000	63.984274 
1604.000000	63.989472 
1603.000000	63.995051 
1602.000000	64.000129 
1601.000000	64.003467 
1600.000000	64.003682 
1599.000000	63.999366 
1598.000000	63.989615 
1597.000000	63.974213 
1596.000000	63.954234 
1595.000000	63.931751 
1594.000000	63.909697 
1593.000000	63.891315 
1592.000000	63.879418 
1591.000000	63.875865 
1590.000000	63.880848 
1589.000000	63.892841 
1588.000000	63.908672 
1587.000000	63.924431 
1586.000000	63.936185 
1585.000000	63.940548 
1584.000000	63.935613 
1583.000000	63.921308 
1582.000000	63.899374 
1581.000000	63.872909 
1580.000000	63.845825 
1579.000000	63.821935 
1578.000000	63.804435 
1577.000000	63.795089 
1576.000000	63.794302 
1575.000000	63.800740 
1574.000000	63.811898 
1573.000000	63.824486 
1572.000000	63.834977 
1571.000000	63.840627 
1570.000000	63.839626 
1569.000000	63.831782 
1568.000000	63.818097 
1567.000000	63.801074 
1566.000000	63.783788 
1565.000000	63.769507 
1564.000000	63.760948 
1563.000000	63.759851 
1562.000000	63.766622 
1561.000000	63.780283 
1560.000000	63.798880 
1559.000000	63.820004 
1558.000000	63.841390 
1557.000000	63.861274 
1556.000000	63.878536 
1555.000000	63.892745 
1554.000000	63.904047 
1553.000000	63.912582 
1552.000000	63.918614 
1551.000000	63.922476 
1550.000000	63.924479 
1549.000000	63.925290 
1548.000000	63.925766 
1547.000000	63.926911 
1546.000000	63.929367 
1545.000000	63.933491 
1544.000000	63.939166 
1543.000000	63.945722 
1542.000000	63.952207 
1541.000000	63.957452 
1540.000000	63.960599 
1539.000000	63.961219 
1538.000000	63.959574 
1537.000000	63.956308 
1536.000000	63.952231 
1535.000000	63.947916 
1534.000000	63.943386 
1533.000000	63.938212 
1532.000000	63.931608 
1531.000000	63.922858 
1530.000000	63.911509 
1529.000000	63.897919 
1528.000000	63.882923 
1527.000000	63.867950 
1526.000000	63.854455 
1525.000000	63.843870 
1524.000000	63.837242 
1523.000000	63.835310 
1522.000000	63.838267 
1521.000000	63.845777 
1520.000000	63.857126 
1519.000000	63.871002 
1518.000000	63.885736 
1517.000000	63.899469 
1516.000000	63.910508 
1515.000000	63.917398 
1514.000000	63.919615 
1513.000000	63.917374 
1512.000000	63.911771 
1511.000000	63.904356 
1510.000000	63.896870 
1509.000000	63.890671 
1508.000000	63.886380 
1507.000000	63.883614 
1506.000000	63.881182 
1505.000000	63.877487 
1504.000000	63.871073 
1503.000000	63.861107 
1502.000000	63.847899 
1501.000000	63.832855 
1500.000000	63.818287 
1499.000000	63.806700 
1498.000000	63.800048 
1497.000000	63.799095 
1496.000000	63.803148 
1495.000000	63.810253 
1494.000000	63.817763 
1493.000000	63.823437 
1492.000000	63.826179 
1491.000000	63.826537 
1490.000000	63.826489 
1489.000000	63.828587 
1488.000000	63.835310 
1487.000000	63.847875 
1486.000000	63.866066 
1485.000000	63.888502 
1484.000000	63.912534 
1483.000000	63.935589 
1482.000000	63.955187 
1481.000000	63.969588 
1480.000000	63.977909 
1479.000000	63.979983 
1478.000000	63.976263 
1477.000000	63.967490 
1476.000000	63.954544 
1475.000000	63.938498 
1474.000000	63.920187 
1473.000000	63.900423 
1472.000000	63.879871 
1471.000000	63.859224 
1470.000000	63.839006 
1469.000000	63.819837 
1468.000000	63.802218 
1467.000000	63.786959 
1466.000000	63.774967 
1465.000000	63.767313 
1464.000000	63.764953 
1463.000000	63.768506 
1462.000000	63.777780 
1461.000000	63.791656 
1460.000000	63.807940 
1459.000000	63.824081 
1458.000000	63.837242 
1457.000000	63.845276 
1456.000000	63.847208 
1455.000000	63.843369 
1454.000000	63.835334 
1453.000000	63.825321 
1452.000000	63.815832 
1451.000000	63.808774 
1450.000000	63.805270 
1449.000000	63.805437 
1448.000000	63.808369 
1447.000000	63.812708 
1446.000000	63.817119 
1445.000000	63.820385 
1444.000000	63.821840 
1443.000000	63.821339 
1442.000000	63.819003 
1441.000000	63.815021 
1440.000000	63.809490 
1439.000000	63.802456 
1438.000000	63.794279 
1437.000000	63.785696 
1436.000000	63.777947 
1435.000000	63.772439 
1434.000000	63.770771 
1433.000000	63.774275 
1432.000000	63.783717 
1431.000000	63.799142 
1430.000000	63.819885 
1429.000000	63.844561 
1428.000000	63.871288 
1427.000000	63.897919 
1426.000000	63.922452 
1425.000000	63.943243 
1424.000000	63.959050 
1423.000000	63.969445 
1422.000000	63.974142 
1421.000000	63.973283 
1420.000000	63.966679 
1419.000000	63.953852 
1418.000000	63.933992 
1417.000000	63.906264 
1416.000000	63.870215 
1415.000000	63.826346 
1414.000000	63.776445 
1413.000000	63.723683 
1412.000000	63.672471 
1411.000000	63.627839 
1410.000000	63.594436 
1409.000000	63.575696 
1408.000000	63.573026 
1407.000000	63.585662 
1406.000000	63.610386 
1405.000000	63.642597 
1404.000000	63.677358 
1403.000000	63.710308 
1402.000000	63.738298 
1401.000000	63.759922 
1400.000000	63.775038 
1399.000000	63.784623 
1398.000000	63.789677 
1397.000000	63.791251 
1396.000000	63.789939 
1395.000000	63.785862 
1394.000000	63.779044 
1393.000000	63.769602 
1392.000000	63.758039 
1391.000000	63.745164 
1390.000000	63.732314 
1389.000000	63.720822 
1388.000000	63.711881 
1387.000000	63.706183 
1386.000000	63.703799 
1385.000000	63.704013 
1384.000000	63.705587 
1383.000000	63.707280 
1382.000000	63.707828 
1381.000000	63.706326 
1380.000000	63.702464 
1379.000000	63.696670 
1378.000000	63.690042 
1377.000000	63.683700 
1376.000000	63.678669 
1375.000000	63.675856 
1374.000000	63.675260 
1373.000000	63.676333 
1372.000000	63.677787 
1371.000000	63.677906 
1370.000000	63.675117 
1369.000000	63.668131 
1368.000000	63.656663 
1367.000000	63.641262 
1366.000000	63.623404 
1365.000000	63.605117 
1364.000000	63.588595 
1363.000000	63.575577 
1362.000000	63.567042 
1361.000000	63.563060 
1360.000000	63.562726 
1359.000000	63.564705 
1358.000000	63.567614 
1357.000000	63.570642 
1356.000000	63.573598 
1355.000000	63.577532 
1354.000000	63.583993 
1353.000000	63.595056 
1352.000000	63.612198 
1351.000000	63.636136 
1350.000000	63.666343 
1349.000000	63.701009 
1348.000000	63.737559 
1347.000000	63.772964 
1346.000000	63.804817 
1345.000000	63.831400 
1344.000000	63.852310 
1343.000000	63.867998 
1342.000000	63.879442 
1341.000000	63.887357 
1340.000000	63.892102 
1339.000000	63.893151 
1338.000000	63.889384 
1337.000000	63.879466 
1336.000000	63.862586 
1335.000000	63.838958 
1334.000000	63.810110 
1333.000000	63.778805 
1332.000000	63.748693 
1331.000000	63.723421 
1330.000000	63.705754 
1329.000000	63.697075 
1328.000000	63.697147 
1327.000000	63.704180 
1326.000000	63.715434 
1325.000000	63.727807 
1324.000000	63.738751 
1323.000000	63.746309 
1322.000000	63.750147 
1321.000000	63.750648 
1320.000000	63.749265 
1319.000000	63.747835 
1318.000000	63.748168 
1317.000000	63.751530 
1316.000000	63.758325 
1315.000000	63.768005 
1314.000000	63.779020 
1313.000000	63.789343 
1312.000000	63.796710 
1311.000000	63.799452 
1310.000000	63.796734 
1309.000000	63.788723 
1308.000000	63.776445 
1307.000000	63.761591 
1306.000000	63.745951 
1305.000000	63.731074 
1304.000000	63.717699 
1303.000000	63.705658 
1302.000000	63.694238 
1301.000000	63.682341 
1300.000000	63.668727 
1299.000000	63.652873 
1298.000000	63.634991 
1297.000000	63.616323 
1296.000000	63.598728 
1295.000000	63.584351 
1294.000000	63.574957 
1293.000000	63.571691 
1292.000000	63.574361 
1291.000000	63.581705 
1290.000000	63.591289 
1289.000000	63.600325 
1288.000000	63.605833 
1287.000000	63.605642 
1286.000000	63.598608 
1285.000000	63.585042 
1284.000000	63.566470 
1283.000000	63.545393 
1282.000000	63.524627 
1281.000000	63.506841 
1280.000000	63.493967 
1279.000000	63.486814 
1278.000000	63.485169 
1277.000000	63.488006 
1276.000000	63.493871 
1275.000000	63.501238 
1274.000000	63.509106 
1273.000000	63.516855 
1272.000000	63.524508 
1271.000000	63.532328 
1270.000000	63.540863 
1269.000000	63.550233 
1268.000000	63.560438 
1267.000000	63.571000 
1266.000000	63.581228 
1265.000000	63.590049 
1264.000000	63.596606 
1263.000000	63.600397 
1262.000000	63.601469 
1261.000000	63.600540 
1260.000000	63.598799 
1259.000000	63.597679 
1258.000000	63.598442 
1257.000000	63.601851 
1256.000000	63.607859 
1255.000000	63.615512 
1254.000000	63.623285 
1253.000000	63.629293 
1252.000000	63.631868 
1251.000000	63.629889 
1250.000000	63.623023 
1249.000000	63.611721 
1248.000000	63.597178 
1247.000000	63.581085 
1246.000000	63.565278 
1245.000000	63.551306 
1244.000000	63.540244 
1243.000000	63.532423 
1242.000000	63.527703 
1241.000000	63.525366 
1240.000000	63.524365 
1239.000000	63.523674 
1238.000000	63.522434 
1237.000000	63.520407 
1236.000000	63.517761 
1235.000000	63.515138 
1234.000000	63.513493 
1233.000000	63.514041 
1232.000000	63.517546 
1231.000000	63.524365 
1230.000000	63.534188 
1229.000000	63.545942 
1228.000000	63.558173 
1227.000000	63.569140 
1226.000000	63.577342 
1225.000000	63.581776 
1224.000000	63.582062 
1223.000000	63.578581 
1222.000000	63.572239 
1221.000000	63.564133 
1220.000000	63.555335 
1219.000000	63.546514 
1218.000000	63.538002 
1217.000000	63.529896 
1216.000000	63.522076 
1215.000000	63.514709 
1214.000000	63.508105 
1213.000000	63.503050 
1212.000000	63.500475 
1211.000000	63.501238 
1210.000000	63.506007 
1209.000000	63.514685 
1208.000000	63.526701 
1207.000000	63.540983 
1206.000000	63.556146 
1205.000000	63.570880 
1204.000000	63.584184 
1203.000000	63.595652 
1202.000000	63.605141 
1201.000000	63.612699 
1200.000000	63.618135 
1199.000000	63.620901 
1198.000000	63.620042 
1197.000000	63.614344 
1196.000000	63.602995 
1195.000000	63.585829 
1194.000000	63.563799 
1193.000000	63.538885 
1192.000000	63.513851 
1191.000000	63.491654 
1190.000000	63.474702 
1189.000000	63.464474 
1188.000000	63.460850 
1187.000000	63.462519 
1186.000000	63.467240 
1185.000000	63.472437 
1184.000000	63.475751 
1183.000000	63.475584 
1182.000000	63.471484 
1181.000000	63.463783 
1180.000000	63.453269 
1179.000000	63.440895 
1178.000000	63.427209 
1177.000000	63.412427 
1176.000000	63.396406 
1175.000000	63.379001 
1174.000000	63.360548 
1173.000000	63.341903 
1172.000000	63.324737 
1171.000000	63.311195 
1170.000000	63.303375 
1169.000000	63.302803 
1168.000000	63.309860 
1167.000000	63.323712 
1166.000000	63.342189 
1165.000000	63.362360 
1164.000000	63.381266 
1163.000000	63.396358 
1162.000000	63.406491 
1161.000000	63.411688 
1160.000000	63.413405 
1159.000000	63.413906 
1158.000000	63.415598 
1157.000000	63.420319 
1156.000000	63.428783 
1155.000000	63.440537 
1154.000000	63.453960 
1153.000000	63.466739 
1152.000000	63.476538 
1151.000000	63.481616 
1150.000000	63.481140 
1149.000000	63.475537 
1148.000000	63.466334 
1147.000000	63.455677 
1146.000000	63.445949 
1145.000000	63.439083 
1144.000000	63.436484 
1143.000000	63.438582 
1142.000000	63.444828 
1141.000000	63.453888 
1140.000000	63.464164 
1139.000000	63.473844 
1138.000000	63.481426 
1137.000000	63.485860 
1136.000000	63.486528 
1135.000000	63.483309 
1134.000000	63.476681 
1133.000000	63.467407 
1132.000000	63.456368 
1131.000000	63.444542 
1130.000000	63.433241 
1129.000000	63.423514 
1128.000000	63.416337 
1127.000000	63.412284 
1126.000000	63.411498 
1125.000000	63.413643 
1124.000000	63.417792 
1123.000000	63.422942 
1122.000000	63.427901 
1121.000000	63.431739 
1120.000000	63.433861 
1119.000000	63.434171 
1118.000000	63.432955 
1117.000000	63.430857 
1116.000000	63.428473 
1115.000000	63.426232 
1114.000000	63.424134 
1113.000000	63.421964 
1112.000000	63.419127 
1111.000000	63.415098 
1110.000000	63.409280 
1109.000000	63.401412 
1108.000000	63.391423 
1107.000000	63.379383 
1106.000000	63.365530 
1105.000000	63.350224 
1104.000000	63.334035 
1103.000000	63.317561 
1102.000000	63.301706 
1101.000000	63.287615 
1100.000000	63.276505 
1099.000000	63.269400 
1098.000000	63.267064 
1097.000000	63.269686 
1096.000000	63.276910 
1095.000000	63.287901 
1094.000000	63.301563 
1093.000000	63.316750 
1092.000000	63.332700 
1091.000000	63.348841 
1090.000000	63.364982 
1089.000000	63.381004 
1088.000000	63.396525 
1087.000000	63.410639 
1086.000000	63.422203 
1085.000000	63.429737 
1084.000000	63.432025 
1083.000000	63.428592 
1082.000000	63.420009 
1081.000000	63.407993 
1080.000000	63.395118 
1079.000000	63.384079 
1078.000000	63.377380 
1077.000000	63.376355 
1076.000000	63.380694 
1075.000000	63.388824 
1074.000000	63.398122 
1073.000000	63.405919 
1072.000000	63.410067 
1071.000000	63.409638 
1070.000000	63.405084 
1069.000000	63.398194 
1068.000000	63.391327 
1067.000000	63.386774 
1066.000000	63.385987 
1065.000000	63.389348 
1064.000000	63.396072 
1063.000000	63.404631 
1062.000000	63.413166 
1061.000000	63.420128 
1060.000000	63.424611 
1059.000000	63.426232 
1058.000000	63.425397 
1057.000000	63.422822 
1056.000000	63.419747 
1055.000000	63.416957 
1054.000000	63.415718 
1053.000000	63.417291 
1052.000000	63.423085 
1051.000000	63.434553 
1050.000000	63.452434 
1049.000000	63.476514 
1048.000000	63.504862 
1047.000000	63.534045 
1046.000000	63.559222 
1045.000000	63.574981 
1044.000000	63.576555 
1043.000000	63.561058 
1042.000000	63.528180 
1041.000000	63.480734 
1040.000000	63.424229 
1039.000000	63.365769 
1038.000000	63.312959 
1037.000000	63.272190 
1036.000000	63.247656 
1035.000000	63.240551 
1034.000000	63.249039 
1033.000000	63.269090 
1032.000000	63.295245 
1031.000000	63.322091 
1030.000000	63.345217 
1029.000000	63.362121 
1028.000000	63.371777 
1027.000000	63.374948 
1026.000000	63.373327 
1025.000000	63.369369 
1024.000000	63.365244 
1023.000000	63.362622 
1022.000000	63.362574 
1021.000000	63.365340 
1020.000000	63.370823 
1019.000000	63.378357 
1018.000000	63.386988 
1017.000000	63.395690 
1016.000000	63.403415 
1015.000000	63.409137 
1014.000000	63.412094 
1013.000000	63.411998 
1012.000000	63.409185 
1011.000000	63.404345 
1010.000000	63.398408 
1009.000000	63.392543 
1008.000000	63.387608 
1007.000000	63.383603 
1006.000000	63.379740 
1005.000000	63.374567 
1004.000000	63.366079 
1003.000000	63.352322 
1002.000000	63.332009 
1001.000000	63.304877 
1000.000000	63.272356 
999.000000	 63.237309 
998.000000	 63.204026 
997.000000	 63.176894 
996.000000	 63.160037 
995.000000	 63.156199 
994.000000	 63.166522 
993.000000	 63.189840 
992.000000	 63.223528 
991.000000	 63.264107 
990.000000	 63.308048 
989.000000	 63.352346 
988.000000	 63.395333 
987.000000	 63.436460 
986.000000	 63.476157 
985.000000	 63.515090 
984.000000	 63.553595 
983.000000	 63.590884 
982.000000	 63.625359 
981.000000	 63.654255 
980.000000	 63.674569 
979.000000	 63.683414 
978.000000	 63.679313 
977.000000	 63.662123 
976.000000	 63.633537 
975.000000	 63.596534 
974.000000	 63.555312 
973.000000	 63.514184 
972.000000	 63.477325 
971.000000	 63.447403 
970.000000	 63.425946 
969.000000	 63.412642 
968.000000	 63.405823 
967.000000	 63.402700 
966.000000	 63.400149 
965.000000	 63.395500 
964.000000	 63.387012 
963.000000	 63.374614 
962.000000	 63.359427 
961.000000	 63.344001 
960.000000	 63.331484 
959.000000	 63.324785 
958.000000	 63.325595 
957.000000	 63.334393 
956.000000	 63.350057 
955.000000	 63.370013 
954.000000	 63.390922 
953.000000	 63.409781 
952.000000	 63.424420 
951.000000	 63.433957 
950.000000	 63.438916 
949.000000	 63.440775 
948.000000	 63.441181 
947.000000	 63.441562 
946.000000	 63.442182 
945.000000	 63.442373 
944.000000	 63.440155 
943.000000	 63.433766 
942.000000	 63.421559 
941.000000	 63.402915 
940.000000	 63.378524 
939.000000	 63.350582 
938.000000	 63.322162 
937.000000	 63.296437 
936.000000	 63.276124 
935.000000	 63.262820 
934.000000	 63.256525 
933.000000	 63.255929 
932.000000	 63.258767 
931.000000	 63.262414 
930.000000	 63.264679 
929.000000	 63.264417 
928.000000	 63.261485 
927.000000	 63.257026 
926.000000	 63.252878 
925.000000	 63.251328 
924.000000	 63.254404 
923.000000	 63.263726 
922.000000	 63.280081 
921.000000	 63.303446 
920.000000	 63.332891 
919.000000	 63.366699 
918.000000	 63.402700 
917.000000	 63.438272 
916.000000	 63.470578 
915.000000	 63.496994 
914.000000	 63.515377 
913.000000	 63.524627 
912.000000	 63.524651 
911.000000	 63.516592 
910.000000	 63.502812 
909.000000	 63.486099 
908.000000	 63.469696 
907.000000	 63.455820 
906.000000	 63.445472 
905.000000	 63.438344 
904.000000	 63.433265 
903.000000	 63.428306 
902.000000	 63.421654 
901.000000	 63.412570 
900.000000	 63.401746 
899.000000	 63.391113 
898.000000	 63.383364 
897.000000	 63.381123 
896.000000	 63.386058 
895.000000	 63.398337 
894.000000	 63.416147 
893.000000	 63.436198 
892.000000	 63.453912 
891.000000	 63.465023 
890.000000	 63.465976 
889.000000	 63.454985 
888.000000	 63.432288 
887.000000	 63.400220 
886.000000	 63.362693 
885.000000	 63.323974 
884.000000	 63.288593 
883.000000	 63.260698 
882.000000	 63.243675 
881.000000	 63.239717 
880.000000	 63.250088 
879.000000	 63.275027 
878.000000	 63.313865 
877.000000	 63.364934 
876.000000	 63.425683 
875.000000	 63.492488 
874.000000	 63.560914 
873.000000	 63.625979 
872.000000	 63.682484 
871.000000	 63.725709 
870.000000	 63.752412 
869.000000	 63.761067 
868.000000	 63.752388 
867.000000	 63.728761 
866.000000	 63.694810 
865.000000	 63.655352 
864.000000	 63.615393 
863.000000	 63.578057 
862.000000	 63.545131 
861.000000	 63.515901 
860.000000	 63.488197 
859.000000	 63.459014 
858.000000	 63.425588 
857.000000	 63.386869 
856.000000	 63.344073 
855.000000	 63.300919 
854.000000	 63.262629 
853.000000	 63.234639 
852.000000	 63.221120 
851.000000	 63.223743 
850.000000	 63.240981 
849.000000	 63.268804 
848.000000	 63.301634 
847.000000	 63.333797 
846.000000	 63.360762 
845.000000	 63.380575 
844.000000	 63.393878 
843.000000	 63.403034 
842.000000	 63.411259 
841.000000	 63.421440 
840.000000	 63.434863 
839.000000	 63.450908 
838.000000	 63.466596 
837.000000	 63.477826 
836.000000	 63.479900 
835.000000	 63.469719 
834.000000	 63.445711 
833.000000	 63.408660 
832.000000	 63.361263 
831.000000	 63.308143 
830.000000	 63.254475 
829.000000	 63.205170 
828.000000	 63.164162 
827.000000	 63.133788 
826.000000	 63.114571 
825.000000	 63.105297 
824.000000	 63.103652 
823.000000	 63.106679 
822.000000	 63.111662 
821.000000	 63.116431 
820.000000	 63.119602 
819.000000	 63.120651 
818.000000	 63.119387 
817.000000	 63.115692 
816.000000	 63.109230 
815.000000	 63.099718 
814.000000	 63.087058 
813.000000	 63.071823 
812.000000	 63.055467 
811.000000	 63.040399 
810.000000	 63.029456 
809.000000	 63.025355 
808.000000	 63.030290 
807.000000	 63.044762 
806.000000	 63.067460 
805.000000	 63.095140 
804.000000	 63.123250 
803.000000	 63.146901 
802.000000	 63.161897 
801.000000	 63.165593 
800.000000	 63.157820 
799.000000	 63.140439 
798.000000	 63.117003 
797.000000	 63.092041 
796.000000	 63.070130 
795.000000	 63.054895 
794.000000	 63.048481 
793.000000	 63.051438 
792.000000	 63.062930 
791.000000	 63.080954 
790.000000	 63.103151 
789.000000	 63.127088 
788.000000	 63.150954 
787.000000	 63.173747 
786.000000	 63.195371 
785.000000	 63.216304 
784.000000	 63.237333 
783.000000	 63.259053 
782.000000	 63.281512 
781.000000	 63.304138 
780.000000	 63.325405 
779.000000	 63.343310 
778.000000	 63.355541 
777.000000	 63.360285 
776.000000	 63.356590 
775.000000	 63.344836 
774.000000	 63.326692 
773.000000	 63.304805 
772.000000	 63.282203 
771.000000	 63.261628 
770.000000	 63.244700 
769.000000	 63.231778 
768.000000	 63.222122 
767.000000	 63.214278 
766.000000	 63.206720 
765.000000	 63.198471 
764.000000	 63.189220 
763.000000	 63.179636 
762.000000	 63.170695 
761.000000	 63.163781 
760.000000	 63.160204 
759.000000	 63.160872 
758.000000	 63.165712 
757.000000	 63.173604 
756.000000	 63.183236 
755.000000	 63.192772 
754.000000	 63.200306 
753.000000	 63.204288 
752.000000	 63.204073 
751.000000	 63.199877 
750.000000	 63.192415 
749.000000	 63.182997 
748.000000	 63.172864 
747.000000	 63.163161 
746.000000	 63.154721 
745.000000	 63.148069 
744.000000	 63.143467 
743.000000	 63.141274 
742.000000	 63.141989 
741.000000	 63.146209 
740.000000	 63.154220 
739.000000	 63.166093 
738.000000	 63.180875 
737.000000	 63.196563 
736.000000	 63.209605 
735.000000	 63.215923 
734.000000	 63.211131 
733.000000	 63.191723 
732.000000	 63.155722 
731.000000	 63.103437 
730.000000	 63.037467 
729.000000	 62.962198 
728.000000	 62.883520 
727.000000	 62.807369 
726.000000	 62.739634 
725.000000	 62.684988 
724.000000	 62.646889 
723.000000	 62.627029 
722.000000	 62.625646 
721.000000	 62.641596 
720.000000	 62.672472 
719.000000	 62.714624 
718.000000	 62.763810 
717.000000	 62.815237 
716.000000	 62.864327 
715.000000	 62.907075 
714.000000	 62.940526 
713.000000	 62.962985 
712.000000	 62.974524 
711.000000	 62.976574 
710.000000	 62.971353 
709.000000	 62.961125 
708.000000	 62.948250 
707.000000	 62.934207 
706.000000	 62.920117 
705.000000	 62.906265 
704.000000	 62.892723 
703.000000	 62.879371 
702.000000	 62.866568 
701.000000	 62.854695 
700.000000	 62.844085 
699.000000	 62.835001 
698.000000	 62.827515 
697.000000	 62.821245 
696.000000	 62.815499 
695.000000	 62.809443 
694.000000	 62.802195 
693.000000	 62.793588 
692.000000	 62.784218 
691.000000	 62.775444 
690.000000	 62.768840 
689.000000	 62.766337 
688.000000	 62.769675 
687.000000	 62.780880 
686.000000	 62.801885 
685.000000	 62.833905 
684.000000	 62.876868 
683.000000	 62.929677 
682.000000	 62.989449 
681.000000	 63.051557 
680.000000	 63.109850 
679.000000	 63.158249 
678.000000	 63.190746 
677.000000	 63.203287 
676.000000	 63.193202 
675.000000	 63.159704 
674.000000	 63.103652 
673.000000	 63.027548 
672.000000	 62.935924 
671.000000	 62.834930 
670.000000	 62.732625 
669.000000	 62.638139 
668.000000	 62.561058 
667.000000	 62.510275 
666.000000	 62.491965 
665.000000	 62.508630 
664.000000	 62.557792 
663.000000	 62.632155 
662.000000	 62.720036 
661.000000	 62.807321 
660.000000	 62.879824 
659.000000	 62.925839 
658.000000	 62.937474 
657.000000	 62.912368 
656.000000	 62.853670 
655.000000	 62.769365 
654.000000	 62.670302 
653.000000	 62.568593 
652.000000	 62.476062 
651.000000	 62.401962 
650.000000	 62.353229 
649.000000	 62.332344 
648.000000	 62.337970 
647.000000	 62.364697 
646.000000	 62.404751 
645.000000	 62.448883 
644.000000	 62.487292 
643.000000	 62.512493 
642.000000	 62.519454 
641.000000	 62.507867 
640.000000	 62.480831 
639.000000	 62.445211 
638.000000	 62.409615 
637.000000	 62.382316 
636.000000	 62.368941 
635.000000	 62.371659 
634.000000	 62.388443 
633.000000	 62.413144 
632.000000	 62.436795 
631.000000	 62.449836 
630.000000	 62.444853 
629.000000	 62.418007 
628.000000	 62.370944 
627.000000	 62.309479 
626.000000	 62.243938 
625.000000	 62.186264 
624.000000	 62.149119 
623.000000	 62.142634 
622.000000	 62.173318 
621.000000	 62.243342 
620.000000	 62.349319 
619.000000	 62.483620 
618.000000	 62.633895 
617.000000	 62.784981 
616.000000	 62.920784 
615.000000	 63.025999 
614.000000	 63.089728 
613.000000	 63.106942 
612.000000	 63.080501 
611.000000	 63.020157 
610.000000	 62.942051 
609.000000	 62.865686 
608.000000	 62.809634 
607.000000	 62.787818 
606.000000	 62.806177 
605.000000	 62.861680 
604.000000	 62.943053 
603.000000	 63.033819 
602.000000	 63.117003 
601.000000	 63.178682 
600.000000	 63.211154 
599.000000	 63.213229 
598.000000	 63.189268 
597.000000	 63.146781 
596.000000	 63.093733 
595.000000	 63.036489 
594.000000	 62.978339 
593.000000	 62.920117 
592.000000	 62.863039 
591.000000	 62.807989 
590.000000	 62.757730 
589.000000	 62.715172 
588.000000	 62.683749 
587.000000	 62.664222 
586.000000	 62.653684 
585.000000	 62.645435 
584.000000	 62.629914 
583.000000	 62.598347 
582.000000	 62.545347 
581.000000	 62.471055 
580.000000	 62.381243 
579.000000	 62.284922 
578.000000	 62.191796 
577.000000	 62.108349 
576.000000	 62.036991 
575.000000	 61.976218 
574.000000	 61.923098 
573.000000	 61.874485 
572.000000	 61.830973 
571.000000	 61.798024 
570.000000	 61.785864 
569.000000	 61.804437 
568.000000	 61.862564 
567.000000	 61.963629 
566.000000	 62.105298 
565.000000	 62.277650 
564.000000	 62.466549 
563.000000	 62.654924 
562.000000	 62.827801 
561.000000	 62.975096 
560.000000	 63.092660 
559.000000	 63.182282 
558.000000	 63.249516 
557.000000	 63.301467 
556.000000	 63.343310 
555.000000	 63.376641 
554.000000	 63.400268 
553.000000	 63.411211 
552.000000	 63.405489 
551.000000	 63.379049 
550.000000	 63.331031 
549.000000	 63.262295 
548.000000	 63.172984 
547.000000	 63.061857 
546.000000	 62.926149 
545.000000	 62.763309 
544.000000	 62.572312 
543.000000	 62.357592 
542.000000	 62.129569 
541.000000	 61.906027 
540.000000	 61.709928 
539.000000	 61.565303 
538.000000	 61.490464 
537.000000	 61.494565 
536.000000	 61.574244 
535.000000	 61.713409 
534.000000	 61.884570 
533.000000	 62.056422 
532.000000	 62.199378 
531.000000	 62.293553 
530.000000	 62.330651 
529.000000	 62.319564 
528.000000	 62.282752 
527.000000	 62.251210 
526.000000	 62.255764 
525.000000	 62.321591 
524.000000	 62.460875 
523.000000	 62.671041 
522.000000	 62.933802 
521.000000	 63.219785 
520.000000	 63.493156 
519.000000	 63.720750 
518.000000	 63.876199 
517.000000	 63.943791 
516.000000	 63.920044 
515.000000	 63.814139 
514.000000	 63.643860 
513.000000	 63.430404 
512.000000	 63.195729 
511.000000	 62.961697 
510.000000	 62.746644 
509.000000	 62.566089 
508.000000	 62.430524 
507.000000	 62.348079 
506.000000	 62.320065 
505.000000	 62.341833 
504.000000	 62.400627 
503.000000	 62.476253 
502.000000	 62.546110 
501.000000	 62.589240 
500.000000	 62.589430 
499.000000	 62.538337 
498.000000	 62.438821 
497.000000	 62.304520 
496.000000	 62.155985 
495.000000	 62.017130 
494.000000	 61.910629 
493.000000	 61.854314 
492.000000	 61.858320 
491.000000	 61.924481 
490.000000	 62.046957 
489.000000	 62.214565 
488.000000	 62.412214 
487.000000	 62.624430 
486.000000	 62.837147 
485.000000	 63.038682 
484.000000	 63.219523 
483.000000	 63.371467 
482.000000	 63.488125 
481.000000	 63.562631 
480.000000	 63.591217 
479.000000	 63.568425 
478.000000	 63.489770 
477.000000	 63.351774 
476.000000	 63.156127 
475.000000	 62.908053 
474.000000	 62.618589 
473.000000	 62.303924 
472.000000	 61.985230 
471.000000	 61.686253 
470.000000	 61.430668 
469.000000	 61.238479 
468.000000	 61.123585 
467.000000	 61.091732 
466.000000	 61.140251 
465.000000	 61.257433 
464.000000	 61.425590 
463.000000	 61.622810 
462.000000	 61.826515 
461.000000	 62.014532 
460.000000	 62.168931 
459.000000	 62.274861 
458.000000	 62.325024 
457.000000	 62.317538 
456.000000	 62.259459 
455.000000	 62.165355 
454.000000	 62.055993 
453.000000	 61.956238 
452.000000	 61.888504 
451.000000	 61.869144 
450.000000	 61.903643 
449.000000	 61.986470 
448.000000	 62.101364 
447.000000	 62.225675 
446.000000	 62.337017 
445.000000	 62.418866 
444.000000	 62.463760 
443.000000	 62.473988 
442.000000	 62.460494 
441.000000	 62.438154 
440.000000	 62.419581 
439.000000	 62.411117 
438.000000	 62.411999 
437.000000	 62.414860 
436.000000	 62.408018 
435.000000	 62.381672 
434.000000	 62.330889 
433.000000	 62.261199 
432.000000	 62.191271 
431.000000	 62.146759 
430.000000	 62.149214 
429.000000	 62.214565 
428.000000	 62.348890 
427.000000	 62.544989 
426.000000	 62.780809 
425.000000	 63.028311 
424.000000	 63.259458 
423.000000	 63.454818 
422.000000	 63.608837 
421.000000	 63.725090 
420.000000	 63.812279 
419.000000	 63.879513 
418.000000	 63.932013 
417.000000	 63.967466 
416.000000	 63.977885 
415.000000	 63.954091 
414.000000	 63.891077 
413.000000	 63.798666 
412.000000	 63.696694 
411.000000	 63.615608 
410.000000	 63.578033 
409.000000	 63.598489 
408.000000	 63.660931 
407.000000	 63.721013 
406.000000	 63.705801 
405.000000	 63.530921 
404.000000	 63.123083 
403.000000	 62.444734 
402.000000	 61.510753 
401.000000	 60.380768 
400.000000	 59.171605 
399.000000	 58.027744 
398.000000	 57.110214 
397.000000	 56.565523 
396.000000	 56.488204 
395.000000	 56.893610 
394.000000	 57.721924 
393.000000	 58.849930 
392.000000	 60.107922 
391.000000	 61.313772 
390.000000	 62.303280 
389.000000	 62.956357 
388.000000	 63.231015 
387.000000	 63.153696 
386.000000	 62.786650 
385.000000	 62.201690 
384.000000	 61.468029 
383.000000	 60.635828 
382.000000	 59.706687 
381.000000	 58.682775 
380.000000	 57.596826 
379.000000	 56.545662 
378.000000	 55.674314 
377.000000	 55.172514 
376.000000	 55.282139 
375.000000	 56.157660 
374.000000	 57.815504 
373.000000	 60.061359 
372.000000	 62.511920 
371.000000	 64.645361 
370.000000	 65.921521 

