PE IR       SPECTRUM    SPECTRUM    ASCII       PEDS        1.60        
  -1
BZ6036~1.ASC
17/04/07
20:25:39.00
17/04/07
20:25:39.00
tln
$BZ1503107-1_t0088$<tbV0>[-13.0,5.2,8.0,0.0,27,1,0]
370.000000
64









2002,4.07    
MIRTGS : RIGHTBACK : INTERNAL 2
MIR : ON : INTERNAL 2
OPTKBR

0.200000
8
8.000000
FILLER
RATIO
SPECTRUM
UNLOCKED 256

DOUBLE
64
COMBINED
1
0
0


1.000000
RATIO


1
0
TRUE
51149
0
LEFT NOT FITTED RIGHT NOT FITTED 0
NONE
NONE
15600
12.000000
4.427000
51148
TRUE
1 0 8 72 0 0 0 0 

15798.010000






#HDR
-1
-1
#GR
CM-1
%T
0.00002384185791015625
0.0
5000.000000
-1.000000
4631
8
72.271704
43.682050
#DATA
5000.000000	64.230751 
4999.000000	64.468431 
4998.000000	64.708709 
4997.000000	64.920735 
4996.000000	65.084767 
4995.000000	65.193080 
4994.000000	65.253138 
4993.000000	65.283679 
4992.000000	65.308761 
4991.000000	65.350675 
4990.000000	65.422224 
4989.000000	65.524816 
4988.000000	65.644884 
4987.000000	65.759015 
4986.000000	65.839290 
4985.000000	65.862989 
4984.000000	65.814852 
4983.000000	65.692162 
4982.000000	65.504860 
4981.000000	65.274024 
4980.000000	65.028142 
4979.000000	64.797520 
4978.000000	64.608430 
4977.000000	64.478445 
4976.000000	64.414525 
4975.000000	64.412617 
4974.000000	64.459609 
4973.000000	64.537882 
4972.000000	64.628648 
4971.000000	64.717292 
4970.000000	64.793682 
4969.000000	64.855360 
4968.000000	64.903616 
4967.000000	64.944958 
4966.000000	64.983963 
4965.000000	65.027379 
4964.000000	65.080761 
4963.000000	65.151047 
4962.000000	65.244460 
4961.000000	65.369129 
4960.000000	65.533733 
4959.000000	65.743780 
4958.000000	65.999150 
4957.000000	66.287446 
4956.000000	66.583395 
4955.000000	66.849255 
4954.000000	67.041087 
4953.000000	67.118287 
4952.000000	67.053079 
4951.000000	66.838932 
4950.000000	66.493844 
4949.000000	66.057205 
4948.000000	65.583848 
4947.000000	65.134692 
4946.000000	64.765000 
4945.000000	64.514636 
4944.000000	64.401817 
4943.000000	64.424228 
4942.000000	64.559292 
4941.000000	64.771533 
4940.000000	65.018987 
4939.000000	65.258955 
4938.000000	65.457820 
4937.000000	65.592956 
4936.000000	65.657258 
4935.000000	65.653586 
4934.000000	65.597438 
4933.000000	65.510725 
4932.000000	65.416884 
4931.000000	65.335679 
4930.000000	65.276789 
4929.000000	65.239191 
4928.000000	65.209722 
4927.000000	65.168905 
4926.000000	65.097403 
4925.000000	64.984416 
4924.000000	64.831733 
4923.000000	64.657306 
4922.000000	64.491534 
4921.000000	64.372205 
4920.000000	64.334082 
4919.000000	64.400219 
4918.000000	64.575338 
4917.000000	64.842057 
4916.000000	65.167188 
4915.000000	65.503668 
4914.000000	65.800237 
4913.000000	66.010904 
4912.000000	66.105318 
4911.000000	66.072392 
4910.000000	65.920662 
4909.000000	65.676140 
4908.000000	65.375447 
4907.000000	65.059113 
4906.000000	64.764332 
4905.000000	64.518737 
4904.000000	64.338397 
4903.000000	64.226031 
4902.000000	64.174389 
4901.000000	64.168858 
4900.000000	64.193129 
4899.000000	64.231801 
4898.000000	64.274764 
4897.000000	64.316225 
4896.000000	64.356541 
4895.000000	64.398407 
4894.000000	64.446926 
4893.000000	64.504909 
4892.000000	64.573931 
4891.000000	64.652800 
4890.000000	64.738941 
4889.000000	64.829349 
4888.000000	64.921665 
4887.000000	65.014433 
4886.000000	65.107679 
4885.000000	65.201807 
4884.000000	65.297746 
4883.000000	65.396642 
4882.000000	65.497827 
4881.000000	65.598607 
4880.000000	65.694355 
4879.000000	65.779805 
4878.000000	65.849351 
4877.000000	65.898895 
4876.000000	65.925216 
4875.000000	65.926885 
4874.000000	65.905451 
4873.000000	65.865063 
4872.000000	65.811371 
4871.000000	65.750384 
4870.000000	65.688037 
4869.000000	65.628719 
4868.000000	65.575122 
4867.000000	65.527987 
4866.000000	65.486168 
4865.000000	65.448379 
4864.000000	65.414404 
4863.000000	65.385556 
4862.000000	65.364551 
4861.000000	65.354371 
4860.000000	65.357184 
4859.000000	65.372610 
4858.000000	65.396380 
4857.000000	65.421199 
4856.000000	65.437841 
4855.000000	65.437650 
4854.000000	65.414452 
4853.000000	65.367245 
4852.000000	65.300703 
4851.000000	65.224337 
4850.000000	65.150022 
4849.000000	65.088772 
4848.000000	65.047788 
4847.000000	65.028452 
4846.000000	65.026116 
4845.000000	65.032124 
4844.000000	65.036797 
4843.000000	65.032100 
4842.000000	65.014147 
4841.000000	64.983725 
4840.000000	64.946150 
4839.000000	64.908337 
4838.000000	64.877939 
4837.000000	64.859962 
4836.000000	64.856791 
4835.000000	64.867663 
4834.000000	64.890003 
4833.000000	64.920306 
4832.000000	64.955520 
4831.000000	64.993834 
4830.000000	65.034675 
4829.000000	65.077805 
4828.000000	65.123152 
4827.000000	65.169310 
4826.000000	65.214562 
4825.000000	65.256905 
4824.000000	65.294790 
4823.000000	65.327644 
4822.000000	65.355515 
4821.000000	65.378761 
4820.000000	65.397405 
4819.000000	65.410685 
4818.000000	65.416526 
4817.000000	65.411758 
4816.000000	65.393757 
4815.000000	65.361285 
4814.000000	65.315151 
4813.000000	65.258502 
4812.000000	65.196919 
4811.000000	65.137267 
4810.000000	65.086555 
4809.000000	65.050077 
4808.000000	65.030479 
4807.000000	65.026998 
4806.000000	65.035605 
4805.000000	65.050315 
4804.000000	65.064263 
4803.000000	65.071606 
4802.000000	65.068674 
4801.000000	65.054798 
4800.000000	65.031504 
4799.000000	65.002655 
4798.000000	64.972758 
4797.000000	64.946365 
4796.000000	64.926862 
4795.000000	64.916801 
4794.000000	64.917635 
4793.000000	64.930081 
4792.000000	64.954042 
4791.000000	64.989256 
4790.000000	65.035080 
4789.000000	65.089702 
4788.000000	65.150165 
4787.000000	65.212440 
4786.000000	65.271830 
4785.000000	65.323328 
4784.000000	65.362405 
4783.000000	65.386080 
4782.000000	65.392780 
4781.000000	65.383768 
4780.000000	65.361595 
4779.000000	65.329599 
4778.000000	65.291285 
4777.000000	65.250349 
4776.000000	65.210151 
4775.000000	65.173768 
4774.000000	65.144252 
4773.000000	65.124869 
4772.000000	65.118193 
4771.000000	65.125846 
4770.000000	65.147304 
4769.000000	65.179753 
4768.000000	65.217804 
4767.000000	65.253996 
4766.000000	65.279769 
4765.000000	65.287065 
4764.000000	65.269303 
4763.000000	65.223121 
4762.000000	65.148997 
4761.000000	65.051841 
4760.000000	64.940261 
4759.000000	64.825844 
4758.000000	64.721035 
4757.000000	64.638066 
4756.000000	64.586782 
4755.000000	64.573192 
4754.000000	64.598536 
4753.000000	64.659261 
4752.000000	64.747452 
4751.000000	64.852476 
4750.000000	64.962029 
4749.000000	65.065121 
4748.000000	65.152764 
4747.000000	65.219926 
4746.000000	65.265297 
4745.000000	65.290427 
4744.000000	65.298461 
4743.000000	65.292882 
4742.000000	65.276408 
4741.000000	65.250825 
4740.000000	65.217351 
4739.000000	65.177583 
4738.000000	65.134239 
4737.000000	65.091419 
4736.000000	65.054631 
4735.000000	65.029954 
4734.000000	65.022993 
4733.000000	65.037536 
4732.000000	65.074467 
4731.000000	65.131092 
4730.000000	65.201926 
4729.000000	65.278387 
4728.000000	65.351772 
4727.000000	65.414071 
4726.000000	65.460515 
4725.000000	65.490126 
4724.000000	65.505814 
4723.000000	65.513348 
4722.000000	65.519309 
4721.000000	65.529704 
4720.000000	65.547084 
4719.000000	65.569972 
4718.000000	65.593051 
4717.000000	65.609288 
4716.000000	65.611171 
4715.000000	65.593409 
4714.000000	65.554714 
4713.000000	65.498876 
4712.000000	65.433812 
4711.000000	65.369892 
4710.000000	65.317392 
4709.000000	65.284228 
4708.000000	65.274143 
4707.000000	65.285921 
4706.000000	65.314459 
4705.000000	65.351772 
4704.000000	65.389943 
4703.000000	65.421915 
4702.000000	65.442728 
4701.000000	65.449810 
4700.000000	65.442514 
4699.000000	65.421581 
4698.000000	65.388059 
4697.000000	65.342760 
4696.000000	65.286350 
4695.000000	65.219330 
4694.000000	65.143013 
4693.000000	65.059328 
4692.000000	64.971637 
4691.000000	64.884471 
4690.000000	64.803028 
4689.000000	64.732456 
4688.000000	64.676761 
4687.000000	64.638400 
4686.000000	64.617681 
4685.000000	64.612507 
4684.000000	64.619135 
4683.000000	64.632964 
4682.000000	64.649915 
4681.000000	64.666628 
4680.000000	64.682054 
4679.000000	64.696955 
4678.000000	64.714455 
4677.000000	64.738321 
4676.000000	64.772629 
4675.000000	64.819955 
4674.000000	64.880633 
4673.000000	64.952158 
4672.000000	65.029382 
4671.000000	65.105509 
4670.000000	65.173244 
4669.000000	65.226578 
4668.000000	65.261697 
4667.000000	65.277814 
4666.000000	65.277028 
4665.000000	65.264558 
4664.000000	65.246295 
4663.000000	65.227556 
4662.000000	65.212059 
4661.000000	65.201783 
4660.000000	65.195846 
4659.000000	65.191268 
4658.000000	65.184450 
4657.000000	65.172195 
4656.000000	65.152454 
4655.000000	65.124797 
4654.000000	65.090298 
4653.000000	65.051317 
4652.000000	65.010595 
4651.000000	64.970707 
4650.000000	64.933371 
4649.000000	64.899563 
4648.000000	64.869785 
4647.000000	64.844655 
4646.000000	64.824819 
4645.000000	64.811611 
4644.000000	64.806604 
4643.000000	64.811754 
4642.000000	64.827895 
4641.000000	64.855790 
4640.000000	64.895129 
4639.000000	64.944887 
4638.000000	65.002822 
4637.000000	65.066337 
4636.000000	65.132331 
4635.000000	65.197563 
4634.000000	65.258646 
4633.000000	65.312194 
4632.000000	65.355134 
4631.000000	65.385127 
4630.000000	65.401029 
4629.000000	65.402531 
4628.000000	65.390443 
4627.000000	65.367126 
4626.000000	65.336179 
4625.000000	65.301871 
4624.000000	65.268540 
4623.000000	65.240597 
4622.000000	65.221428 
4621.000000	65.212917 
4620.000000	65.215301 
4619.000000	65.227270 
4618.000000	65.246272 
4617.000000	65.269136 
4616.000000	65.292596 
4615.000000	65.313529 
4614.000000	65.329551 
4613.000000	65.339350 
4612.000000	65.342426 
4611.000000	65.338802 
4610.000000	65.329504 
4609.000000	65.316414 
4608.000000	65.302133 
4607.000000	65.289449 
4606.000000	65.281510 
4605.000000	65.281534 
4604.000000	65.292048 
4603.000000	65.314722 
4602.000000	65.350103 
4601.000000	65.397620 
4600.000000	65.455484 
4599.000000	65.520668 
4598.000000	65.589451 
4597.000000	65.657424 
4596.000000	65.720272 
4595.000000	65.773558 
4594.000000	65.813803 
4593.000000	65.837883 
4592.000000	65.844416 
4591.000000	65.832471 
4590.000000	65.802955 
4589.000000	65.757203 
4588.000000	65.698361 
4587.000000	65.629529 
4586.000000	65.554404 
4585.000000	65.476417 
4584.000000	65.398955 
4583.000000	65.325164 
4582.000000	65.258169 
4581.000000	65.200829 
4580.000000	65.155982 
4579.000000	65.125703 
4578.000000	65.111351 
4577.000000	65.113234 
4576.000000	65.130519 
4575.000000	65.161275 
4574.000000	65.202450 
4573.000000	65.250492 
4572.000000	65.301251 
4571.000000	65.349793 
4570.000000	65.391111 
4569.000000	65.420079 
4568.000000	65.432739 
4567.000000	65.427255 
4566.000000	65.404391 
4565.000000	65.367674 
4564.000000	65.322971 
4563.000000	65.277743 
4562.000000	65.239381 
4561.000000	65.213561 
4560.000000	65.203475 
4559.000000	65.209960 
4558.000000	65.231204 
4557.000000	65.263414 
4556.000000	65.302109 
4555.000000	65.342926 
4554.000000	65.383005 
4553.000000	65.421199 
4552.000000	65.458416 
4551.000000	65.496873 
4550.000000	65.539550 
4549.000000	65.588879 
4548.000000	65.645837 
4547.000000	65.709066 
4546.000000	65.775394 
4545.000000	65.839672 
4544.000000	65.896487 
4543.000000	65.940451 
4542.000000	65.968155 
4541.000000	65.977692 
4540.000000	65.969681 
4539.000000	65.945601 
4538.000000	65.908265 
4537.000000	65.859699 
4536.000000	65.801525 
4535.000000	65.734338 
4534.000000	65.658450 
4533.000000	65.574741 
4532.000000	65.485739 
4531.000000	65.395998 
4530.000000	65.312027 
4529.000000	65.241026 
4528.000000	65.189242 
4527.000000	65.160441 
4526.000000	65.154623 
4525.000000	65.168833 
4524.000000	65.197634 
4523.000000	65.234184 
4522.000000	65.271925 
4521.000000	65.305638 
4520.000000	65.332436 
4519.000000	65.351247 
4518.000000	65.363121 
4517.000000	65.370702 
4516.000000	65.377235 
4515.000000	65.386295 
4514.000000	65.399670 
4513.000000	65.416908 
4512.000000	65.434837 
4511.000000	65.448212 
4510.000000	65.451717 
4509.000000	65.441989 
4508.000000	65.418601 
4507.000000	65.385699 
4506.000000	65.349602 
4505.000000	65.316963 
4504.000000	65.293192 
4503.000000	65.280604 
4502.000000	65.278792 
4501.000000	65.285468 
4500.000000	65.296936 
4499.000000	65.309739 
4498.000000	65.319895 
4497.000000	65.324139 
4496.000000	65.319132 
4495.000000	65.302848 
4494.000000	65.276885 
4493.000000	65.246629 
4492.000000	65.220141 
4491.000000	65.206551 
4490.000000	65.214705 
4489.000000	65.250086 
4488.000000	65.312290 
4487.000000	65.394830 
4486.000000	65.486240 
4485.000000	65.573048 
4484.000000	65.642189 
4483.000000	65.685486 
4482.000000	65.702605 
4481.000000	65.699601 
4480.000000	65.689635 
4479.000000	65.684247 
4478.000000	65.690422 
4477.000000	65.705370 
4476.000000	65.711593 
4475.000000	65.693974 
4474.000000	65.649676 
4473.000000	65.582275 
4472.000000	65.502977 
4471.000000	65.420866 
4470.000000	65.339112 
4469.000000	65.252804 
4468.000000	65.150713 
4467.000000	65.017342 
4466.000000	64.838910 
4465.000000	64.620757 
4464.000000	64.382505 
4463.000000	64.144968 
4462.000000	63.927817 
4461.000000	63.741278 
4460.000000	63.589787 
4459.000000	63.464450 
4458.000000	63.359618 
4457.000000	63.278102 
4456.000000	63.232326 
4455.000000	63.262486 
4454.000000	63.389396 
4453.000000	63.624334 
4452.000000	63.910579 
4451.000000	64.129114 
4450.000000	64.106369 
4449.000000	63.648676 
4448.000000	62.615299 
4447.000000	60.964345 
4446.000000	58.806133 
4445.000000	56.397581 
4444.000000	54.101777 
4443.000000	52.312183 
4442.000000	51.363253 
4441.000000	51.456546 
4440.000000	52.623987 
4439.000000	54.726982 
4438.000000	57.496023 
4437.000000	60.591435 
4436.000000	63.680481 
4435.000000	66.485929 
4434.000000	68.819475 
4433.000000	70.581173 
4432.000000	71.730518 
4431.000000	72.271704 
4430.000000	72.221660 
4429.000000	71.615958 
4428.000000	70.522332 
4427.000000	69.043207 
4426.000000	67.355966 
4425.000000	65.663909 
4424.000000	64.193558 
4423.000000	63.135576 
4422.000000	62.616443 
4421.000000	62.673974 
4420.000000	63.254237 
4419.000000	64.229679 
4418.000000	65.429949 
4417.000000	66.671681 
4416.000000	67.791891 
4415.000000	68.667769 
4414.000000	69.230365 
4413.000000	69.462966 
4412.000000	69.392585 
4411.000000	69.081544 
4410.000000	68.605971 
4409.000000	68.041706 
4408.000000	67.448925 
4407.000000	66.873931 
4406.000000	66.342663 
4405.000000	65.885710 
4404.000000	65.522432 
4403.000000	65.262532 
4402.000000	65.104460 
4401.000000	65.038776 
4400.000000	65.046143 
4399.000000	65.090632 
4398.000000	65.137648 
4397.000000	65.155458 
4396.000000	65.128731 
4395.000000	65.060830 
4394.000000	64.968633 
4393.000000	64.872908 
4392.000000	64.795613 
4391.000000	64.752101 
4390.000000	64.747548 
4389.000000	64.775633 
4388.000000	64.825177 
4387.000000	64.883685 
4386.000000	64.943218 
4385.000000	65.001869 
4384.000000	65.058231 
4383.000000	65.111684 
4382.000000	65.162253 
4381.000000	65.209293 
4380.000000	65.249967 
4379.000000	65.280437 
4378.000000	65.296435 
4377.000000	65.295338 
4376.000000	65.280389 
4375.000000	65.257596 
4374.000000	65.233564 
4373.000000	65.214610 
4372.000000	65.205860 
4371.000000	65.209794 
4370.000000	65.225410 
4369.000000	65.250229 
4368.000000	65.282106 
4367.000000	65.319514 
4366.000000	65.362405 
4365.000000	65.411353 
4364.000000	65.466594 
4363.000000	65.527439 
4362.000000	65.591573 
4361.000000	65.655231 
4360.000000	65.713787 
4359.000000	65.762686 
4358.000000	65.798091 
4357.000000	65.818142 
4356.000000	65.822529 
4355.000000	65.812611 
4354.000000	65.790224 
4353.000000	65.757489 
4352.000000	65.716099 
4351.000000	65.667986 
4350.000000	65.614914 
4349.000000	65.559744 
4348.000000	65.505123 
4347.000000	65.453863 
4346.000000	65.407967 
4345.000000	65.367913 
4344.000000	65.333628 
4343.000000	65.304279 
4342.000000	65.279412 
4341.000000	65.259099 
4340.000000	65.244412 
4339.000000	65.237069 
4338.000000	65.238618 
4337.000000	65.249490 
4336.000000	65.268158 
4335.000000	65.291190 
4334.000000	65.313100 
4333.000000	65.327596 
4332.000000	65.329504 
4331.000000	65.316510 
4330.000000	65.290141 
4329.000000	65.255832 
4328.000000	65.222311 
4327.000000	65.199732 
4326.000000	65.196919 
4325.000000	65.219497 
4324.000000	65.268540 
4323.000000	65.339803 
4322.000000	65.425181 
4321.000000	65.513539 
4320.000000	65.593242 
4319.000000	65.654182 
4318.000000	65.689873 
4317.000000	65.698504 
4316.000000	65.682649 
4315.000000	65.648531 
4314.000000	65.604352 
4313.000000	65.558028 
4312.000000	65.515542 
4311.000000	65.480041 
4310.000000	65.451884 
4309.000000	65.429282 
4308.000000	65.409851 
4307.000000	65.391755 
4306.000000	65.374851 
4305.000000	65.360784 
4304.000000	65.352272 
4303.000000	65.351915 
4302.000000	65.361022 
4301.000000	65.378642 
4300.000000	65.401625 
4299.000000	65.424704 
4298.000000	65.442514 
4297.000000	65.451049 
4296.000000	65.448856 
4295.000000	65.437841 
4294.000000	65.422153 
4293.000000	65.407037 
4292.000000	65.397000 
4291.000000	65.394234 
4290.000000	65.398383 
4289.000000	65.406513 
4288.000000	65.414500 
4287.000000	65.418148 
4286.000000	65.414857 
4285.000000	65.404582 
4284.000000	65.389776 
4283.000000	65.374493 
4282.000000	65.363383 
4281.000000	65.360045 
4280.000000	65.366387 
4279.000000	65.381598 
4278.000000	65.402388 
4277.000000	65.423583 
4276.000000	65.439748 
4275.000000	65.446376 
4274.000000	65.440392 
4273.000000	65.421104 
4272.000000	65.390014 
4271.000000	65.351104 
4270.000000	65.309381 
4269.000000	65.270853 
4268.000000	65.241026 
4267.000000	65.224313 
4266.000000	65.223860 
4265.000000	65.240359 
4264.000000	65.272235 
4263.000000	65.315628 
4262.000000	65.365099 
4261.000000	65.413904 
4260.000000	65.455126 
4259.000000	65.482282 
4258.000000	65.490269 
4257.000000	65.476369 
4256.000000	65.440750 
4255.000000	65.386891 
4254.000000	65.321230 
4253.000000	65.252566 
4252.000000	65.190911 
4251.000000	65.145850 
4250.000000	65.124940 
4249.000000	65.132451 
4248.000000	65.168380 
4247.000000	65.228581 
4246.000000	65.305233 
4245.000000	65.388250 
4244.000000	65.466713 
4243.000000	65.530943 
4242.000000	65.573668 
4241.000000	65.591001 
4240.000000	65.582537 
4239.000000	65.551042 
4238.000000	65.501618 
4237.000000	65.440869 
4236.000000	65.375375 
4235.000000	65.311002 
4234.000000	65.252637 
4233.000000	65.204119 
4232.000000	65.168309 
4231.000000	65.147447 
4230.000000	65.142965 
4229.000000	65.155220 
4228.000000	65.183258 
4227.000000	65.224266 
4226.000000	65.273427 
4225.000000	65.324354 
4224.000000	65.370011 
4223.000000	65.403890 
4222.000000	65.421509 
4221.000000	65.420746 
4220.000000	65.402364 
4219.000000	65.369486 
4218.000000	65.327000 
4217.000000	65.280199 
4216.000000	65.233707 
4215.000000	65.190553 
4214.000000	65.152311 
4213.000000	65.119338 
4212.000000	65.092182 
4211.000000	65.071582 
4210.000000	65.058875 
4209.000000	65.055847 
4208.000000	65.063667 
4207.000000	65.082669 
4206.000000	65.111231 
4205.000000	65.146207 
4204.000000	65.183019 
4203.000000	65.216803 
4202.000000	65.243458 
4201.000000	65.259623 
4200.000000	65.263271 
4199.000000	65.253734 
4198.000000	65.231895 
4197.000000	65.199804 
4196.000000	65.160298 
4195.000000	65.117073 
4194.000000	65.074014 
4193.000000	65.035176 
4192.000000	65.004038 
4191.000000	64.983105 
4190.000000	64.973282 
4189.000000	64.973807 
4188.000000	64.982438 
4187.000000	64.995694 
4186.000000	65.010190 
4185.000000	65.022873 
4184.000000	65.032482 
4183.000000	65.039134 
4182.000000	65.044593 
4181.000000	65.050816 
4180.000000	65.059757 
4179.000000	65.072226 
4178.000000	65.088486 
4177.000000	65.108013 
4176.000000	65.129995 
4175.000000	65.153646 
4174.000000	65.178275 
4173.000000	65.203356 
4172.000000	65.227890 
4171.000000	65.250396 
4170.000000	65.268659 
4169.000000	65.280270 
4168.000000	65.283083 
4167.000000	65.276002 
4166.000000	65.259552 
4165.000000	65.235900 
4164.000000	65.209007 
4163.000000	65.183520 
4162.000000	65.163493 
4161.000000	65.151500 
4160.000000	65.148258 
4159.000000	65.152740 
4158.000000	65.162444 
4157.000000	65.174531 
4156.000000	65.186643 
4155.000000	65.196919 
4154.000000	65.204429 
4153.000000	65.208458 
4152.000000	65.208244 
4151.000000	65.202713 
4150.000000	65.190553 
4149.000000	65.170788 
4148.000000	65.143179 
4147.000000	65.108966 
4146.000000	65.071058 
4145.000000	65.033698 
4144.000000	65.001749 
4143.000000	64.979577 
4142.000000	64.970254 
4141.000000	64.974522 
4140.000000	64.990758 
4139.000000	65.015840 
4138.000000	65.045928 
4137.000000	65.077376 
4136.000000	65.107488 
4135.000000	65.134835 
4134.000000	65.159344 
4133.000000	65.181255 
4132.000000	65.201044 
4131.000000	65.218591 
4130.000000	65.233349 
4129.000000	65.244579 
4128.000000	65.251445 
4127.000000	65.253686 
4126.000000	65.251541 
4125.000000	65.246176 
4124.000000	65.239143 
4123.000000	65.232014 
4122.000000	65.226006 
4121.000000	65.221643 
4120.000000	65.218901 
4119.000000	65.217351 
4118.000000	65.216422 
4117.000000	65.215754 
4116.000000	65.215015 
4115.000000	65.213704 
4114.000000	65.211176 
4113.000000	65.206480 
4112.000000	65.197992 
4111.000000	65.184211 
4110.000000	65.163803 
4109.000000	65.136718 
4108.000000	65.104413 
4107.000000	65.070343 
4106.000000	65.039014 
4105.000000	65.015673 
4104.000000	65.005040 
4103.000000	65.010404 
4102.000000	65.032267 
4101.000000	65.068531 
4100.000000	65.114760 
4099.000000	65.164947 
4098.000000	65.212678 
4097.000000	65.252137 
4096.000000	65.279078 
4095.000000	65.291309 
4094.000000	65.288782 
4093.000000	65.273380 
4092.000000	65.248441 
4091.000000	65.218138 
4090.000000	65.186834 
4089.000000	65.158534 
4088.000000	65.136098 
4087.000000	65.121293 
4086.000000	65.114450 
4085.000000	65.114736 
4084.000000	65.120553 
4083.000000	65.129637 
4082.000000	65.139913 
4081.000000	65.149426 
4080.000000	65.157270 
4079.000000	65.163159 
4078.000000	65.167641 
4077.000000	65.171575 
4076.000000	65.175914 
4075.000000	65.181112 
4074.000000	65.187287 
4073.000000	65.194106 
4072.000000	65.200901 
4071.000000	65.207076 
4070.000000	65.212225 
4069.000000	65.216326 
4068.000000	65.219688 
4067.000000	65.222859 
4066.000000	65.226387 
4065.000000	65.230584 
4064.000000	65.235161 
4063.000000	65.239238 
4062.000000	65.241408 
4061.000000	65.240001 
4060.000000	65.233683 
4059.000000	65.221929 
4058.000000	65.205097 
4057.000000	65.184593 
4056.000000	65.162968 
4055.000000	65.143108 
4054.000000	65.127754 
4053.000000	65.118527 
4052.000000	65.115809 
4051.000000	65.118265 
4050.000000	65.123152 
4049.000000	65.127277 
4048.000000	65.127491 
4047.000000	65.122079 
4046.000000	65.110945 
4045.000000	65.096330 
4044.000000	65.081882 
4043.000000	65.071868 
4042.000000	65.070080 
4041.000000	65.078616 
4040.000000	65.097308 
4039.000000	65.123772 
4038.000000	65.153980 
4037.000000	65.183448 
4036.000000	65.208458 
4035.000000	65.227127 
4034.000000	65.239524 
4033.000000	65.247607 
4032.000000	65.254282 
4031.000000	65.262293 
4030.000000	65.272974 
4029.000000	65.285849 
4028.000000	65.298676 
4027.000000	65.308618 
4026.000000	65.312886 
4025.000000	65.310335 
4024.000000	65.301609 
4023.000000	65.289568 
4022.000000	65.278077 
4021.000000	65.271210 
4020.000000	65.271806 
4019.000000	65.280771 
4018.000000	65.296602 
4017.000000	65.315771 
4016.000000	65.334105 
4015.000000	65.347933 
4014.000000	65.355396 
4013.000000	65.356898 
4012.000000	65.355443 
4011.000000	65.355491 
4010.000000	65.361833 
4009.000000	65.377879 
4008.000000	65.405035 
4007.000000	65.441608 
4006.000000	65.483260 
4005.000000	65.523457 
4004.000000	65.555167 
4003.000000	65.571832 
4002.000000	65.568995 
4001.000000	65.544962 
4000.000000	65.501236 
3999.000000	65.442085 
3998.000000	65.373802 
3997.000000	65.303444 
3996.000000	65.237450 
3995.000000	65.180802 
3994.000000	65.136623 
3993.000000	65.105628 
3992.000000	65.086698 
3991.000000	65.077424 
3990.000000	65.074920 
3989.000000	65.076684 
3988.000000	65.080618 
3987.000000	65.085363 
3986.000000	65.089917 
3985.000000	65.093541 
3984.000000	65.095305 
3983.000000	65.093994 
3982.000000	65.088129 
3981.000000	65.076518 
3980.000000	65.058541 
3979.000000	65.034723 
3978.000000	65.006780 
3977.000000	64.977359 
3976.000000	64.949560 
3975.000000	64.926218 
3974.000000	64.909839 
3973.000000	64.901638 
3972.000000	64.902162 
3971.000000	64.910960 
3970.000000	64.927482 
3969.000000	64.950919 
3968.000000	64.980888 
3967.000000	65.017318 
3966.000000	65.060234 
3965.000000	65.108895 
3964.000000	65.161633 
3963.000000	65.215706 
3962.000000	65.266942 
3961.000000	65.310335 
3960.000000	65.340924 
3959.000000	65.354919 
3958.000000	65.350627 
3957.000000	65.329027 
3956.000000	65.293836 
3955.000000	65.250897 
3954.000000	65.206956 
3953.000000	65.168309 
3952.000000	65.139698 
3951.000000	65.123701 
3950.000000	65.120148 
3949.000000	65.127182 
3948.000000	65.141820 
3947.000000	65.161657 
3946.000000	65.184879 
3945.000000	65.211677 
3944.000000	65.243053 
3943.000000	65.280866 
3942.000000	65.326046 
3941.000000	65.378117 
3940.000000	65.434384 
3939.000000	65.490126 
3938.000000	65.539860 
3937.000000	65.577864 
3936.000000	65.599751 
3935.000000	65.602898 
3934.000000	65.587472 
3933.000000	65.555715 
3932.000000	65.511798 
3931.000000	65.460991 
3930.000000	65.408802 
3929.000000	65.360331 
3928.000000	65.319800 
3927.000000	65.290045 
3926.000000	65.272688 
3925.000000	65.267801 
3924.000000	65.274763 
3923.000000	65.292167 
3922.000000	65.318489 
3921.000000	65.352082 
3920.000000	65.391349 
3919.000000	65.434813 
3918.000000	65.480923 
3917.000000	65.527534 
3916.000000	65.571951 
3915.000000	65.610933 
3914.000000	65.640902 
3913.000000	65.658354 
3912.000000	65.660858 
3911.000000	65.648031 
3910.000000	65.621900 
3909.000000	65.587091 
3908.000000	65.550160 
3907.000000	65.518498 
3906.000000	65.498614 
3905.000000	65.494823 
3904.000000	65.508246 
3903.000000	65.536665 
3902.000000	65.574598 
3901.000000	65.614724 
3900.000000	65.649104 
3899.000000	65.670895 
3898.000000	65.675806 
3897.000000	65.662837 
3896.000000	65.634083 
3895.000000	65.594005 
3894.000000	65.548419 
3893.000000	65.502858 
3892.000000	65.461397 
3891.000000	65.426039 
3890.000000	65.396714 
3889.000000	65.371823 
3888.000000	65.349364 
3887.000000	65.327858 
3886.000000	65.306925 
3885.000000	65.287804 
3884.000000	65.273141 
3883.000000	65.265631 
3882.000000	65.267038 
3881.000000	65.277242 
3880.000000	65.293860 
3879.000000	65.312576 
3878.000000	65.328025 
3877.000000	65.335464 
3876.000000	65.332031 
3875.000000	65.317964 
3874.000000	65.296292 
3873.000000	65.271973 
3872.000000	65.250420 
3871.000000	65.235829 
3870.000000	65.230274 
3869.000000	65.233111 
3868.000000	65.241718 
3867.000000	65.252423 
3866.000000	65.261840 
3865.000000	65.268278 
3864.000000	65.272045 
3863.000000	65.275239 
3862.000000	65.280652 
3861.000000	65.290522 
3860.000000	65.305447 
3859.000000	65.323805 
3858.000000	65.341997 
3857.000000	65.355515 
3856.000000	65.360069 
3855.000000	65.353131 
3854.000000	65.334486 
3853.000000	65.306329 
3852.000000	65.272831 
3851.000000	65.238809 
3850.000000	65.209078 
3849.000000	65.187096 
3848.000000	65.174770 
3847.000000	65.172290 
3846.000000	65.178537 
3845.000000	65.191626 
3844.000000	65.209484 
3843.000000	65.230154 
3842.000000	65.251827 
3841.000000	65.272760 
3840.000000	65.291237 
3839.000000	65.305542 
3838.000000	65.313863 
3837.000000	65.314674 
3836.000000	65.307283 
3835.000000	65.291714 
3834.000000	65.269136 
3833.000000	65.241336 
3832.000000	65.210843 
3831.000000	65.180397 
3830.000000	65.152716 
3829.000000	65.129947 
3828.000000	65.113615 
3827.000000	65.104126 
3826.000000	65.100979 
3825.000000	65.102910 
3824.000000	65.108084 
3823.000000	65.114736 
3822.000000	65.121626 
3821.000000	65.128207 
3820.000000	65.134739 
3819.000000	65.141725 
3818.000000	65.149807 
3817.000000	65.159535 
3816.000000	65.171074 
3815.000000	65.184307 
3814.000000	65.199112 
3813.000000	65.215516 
3812.000000	65.233564 
3811.000000	65.253782 
3810.000000	65.276479 
3809.000000	65.301656 
3808.000000	65.328645 
3807.000000	65.355920 
3806.000000	65.381217 
3805.000000	65.401864 
3804.000000	65.415549 
3803.000000	65.420842 
3802.000000	65.417575 
3801.000000	65.407085 
3800.000000	65.391612 
3799.000000	65.373826 
3798.000000	65.356326 
3797.000000	65.340948 
3796.000000	65.328955 
3795.000000	65.321040 
3794.000000	65.317511 
3793.000000	65.318632 
3792.000000	65.324544 
3791.000000	65.335273 
3790.000000	65.350365 
3789.000000	65.368914 
3788.000000	65.389442 
3787.000000	65.410208 
3786.000000	65.429449 
3785.000000	65.445733 
3784.000000	65.458202 
3783.000000	65.466976 
3782.000000	65.472769 
3781.000000	65.476608 
3780.000000	65.479636 
3779.000000	65.482378 
3778.000000	65.484905 
3777.000000	65.486264 
3776.000000	65.485429 
3775.000000	65.481042 
3774.000000	65.472245 
3773.000000	65.458416 
3772.000000	65.439534 
3771.000000	65.416145 
3770.000000	65.389323 
3769.000000	65.360617 
3768.000000	65.331959 
3767.000000	65.305566 
3766.000000	65.283679 
3765.000000	65.268039 
3764.000000	65.259623 
3763.000000	65.258479 
3762.000000	65.263605 
3761.000000	65.273261 
3760.000000	65.285420 
3759.000000	65.297889 
3758.000000	65.309023 
3757.000000	65.317893 
3756.000000	65.324306 
3755.000000	65.328359 
3754.000000	65.330433 
3753.000000	65.330696 
3752.000000	65.329170 
3751.000000	65.325736 
3750.000000	65.320491 
3749.000000	65.314006 
3748.000000	65.307545 
3747.000000	65.303230 
3746.000000	65.303182 
3745.000000	65.308904 
3744.000000	65.320777 
3743.000000	65.337586 
3742.000000	65.356659 
3741.000000	65.374517 
3740.000000	65.387630 
3739.000000	65.393543 
3738.000000	65.391421 
3737.000000	65.382409 
3736.000000	65.369534 
3735.000000	65.356373 
3734.000000	65.346312 
3733.000000	65.341210 
3732.000000	65.341210 
3731.000000	65.344262 
3730.000000	65.347194 
3729.000000	65.346360 
3728.000000	65.338969 
3727.000000	65.324139 
3726.000000	65.303015 
3725.000000	65.279126 
3724.000000	65.256905 
3723.000000	65.241336 
3722.000000	65.236496 
3721.000000	65.244626 
3720.000000	65.265703 
3719.000000	65.296912 
3718.000000	65.333676 
3717.000000	65.370130 
3716.000000	65.400409 
3715.000000	65.419864 
3714.000000	65.425848 
3713.000000	65.418076 
3712.000000	65.398693 
3711.000000	65.371704 
3710.000000	65.342259 
3709.000000	65.315413 
3708.000000	65.295243 
3707.000000	65.284419 
3706.000000	65.283513 
3705.000000	65.291619 
3704.000000	65.306472 
3703.000000	65.325403 
3702.000000	65.345692 
3701.000000	65.365290 
3700.000000	65.382981 
3699.000000	65.397787 
3698.000000	65.409374 
3697.000000	65.417361 
3696.000000	65.421557 
3695.000000	65.422010 
3694.000000	65.418982 
3693.000000	65.413308 
3692.000000	65.406179 
3691.000000	65.399026 
3690.000000	65.393137 
3689.000000	65.389585 
3688.000000	65.388536 
3687.000000	65.389490 
3686.000000	65.391278 
3685.000000	65.392327 
3684.000000	65.391302 
3683.000000	65.387392 
3682.000000	65.380692 
3681.000000	65.372085 
3680.000000	65.363049 
3679.000000	65.355396 
3678.000000	65.350818 
3677.000000	65.350341 
3676.000000	65.354466 
3675.000000	65.362954 
3674.000000	65.375018 
3673.000000	65.389609 
3672.000000	65.405297 
3671.000000	65.420556 
3670.000000	65.433740 
3669.000000	65.443229 
3668.000000	65.447640 
3667.000000	65.445947 
3666.000000	65.437602 
3665.000000	65.422868 
3664.000000	65.403056 
3663.000000	65.380263 
3662.000000	65.357160 
3661.000000	65.336680 
3660.000000	65.321564 
3659.000000	65.313816 
3658.000000	65.314173 
3657.000000	65.322065 
3656.000000	65.335726 
3655.000000	65.352416 
3654.000000	65.368866 
3653.000000	65.382027 
3652.000000	65.389537 
3651.000000	65.390062 
3650.000000	65.383791 
3649.000000	65.372109 
3648.000000	65.357661 
3647.000000	65.343523 
3646.000000	65.332841 
3645.000000	65.328097 
3644.000000	65.330600 
3643.000000	65.340423 
3642.000000	65.355944 
3641.000000	65.374541 
3640.000000	65.392732 
3639.000000	65.407061 
3638.000000	65.414547 
3637.000000	65.413212 
3636.000000	65.402412 
3635.000000	65.382790 
3634.000000	65.355920 
3633.000000	65.324115 
3632.000000	65.289831 
3631.000000	65.255427 
3630.000000	65.222764 
3629.000000	65.193247 
3628.000000	65.167927 
3627.000000	65.147471 
3626.000000	65.132379 
3625.000000	65.122961 
3624.000000	65.119147 
3623.000000	65.120625 
3622.000000	65.126657 
3621.000000	65.136623 
3620.000000	65.149188 
3619.000000	65.163302 
3618.000000	65.178155 
3617.000000	65.193438 
3616.000000	65.209245 
3615.000000	65.225982 
3614.000000	65.244078 
3613.000000	65.263342 
3612.000000	65.283179 
3611.000000	65.301942 
3610.000000	65.317320 
3609.000000	65.326762 
3608.000000	65.328097 
3607.000000	65.320134 
3606.000000	65.303325 
3605.000000	65.279865 
3604.000000	65.253400 
3603.000000	65.228128 
3602.000000	65.207815 
3601.000000	65.195155 
3600.000000	65.191054 
3599.000000	65.194225 
3598.000000	65.201807 
3597.000000	65.210103 
3596.000000	65.215659 
3595.000000	65.216088 
3594.000000	65.210652 
3593.000000	65.200400 
3592.000000	65.187883 
3591.000000	65.176153 
3590.000000	65.168237 
3589.000000	65.165996 
3588.000000	65.169811 
3587.000000	65.178751 
3586.000000	65.190553 
3585.000000	65.202546 
3584.000000	65.211987 
3583.000000	65.216827 
3582.000000	65.216207 
3581.000000	65.210461 
3580.000000	65.201330 
3579.000000	65.191411 
3578.000000	65.183949 
3577.000000	65.181875 
3576.000000	65.187335 
3575.000000	65.201115 
3574.000000	65.222549 
3573.000000	65.249371 
3572.000000	65.278291 
3571.000000	65.305709 
3570.000000	65.328478 
3569.000000	65.344667 
3568.000000	65.353536 
3567.000000	65.355873 
3566.000000	65.353488 
3565.000000	65.348768 
3564.000000	65.343761 
3563.000000	65.339779 
3562.000000	65.337324 
3561.000000	65.335965 
3560.000000	65.335011 
3559.000000	65.333676 
3558.000000	65.331888 
3557.000000	65.329957 
3556.000000	65.328955 
3555.000000	65.329957 
3554.000000	65.333700 
3553.000000	65.340113 
3552.000000	65.348434 
3551.000000	65.357017 
3550.000000	65.363836 
3549.000000	65.367078 
3548.000000	65.365576 
3547.000000	65.359210 
3546.000000	65.349030 
3545.000000	65.337133 
3544.000000	65.326166 
3543.000000	65.318584 
3542.000000	65.316319 
3541.000000	65.320301 
3540.000000	65.330338 
3539.000000	65.345120 
3538.000000	65.362620 
3537.000000	65.380549 
3536.000000	65.396833 
3535.000000	65.409898 
3534.000000	65.418577 
3533.000000	65.422296 
3532.000000	65.420722 
3531.000000	65.413808 
3530.000000	65.401506 
3529.000000	65.383815 
3528.000000	65.360999 
3527.000000	65.333819 
3526.000000	65.303611 
3525.000000	65.272474 
3524.000000	65.243124 
3523.000000	65.218520 
3522.000000	65.201210 
3521.000000	65.192985 
3520.000000	65.194201 
3519.000000	65.203857 
3518.000000	65.219235 
3517.000000	65.236759 
3516.000000	65.252423 
3515.000000	65.262842 
3514.000000	65.265774 
3513.000000	65.261077 
3512.000000	65.250110 
3511.000000	65.235853 
3510.000000	65.221929 
3509.000000	65.211820 
3508.000000	65.208053 
3507.000000	65.211582 
3506.000000	65.221619 
3505.000000	65.235781 
3504.000000	65.250992 
3503.000000	65.263938 
3502.000000	65.271949 
3501.000000	65.273547 
3500.000000	65.268778 
3499.000000	65.258836 
3498.000000	65.245652 
3497.000000	65.231585 
3496.000000	65.218877 
3495.000000	65.209507 
3494.000000	65.204763 
3493.000000	65.205383 
3492.000000	65.211248 
3491.000000	65.221500 
3490.000000	65.234518 
3489.000000	65.248084 
3488.000000	65.259838 
3487.000000	65.267825 
3486.000000	65.270948 
3485.000000	65.268993 
3484.000000	65.262985 
3483.000000	65.254688 
3482.000000	65.246534 
3481.000000	65.240669 
3480.000000	65.239024 
3479.000000	65.242671 
3478.000000	65.252351 
3477.000000	65.268135 
3476.000000	65.289926 
3475.000000	65.317511 
3474.000000	65.350317 
3473.000000	65.387439 
3472.000000	65.427017 
3471.000000	65.466284 
3470.000000	65.501379 
3469.000000	65.527749 
3468.000000	65.541100 
3467.000000	65.538287 
3466.000000	65.518164 
3465.000000	65.482115 
3464.000000	65.434074 
3463.000000	65.379619 
3462.000000	65.325212 
3461.000000	65.276765 
3460.000000	65.238666 
3459.000000	65.213036 
3458.000000	65.199518 
3457.000000	65.195918 
3456.000000	65.198850 
3455.000000	65.204739 
3454.000000	65.210628 
3453.000000	65.214824 
3452.000000	65.216708 
3451.000000	65.216708 
3450.000000	65.215420 
3449.000000	65.213322 
3448.000000	65.210366 
3447.000000	65.205812 
3446.000000	65.198683 
3445.000000	65.188026 
3444.000000	65.173530 
3443.000000	65.155720 
3442.000000	65.136098 
3441.000000	65.116810 
3440.000000	65.100336 
3439.000000	65.088725 
3438.000000	65.083241 
3437.000000	65.084123 
3436.000000	65.090703 
3435.000000	65.101456 
3434.000000	65.114712 
3433.000000	65.128827 
3432.000000	65.142560 
3431.000000	65.155410 
3430.000000	65.167474 
3429.000000	65.178751 
3428.000000	65.189194 
3427.000000	65.198755 
3426.000000	65.206909 
3425.000000	65.213012 
3424.000000	65.216231 
3423.000000	65.216064 
3422.000000	65.212464 
3421.000000	65.205907 
3420.000000	65.197300 
3419.000000	65.188002 
3418.000000	65.179276 
3417.000000	65.172123 
3416.000000	65.167212 
3415.000000	65.164661 
3414.000000	65.163969 
3413.000000	65.164184 
3412.000000	65.164136 
3411.000000	65.162730 
3410.000000	65.159106 
3409.000000	65.153074 
3408.000000	65.145063 
3407.000000	65.136361 
3406.000000	65.128707 
3405.000000	65.124034 
3404.000000	65.124297 
3403.000000	65.130901 
3402.000000	65.144681 
3401.000000	65.165257 
3400.000000	65.191197 
3399.000000	65.219879 
3398.000000	65.248298 
3397.000000	65.273332 
3396.000000	65.292096 
3395.000000	65.302824 
3394.000000	65.305137 
3393.000000	65.300273 
3392.000000	65.290665 
3391.000000	65.279674 
3390.000000	65.270853 
3389.000000	65.267181 
3388.000000	65.270447 
3387.000000	65.281081 
3386.000000	65.297937 
3385.000000	65.318918 
3384.000000	65.341472 
3383.000000	65.363121 
3382.000000	65.382075 
3381.000000	65.397644 
3380.000000	65.409922 
3379.000000	65.419292 
3378.000000	65.425968 
3377.000000	65.429806 
3376.000000	65.429997 
3375.000000	65.425276 
3374.000000	65.414190 
3373.000000	65.395975 
3372.000000	65.370488 
3371.000000	65.339016 
3370.000000	65.303683 
3369.000000	65.267348 
3368.000000	65.233016 
3367.000000	65.203547 
3366.000000	65.180802 
3365.000000	65.165352 
3364.000000	65.156674 
3363.000000	65.153408 
3362.000000	65.153551 
3361.000000	65.155148 
3360.000000	65.156674 
3359.000000	65.157628 
3358.000000	65.158367 
3357.000000	65.160417 
3356.000000	65.165925 
3355.000000	65.177226 
3354.000000	65.196347 
3353.000000	65.224123 
3352.000000	65.260100 
3351.000000	65.301871 
3350.000000	65.345597 
3349.000000	65.386128 
3348.000000	65.418434 
3347.000000	65.437960 
3346.000000	65.441989 
3345.000000	65.429854 
3344.000000	65.403270 
3343.000000	65.365839 
3342.000000	65.322756 
3341.000000	65.279436 
3340.000000	65.240740 
3339.000000	65.210151 
3338.000000	65.189528 
3337.000000	65.178728 
3336.000000	65.176105 
3335.000000	65.179419 
3334.000000	65.186429 
3333.000000	65.195417 
3332.000000	65.205788 
3331.000000	65.217804 
3330.000000	65.232205 
3329.000000	65.249800 
3328.000000	65.270709 
3327.000000	65.293884 
3326.000000	65.316843 
3325.000000	65.336298 
3324.000000	65.348887 
3323.000000	65.351724 
3322.000000	65.343356 
3321.000000	65.324664 
3320.000000	65.298223 
3319.000000	65.268349 
3318.000000	65.239787 
3317.000000	65.216875 
3316.000000	65.202403 
3315.000000	65.197086 
3314.000000	65.199851 
3313.000000	65.208339 
3312.000000	65.219712 
3311.000000	65.231609 
3310.000000	65.242695 
3309.000000	65.252685 
3308.000000	65.262150 
3307.000000	65.271854 
3306.000000	65.282106 
3305.000000	65.292048 
3304.000000	65.299749 
3303.000000	65.302419 
3302.000000	65.297269 
3301.000000	65.282154 
3300.000000	65.256381 
3299.000000	65.221071 
3298.000000	65.179085 
3297.000000	65.134739 
3296.000000	65.092587 
3295.000000	65.057039 
3294.000000	65.031504 
3293.000000	65.017890 
3292.000000	65.016317 
3291.000000	65.025496 
3290.000000	65.042877 
3289.000000	65.065383 
3288.000000	65.089750 
3287.000000	65.113043 
3286.000000	65.132808 
3285.000000	65.147614 
3284.000000	65.156841 
3283.000000	65.160846 
3282.000000	65.160465 
3281.000000	65.157103 
3280.000000	65.152072 
3279.000000	65.146541 
3278.000000	65.141105 
3277.000000	65.135884 
3276.000000	65.130496 
3275.000000	65.124368 
3274.000000	65.116953 
3273.000000	65.107989 
3272.000000	65.097713 
3271.000000	65.086698 
3270.000000	65.075898 
3269.000000	65.066170 
3268.000000	65.058159 
3267.000000	65.051770 
3266.000000	65.046811 
3265.000000	65.042805 
3264.000000	65.039777 
3263.000000	65.037870 
3262.000000	65.038180 
3261.000000	65.042233 
3260.000000	65.051722 
3259.000000	65.067911 
3258.000000	65.091276 
3257.000000	65.120911 
3256.000000	65.154838 
3255.000000	65.190052 
3254.000000	65.223360 
3253.000000	65.251684 
3252.000000	65.272593 
3251.000000	65.284490 
3250.000000	65.286755 
3249.000000	65.279364 
3248.000000	65.262699 
3247.000000	65.237498 
3246.000000	65.204715 
3245.000000	65.166044 
3244.000000	65.123844 
3243.000000	65.081238 
3242.000000	65.042281 
3241.000000	65.011024 
3240.000000	64.991092 
3239.000000	64.984774 
3238.000000	64.992380 
3237.000000	65.012264 
3236.000000	65.040636 
3235.000000	65.072870 
3234.000000	65.103960 
3233.000000	65.130138 
3232.000000	65.149545 
3231.000000	65.162372 
3230.000000	65.170407 
3229.000000	65.176439 
3228.000000	65.183162 
3227.000000	65.192317 
3226.000000	65.204024 
3225.000000	65.217018 
3224.000000	65.228962 
3223.000000	65.237498 
3222.000000	65.240669 
3221.000000	65.237879 
3220.000000	65.229701 
3219.000000	65.217900 
3218.000000	65.204691 
3217.000000	65.192151 
3216.000000	65.181732 
3215.000000	65.174126 
3214.000000	65.169215 
3213.000000	65.166378 
3212.000000	65.164685 
3211.000000	65.163564 
3210.000000	65.162539 
3209.000000	65.161132 
3208.000000	65.158724 
3207.000000	65.154457 
3206.000000	65.147495 
3205.000000	65.137004 
3204.000000	65.122771 
3203.000000	65.105128 
3202.000000	65.085387 
3201.000000	65.065693 
3200.000000	65.048575 
3199.000000	65.036177 
3198.000000	65.030026 
3197.000000	65.030717 
3196.000000	65.037631 
3195.000000	65.049242 
3194.000000	65.063691 
3193.000000	65.079355 
3192.000000	65.095043 
3191.000000	65.110325 
3190.000000	65.125536 
3189.000000	65.141153 
3188.000000	65.157508 
3187.000000	65.174102 
3186.000000	65.189766 
3185.000000	65.202546 
3184.000000	65.210294 
3183.000000	65.211129 
3182.000000	65.204095 
3181.000000	65.189313 
3180.000000	65.168428 
3179.000000	65.144085 
3178.000000	65.119361 
3177.000000	65.097212 
3176.000000	65.079951 
3175.000000	65.068793 
3174.000000	65.063834 
3173.000000	65.064287 
3172.000000	65.068864 
3171.000000	65.076255 
3170.000000	65.085315 
3169.000000	65.095257 
3168.000000	65.105628 
3167.000000	65.116119 
3166.000000	65.126395 
3165.000000	65.135741 
3164.000000	65.143227 
3163.000000	65.147614 
3162.000000	65.147733 
3161.000000	65.142726 
3160.000000	65.132522 
3159.000000	65.117955 
3158.000000	65.100932 
3157.000000	65.083885 
3156.000000	65.069532 
3155.000000	65.060067 
3154.000000	65.057063 
3153.000000	65.060973 
3152.000000	65.071558 
3151.000000	65.087866 
3150.000000	65.108823 
3149.000000	65.133166 
3148.000000	65.159320 
3147.000000	65.185475 
3146.000000	65.209412 
3145.000000	65.228462 
3144.000000	65.240049 
3143.000000	65.241956 
3142.000000	65.232992 
3141.000000	65.213513 
3140.000000	65.185403 
3139.000000	65.152096 
3138.000000	65.117883 
3137.000000	65.087246 
3136.000000	65.064024 
3135.000000	65.050697 
3134.000000	65.048050 
3133.000000	65.055084 
3132.000000	65.069723 
3131.000000	65.089201 
3130.000000	65.110754 
3129.000000	65.132164 
3128.000000	65.152120 
3127.000000	65.170073 
3126.000000	65.185976 
3125.000000	65.199995 
3124.000000	65.212106 
3123.000000	65.221810 
3122.000000	65.228343 
3121.000000	65.230512 
3120.000000	65.227246 
3119.000000	65.217733 
3118.000000	65.201902 
3117.000000	65.180706 
3116.000000	65.156030 
3115.000000	65.130496 
3114.000000	65.106797 
3113.000000	65.087556 
3112.000000	65.074586 
3111.000000	65.068554 
3110.000000	65.068721 
3109.000000	65.073132 
3108.000000	65.079140 
3107.000000	65.083718 
3106.000000	65.084433 
3105.000000	65.079665 
3104.000000	65.069079 
3103.000000	65.053725 
3102.000000	65.035676 
3101.000000	65.017318 
3100.000000	65.000987 
3099.000000	64.988327 
3098.000000	64.980125 
3097.000000	64.976286 
3096.000000	64.975881 
3095.000000	64.977598 
3094.000000	64.979958 
3093.000000	64.981722 
3092.000000	64.981818 
3091.000000	64.979720 
3090.000000	64.975285 
3089.000000	64.968657 
3088.000000	64.960265 
3087.000000	64.950752 
3086.000000	64.941048 
3085.000000	64.932131 
3084.000000	64.925074 
3083.000000	64.921021 
3082.000000	64.920616 
3081.000000	64.924335 
3080.000000	64.932227 
3079.000000	64.944148 
3078.000000	64.959573 
3077.000000	64.977931 
3076.000000	64.998698 
3075.000000	65.021228 
3074.000000	65.044856 
3073.000000	65.068769 
3072.000000	65.092015 
3071.000000	65.113782 
3070.000000	65.133333 
3069.000000	65.150499 
3068.000000	65.165400 
3067.000000	65.178513 
3066.000000	65.190529 
3065.000000	65.202093 
3064.000000	65.213274 
3063.000000	65.223574 
3062.000000	65.231776 
3061.000000	65.236330 
3060.000000	65.235805 
3059.000000	65.229654 
3058.000000	65.218353 
3057.000000	65.203738 
3056.000000	65.188598 
3055.000000	65.176296 
3054.000000	65.169692 
3053.000000	65.170574 
3052.000000	65.179228 
3051.000000	65.194535 
3050.000000	65.214085 
3049.000000	65.235066 
3048.000000	65.254449 
3047.000000	65.270185 
3046.000000	65.280890 
3045.000000	65.286159 
3044.000000	65.286016 
3043.000000	65.280985 
3042.000000	65.271615 
3041.000000	65.258288 
3040.000000	65.241646 
3039.000000	65.222597 
3038.000000	65.202546 
3037.000000	65.183472 
3036.000000	65.167474 
3035.000000	65.156626 
3034.000000	65.152096 
3033.000000	65.154075 
3032.000000	65.161418 
3031.000000	65.172123 
3030.000000	65.183496 
3029.000000	65.192937 
3028.000000	65.198445 
3027.000000	65.199065 
3026.000000	65.194845 
3025.000000	65.186619 
3024.000000	65.175628 
3023.000000	65.162968 
3022.000000	65.149307 
3021.000000	65.134739 
3020.000000	65.119075 
3019.000000	65.102124 
3018.000000	65.083932 
3017.000000	65.065312 
3016.000000	65.047717 
3015.000000	65.032982 
3014.000000	65.022683 
3013.000000	65.017628 
3012.000000	65.017485 
3011.000000	65.020775 
3010.000000	65.025067 
3009.000000	65.027761 
3008.000000	65.026664 
3007.000000	65.020847 
3006.000000	65.010762 
3005.000000	64.998364 
3004.000000	64.986586 
3003.000000	64.978337 
3002.000000	64.976072 
3001.000000	64.980816 
3000.000000	64.992308 
2999.000000	65.008735 
2998.000000	65.027356 
2997.000000	65.045404 
2996.000000	65.060281 
2995.000000	65.070319 
2994.000000	65.074443 
2993.000000	65.072035 
2992.000000	65.062952 
2991.000000	65.047216 
2990.000000	65.025353 
2989.000000	64.998388 
2988.000000	64.968276 
2987.000000	64.937901 
2986.000000	64.910745 
2985.000000	64.890170 
2984.000000	64.878916 
2983.000000	64.878106 
2982.000000	64.886975 
2981.000000	64.902877 
2980.000000	64.921641 
2979.000000	64.938426 
2978.000000	64.948701 
2977.000000	64.949202 
2976.000000	64.938354 
2975.000000	64.916706 
2974.000000	64.886283 
2973.000000	64.850592 
2972.000000	64.813256 
2971.000000	64.777922 
2970.000000	64.747548 
2969.000000	64.724111 
2968.000000	64.708852 
2967.000000	64.701771 
2966.000000	64.702081 
2965.000000	64.708161 
2964.000000	64.717817 
2963.000000	64.728617 
2962.000000	64.738059 
2961.000000	64.744210 
2960.000000	64.745616 
2959.000000	64.741635 
2958.000000	64.732408 
2957.000000	64.718818 
2956.000000	64.702081 
2955.000000	64.683699 
2954.000000	64.665079 
2953.000000	64.647650 
2952.000000	64.632654 
2951.000000	64.621090 
2950.000000	64.613699 
2949.000000	64.611005 
2948.000000	64.613318 
2947.000000	64.620280 
2946.000000	64.631390 
2945.000000	64.645338 
2944.000000	64.660835 
2943.000000	64.676284 
2942.000000	64.690446 
2941.000000	64.702701 
2940.000000	64.712929 
2939.000000	64.721107 
2938.000000	64.727497 
2937.000000	64.732193 
2936.000000	64.735078 
2935.000000	64.735579 
2934.000000	64.732789 
2933.000000	64.725923 
2932.000000	64.714574 
2931.000000	64.699125 
2930.000000	64.680790 
2929.000000	64.661669 
2928.000000	64.644742 
2927.000000	64.632940 
2926.000000	64.628934 
2925.000000	64.634251 
2924.000000	64.648914 
2923.000000	64.671158 
2922.000000	64.697861 
2921.000000	64.725184 
2920.000000	64.749455 
2919.000000	64.768123 
2918.000000	64.780092 
2917.000000	64.786148 
2916.000000	64.788389 
2915.000000	64.789795 
2914.000000	64.793157 
2913.000000	64.800500 
2912.000000	64.812612 
2911.000000	64.828681 
2910.000000	64.846873 
2909.000000	64.864468 
2908.000000	64.878726 
2907.000000	64.887309 
2906.000000	64.889097 
2905.000000	64.884161 
2904.000000	64.873909 
2903.000000	64.860701 
2902.000000	64.847254 
2901.000000	64.836001 
2900.000000	64.828443 
2899.000000	64.824962 
2898.000000	64.824676 
2897.000000	64.825725 
2896.000000	64.825749 
2895.000000	64.822697 
2894.000000	64.815139 
2893.000000	64.802718 
2892.000000	64.786314 
2891.000000	64.767408 
2890.000000	64.748096 
2889.000000	64.730477 
2888.000000	64.716219 
2887.000000	64.705991 
2886.000000	64.699864 
2885.000000	64.697194 
2884.000000	64.697194 
2883.000000	64.699077 
2882.000000	64.702677 
2881.000000	64.708137 
2880.000000	64.716053 
2879.000000	64.726996 
2878.000000	64.741253 
2877.000000	64.758229 
2876.000000	64.776635 
2875.000000	64.794516 
2874.000000	64.809775 
2873.000000	64.820551 
2872.000000	64.825940 
2871.000000	64.826107 
2870.000000	64.822196 
2869.000000	64.815807 
2868.000000	64.809036 
2867.000000	64.803194 
2866.000000	64.798974 
2865.000000	64.795970 
2864.000000	64.793062 
2863.000000	64.788818 
2862.000000	64.782142 
2861.000000	64.772868 
2860.000000	64.761734 
2859.000000	64.750790 
2858.000000	64.742445 
2857.000000	64.739322 
2856.000000	64.743328 
2855.000000	64.755463 
2854.000000	64.775371 
2853.000000	64.801454 
2852.000000	64.831233 
2851.000000	64.861845 
2850.000000	64.890599 
2849.000000	64.915466 
2848.000000	64.935302 
2847.000000	64.950013 
2846.000000	64.960384 
2845.000000	64.967823 
2844.000000	64.973974 
2843.000000	64.980196 
2842.000000	64.987277 
2841.000000	64.995408 
2840.000000	65.003919 
2839.000000	65.011739 
2838.000000	65.017485 
2837.000000	65.020084 
2836.000000	65.018963 
2835.000000	65.014243 
2834.000000	65.006995 
2833.000000	64.998817 
2832.000000	64.991664 
2831.000000	64.987373 
2830.000000	64.987182 
2829.000000	64.991545 
2828.000000	64.999842 
2827.000000	65.010857 
2826.000000	65.022802 
2825.000000	65.033912 
2824.000000	65.042901 
2823.000000	65.049266 
2822.000000	65.053343 
2821.000000	65.056085 
2820.000000	65.058970 
2819.000000	65.063500 
2818.000000	65.070676 
2817.000000	65.080761 
2816.000000	65.093398 
2815.000000	65.107464 
2814.000000	65.121579 
2813.000000	65.134167 
2812.000000	65.143823 
2811.000000	65.149331 
2810.000000	65.150094 
2809.000000	65.145874 
2808.000000	65.136885 
2807.000000	65.123653 
2806.000000	65.106916 
2805.000000	65.087413 
2804.000000	65.065908 
2803.000000	65.043163 
2802.000000	65.019798 
2801.000000	64.996695 
2800.000000	64.974617 
2799.000000	64.954590 
2798.000000	64.937710 
2797.000000	64.925050 
2796.000000	64.917516 
2795.000000	64.915609 
2794.000000	64.919304 
2793.000000	64.927887 
2792.000000	64.940166 
2791.000000	64.954447 
2790.000000	64.969134 
2789.000000	64.983034 
2788.000000	64.995622 
2787.000000	65.007019 
2786.000000	65.017890 
2785.000000	65.029025 
2784.000000	65.041041 
2783.000000	65.053796 
2782.000000	65.066504 
2781.000000	65.077900 
2780.000000	65.086531 
2779.000000	65.091276 
2778.000000	65.091538 
2777.000000	65.087556 
2776.000000	65.080404 
2775.000000	65.071582 
2774.000000	65.062642 
2773.000000	65.054798 
2772.000000	65.048718 
2771.000000	65.044617 
2770.000000	65.042400 
2769.000000	65.041756 
2768.000000	65.042710 
2767.000000	65.045452 
2766.000000	65.050411 
2765.000000	65.057730 
2764.000000	65.067148 
2763.000000	65.077590 
2762.000000	65.087389 
2761.000000	65.094470 
2760.000000	65.096688 
2759.000000	65.092396 
2758.000000	65.081000 
2757.000000	65.062904 
2756.000000	65.039801 
2755.000000	65.014076 
2754.000000	64.988398 
2753.000000	64.965248 
2752.000000	64.946365 
2751.000000	64.932560 
2750.000000	64.923667 
2749.000000	64.918851 
2748.000000	64.916920 
2747.000000	64.916682 
2746.000000	64.917302 
2745.000000	64.918422 
2744.000000	64.920186 
2743.000000	64.922833 
2742.000000	64.926528 
2741.000000	64.931368 
2740.000000	64.936780 
2739.000000	64.941716 
2738.000000	64.944720 
2737.000000	64.944267 
2736.000000	64.939045 
2735.000000	64.928483 
2734.000000	64.913034 
2733.000000	64.894032 
2732.000000	64.873528 
2731.000000	64.854121 
2730.000000	64.838266 
2729.000000	64.827823 
2728.000000	64.823865 
2727.000000	64.826321 
2726.000000	64.834475 
2725.000000	64.846920 
2724.000000	64.862251 
2723.000000	64.879179 
2722.000000	64.896893 
2721.000000	64.915084 
2720.000000	64.933872 
2719.000000	64.953398 
2718.000000	64.973640 
2717.000000	64.994168 
2716.000000	65.014123 
2715.000000	65.032267 
2714.000000	65.047240 
2713.000000	65.058040 
2712.000000	65.064072 
2711.000000	65.065526 
2710.000000	65.063142 
2709.000000	65.058326 
2708.000000	65.052700 
2707.000000	65.047740 
2706.000000	65.044569 
2705.000000	65.043973 
2704.000000	65.046215 
2703.000000	65.051031 
2702.000000	65.058040 
2701.000000	65.066552 
2700.000000	65.075898 
2699.000000	65.085220 
2698.000000	65.093541 
2697.000000	65.099978 
2696.000000	65.103793 
2695.000000	65.104413 
2694.000000	65.101623 
2693.000000	65.095639 
2692.000000	65.087342 
2691.000000	65.077948 
2690.000000	65.068817 
2689.000000	65.061306 
2688.000000	65.056467 
2687.000000	65.054631 
2686.000000	65.055489 
2685.000000	65.058112 
2684.000000	65.061140 
2683.000000	65.063023 
2682.000000	65.062522 
2681.000000	65.058875 
2680.000000	65.052032 
2679.000000	65.042591 
2678.000000	65.031743 
2677.000000	65.020990 
2676.000000	65.011715 
2675.000000	65.004992 
2674.000000	65.001010 
2673.000000	64.999198 
2672.000000	64.998126 
2671.000000	64.995741 
2670.000000	64.989972 
2669.000000	64.979147 
2668.000000	64.962649 
2667.000000	64.940810 
2666.000000	64.915394 
2665.000000	64.889025 
2664.000000	64.865040 
2663.000000	64.846539 
2662.000000	64.836025 
2661.000000	64.834904 
2660.000000	64.843344 
2659.000000	64.860224 
2658.000000	64.883470 
2657.000000	64.910554 
2656.000000	64.938735 
2655.000000	64.965796 
2654.000000	64.990019 
2653.000000	65.010356 
2652.000000	65.026354 
2651.000000	65.037965 
2650.000000	65.045380 
2649.000000	65.048742 
2648.000000	65.048313 
2647.000000	65.044355 
2646.000000	65.037465 
2645.000000	65.028166 
2644.000000	65.017390 
2643.000000	65.005922 
2642.000000	64.994478 
2641.000000	64.983296 
2640.000000	64.972233 
2639.000000	64.960980 
2638.000000	64.949035 
2637.000000	64.936327 
2636.000000	64.923071 
2635.000000	64.910030 
2634.000000	64.898276 
2633.000000	64.889097 
2632.000000	64.883685 
2631.000000	64.882826 
2630.000000	64.886641 
2629.000000	64.894819 
2628.000000	64.906406 
2627.000000	64.920163 
2626.000000	64.934659 
2625.000000	64.948606 
2624.000000	64.960789 
2623.000000	64.970350 
2622.000000	64.976596 
2621.000000	64.979171 
2620.000000	64.977717 
2619.000000	64.972043 
2618.000000	64.962029 
2617.000000	64.947843 
2616.000000	64.929914 
2615.000000	64.909029 
2614.000000	64.886355 
2613.000000	64.863514 
2612.000000	64.842414 
2611.000000	64.824843 
2610.000000	64.812541 
2609.000000	64.806556 
2608.000000	64.807295 
2607.000000	64.814305 
2606.000000	64.826297 
2605.000000	64.841294 
2604.000000	64.857149 
2603.000000	64.871788 
2602.000000	64.883518 
2601.000000	64.891529 
2600.000000	64.895653 
2599.000000	64.896821 
2598.000000	64.896225 
2597.000000	64.895462 
2596.000000	64.896011 
2595.000000	64.898943 
2594.000000	64.904737 
2593.000000	64.913368 
2592.000000	64.924335 
2591.000000	64.937067 
2590.000000	64.950799 
2589.000000	64.964890 
2588.000000	64.978718 
2587.000000	64.991784 
2586.000000	65.003538 
2585.000000	65.013337 
2584.000000	65.020465 
2583.000000	65.024209 
2582.000000	65.023994 
2581.000000	65.019202 
2580.000000	65.009427 
2579.000000	64.994597 
2578.000000	64.974951 
2577.000000	64.951372 
2576.000000	64.925146 
2575.000000	64.898180 
2574.000000	64.872598 
2573.000000	64.850831 
2572.000000	64.835166 
2571.000000	64.827346 
2570.000000	64.828205 
2569.000000	64.837813 
2568.000000	64.855265 
2567.000000	64.878749 
2566.000000	64.905571 
2565.000000	64.932656 
2564.000000	64.956808 
2563.000000	64.975118 
2562.000000	64.985299 
2561.000000	64.985918 
2560.000000	64.976906 
2559.000000	64.959359 
2558.000000	64.935517 
2557.000000	64.908599 
2556.000000	64.882159 
2555.000000	64.859604 
2554.000000	64.843368 
2553.000000	64.834547 
2552.000000	64.832663 
2551.000000	64.835810 
2550.000000	64.841079 
2549.000000	64.845371 
2548.000000	64.845943 
2547.000000	64.841222 
2546.000000	64.831185 
2545.000000	64.817142 
2544.000000	64.801549 
2543.000000	64.787292 
2542.000000	64.776992 
2541.000000	64.772582 
2540.000000	64.774870 
2539.000000	64.783430 
2538.000000	64.796900 
2537.000000	64.813375 
2536.000000	64.830803 
2535.000000	64.847564 
2534.000000	64.862585 
2533.000000	64.875483 
2532.000000	64.886307 
2531.000000	64.895558 
2530.000000	64.904046 
2529.000000	64.912581 
2528.000000	64.921808 
2527.000000	64.931869 
2526.000000	64.942359 
2525.000000	64.952373 
2524.000000	64.960670 
2523.000000	64.965891 
2522.000000	64.966583 
2521.000000	64.961862 
2520.000000	64.951229 
2519.000000	64.934921 
2518.000000	64.913868 
2517.000000	64.889454 
2516.000000	64.863443 
2515.000000	64.837765 
2514.000000	64.814543 
2513.000000	64.795637 
2512.000000	64.782357 
2511.000000	64.775538 
2510.000000	64.775228 
2509.000000	64.780807 
2508.000000	64.791035 
2507.000000	64.804100 
2506.000000	64.817953 
2505.000000	64.830517 
2504.000000	64.840245 
2503.000000	64.846229 
2502.000000	64.848303 
2501.000000	64.846849 
2500.000000	64.842772 
2499.000000	64.837169 
2498.000000	64.830994 
2497.000000	64.824867 
2496.000000	64.819335 
2495.000000	64.814853 
2494.000000	64.811730 
2493.000000	64.810013 
2492.000000	64.809560 
2491.000000	64.809989 
2490.000000	64.810633 
2489.000000	64.810729 
2488.000000	64.809393 
2487.000000	64.806437 
2486.000000	64.802098 
2485.000000	64.797663 
2484.000000	64.795088 
2483.000000	64.796471 
2482.000000	64.803767 
2481.000000	64.817833 
2480.000000	64.838099 
2479.000000	64.862465 
2478.000000	64.887428 
2477.000000	64.909029 
2476.000000	64.923691 
2475.000000	64.929056 
2474.000000	64.924430 
2473.000000	64.910864 
2472.000000	64.890766 
2471.000000	64.867138 
2470.000000	64.843010 
2469.000000	64.820671 
2468.000000	64.801597 
2467.000000	64.786672 
2466.000000	64.776253 
2465.000000	64.770865 
2464.000000	64.771032 
2463.000000	64.777565 
2462.000000	64.790892 
2461.000000	64.810848 
2460.000000	64.836192 
2459.000000	64.864349 
2458.000000	64.891767 
2457.000000	64.914536 
2456.000000	64.929199 
2455.000000	64.933538 
2454.000000	64.926958 
2453.000000	64.910602 
2452.000000	64.886927 
2451.000000	64.859199 
2450.000000	64.830851 
2449.000000	64.804816 
2448.000000	64.783096 
2447.000000	64.766788 
2446.000000	64.756155 
2445.000000	64.751005 
2444.000000	64.750766 
2443.000000	64.754772 
2442.000000	64.762139 
2441.000000	64.771962 
2440.000000	64.783167 
2439.000000	64.794468 
2438.000000	64.804553 
2437.000000	64.812207 
2436.000000	64.816594 
2435.000000	64.817500 
2434.000000	64.814972 
2433.000000	64.809536 
2432.000000	64.801931 
2431.000000	64.793252 
2430.000000	64.784502 
2429.000000	64.776778 
2428.000000	64.771127 
2427.000000	64.768266 
2426.000000	64.768862 
2425.000000	64.772987 
2424.000000	64.780187 
2423.000000	64.789605 
2422.000000	64.800047 
2421.000000	64.810228 
2420.000000	64.818954 
2419.000000	64.825391 
2418.000000	64.829134 
2417.000000	64.830374 
2416.000000	64.829778 
2415.000000	64.828276 
2414.000000	64.826774 
2413.000000	64.825844 
2412.000000	64.825820 
2411.000000	64.826822 
2410.000000	64.828801 
2409.000000	64.831781 
2408.000000	64.835834 
2407.000000	64.841270 
2406.000000	64.848089 
2405.000000	64.856314 
2404.000000	64.865064 
2403.000000	64.873027 
2402.000000	64.878058 
2401.000000	64.877939 
2400.000000	64.870619 
2399.000000	64.854741 
2398.000000	64.830350 
2397.000000	64.799046 
2396.000000	64.763784 
2395.000000	64.728617 
2394.000000	64.697694 
2393.000000	64.674496 
2392.000000	64.661049 
2391.000000	64.657592 
2390.000000	64.662384 
2389.000000	64.672183 
2388.000000	64.683151 
2387.000000	64.691710 
2386.000000	64.695334 
2385.000000	64.692902 
2384.000000	64.684891 
2383.000000	64.673042 
2382.000000	64.659595 
2381.000000	64.647006 
2380.000000	64.637112 
2379.000000	64.630961 
2378.000000	64.628839 
2377.000000	64.630270 
2376.000000	64.634704 
2375.000000	64.641332 
2374.000000	64.649701 
2373.000000	64.659333 
2372.000000	64.669656 
2371.000000	64.679932 
2370.000000	64.689159 
2369.000000	64.696335 
2368.000000	64.700365 
2367.000000	64.700651 
2366.000000	64.697313 
2365.000000	64.691019 
2364.000000	64.682912 
2363.000000	64.674401 
2362.000000	64.666938 
2361.000000	64.661502 
2360.000000	64.658594 
2359.000000	64.658141 
2358.000000	64.659476 
2357.000000	64.661645 
2356.000000	64.663410 
2355.000000	64.663672 
2354.000000	64.661455 
2353.000000	64.656090 
2352.000000	64.647507 
2351.000000	64.636015 
2350.000000	64.622616 
2349.000000	64.608597 
2348.000000	64.595770 
2347.000000	64.585971 
2346.000000	64.580845 
2345.000000	64.581584 
2344.000000	64.588713 
2343.000000	64.601778 
2342.000000	64.619684 
2341.000000	64.640855 
2340.000000	64.663434 
2339.000000	64.685750 
2338.000000	64.706230 
2337.000000	64.723730 
2336.000000	64.737415 
2335.000000	64.746785 
2334.000000	64.751720 
2333.000000	64.752340 
2332.000000	64.749050 
2331.000000	64.742445 
2330.000000	64.733409 
2329.000000	64.723134 
2328.000000	64.712858 
2327.000000	64.703845 
2326.000000	64.697241 
2325.000000	64.693808 
2324.000000	64.693808 
2323.000000	64.697122 
2322.000000	64.703083 
2321.000000	64.710712 
2320.000000	64.718890 
2319.000000	64.726638 
2318.000000	64.732980 
2317.000000	64.737391 
2316.000000	64.739680 
2315.000000	64.740157 
2314.000000	64.739656 
2313.000000	64.739036 
2312.000000	64.739203 
2311.000000	64.740514 
2310.000000	64.742755 
2309.000000	64.744877 
2308.000000	64.745163 
2307.000000	64.741611 
2306.000000	64.732408 
2305.000000	64.716339 
2304.000000	64.693260 
2303.000000	64.664077 
2302.000000	64.630866 
2301.000000	64.596438 
2300.000000	64.563965 
2299.000000	64.536714 
2298.000000	64.517331 
2297.000000	64.507746 
2296.000000	64.508724 
2295.000000	64.520096 
2294.000000	64.540338 
2293.000000	64.567041 
2292.000000	64.596962 
2291.000000	64.626383 
2290.000000	64.651799 
2289.000000	64.669942 
2288.000000	64.678883 
2287.000000	64.678049 
2286.000000	64.668703 
2285.000000	64.653587 
2284.000000	64.636635 
2283.000000	64.622092 
2282.000000	64.613628 
2281.000000	64.613795 
2280.000000	64.623332 
2279.000000	64.640974 
2278.000000	64.664101 
2277.000000	64.688992 
2276.000000	64.711856 
2275.000000	64.729452 
2274.000000	64.739966 
2273.000000	64.742851 
2272.000000	64.738941 
2271.000000	64.729809 
2270.000000	64.717340 
2269.000000	64.703464 
2268.000000	64.689445 
2267.000000	64.675855 
2266.000000	64.662933 
2265.000000	64.650678 
2264.000000	64.639234 
2263.000000	64.629173 
2262.000000	64.621257 
2261.000000	64.616489 
2260.000000	64.615726 
2259.000000	64.619374 
2258.000000	64.626979 
2257.000000	64.637374 
2256.000000	64.648771 
2255.000000	64.659190 
2254.000000	64.666867 
2253.000000	64.670467 
2252.000000	64.669656 
2251.000000	64.665007 
2250.000000	64.657855 
2249.000000	64.649963 
2248.000000	64.643096 
2247.000000	64.638757 
2246.000000	64.637684 
2245.000000	64.640021 
2244.000000	64.645028 
2243.000000	64.651608 
2242.000000	64.658188 
2241.000000	64.663219 
2240.000000	64.665174 
2239.000000	64.663124 
2238.000000	64.656686 
2237.000000	64.646124 
2236.000000	64.632344 
2235.000000	64.616966 
2234.000000	64.601945 
2233.000000	64.589333 
2232.000000	64.580869 
2231.000000	64.577722 
2230.000000	64.580202 
2229.000000	64.587759 
2228.000000	64.598822 
2227.000000	64.611315 
2226.000000	64.622974 
2225.000000	64.631772 
2224.000000	64.636301 
2223.000000	64.635992 
2222.000000	64.631223 
2221.000000	64.623355 
2220.000000	64.614081 
2219.000000	64.605426 
2218.000000	64.599037 
2217.000000	64.596152 
2216.000000	64.597392 
2215.000000	64.602661 
2214.000000	64.611411 
2213.000000	64.622688 
2212.000000	64.635562 
2211.000000	64.648818 
2210.000000	64.661407 
2209.000000	64.672040 
2208.000000	64.679551 
2207.000000	64.682817 
2206.000000	64.680767 
2205.000000	64.672636 
2204.000000	64.658164 
2203.000000	64.637565 
2202.000000	64.611816 
2201.000000	64.582514 
2200.000000	64.551615 
2199.000000	64.521336 
2198.000000	64.493799 
2197.000000	64.470696 
2196.000000	64.453220 
2195.000000	64.442014 
2194.000000	64.437174 
2193.000000	64.438319 
2192.000000	64.444756 
2191.000000	64.455652 
2190.000000	64.470171 
2189.000000	64.487266 
2188.000000	64.506053 
2187.000000	64.525437 
2186.000000	64.544510 
2185.000000	64.562344 
2184.000000	64.578056 
2183.000000	64.591073 
2182.000000	64.600896 
2181.000000	64.607453 
2180.000000	64.610719 
2179.000000	64.610767 
2178.000000	64.607715 
2177.000000	64.601707 
2176.000000	64.592909 
2175.000000	64.581537 
2174.000000	64.568138 
2173.000000	64.553427 
2172.000000	64.538455 
2171.000000	64.524292 
2170.000000	64.512109 
2169.000000	64.502954 
2168.000000	64.497399 
2167.000000	64.495515 
2166.000000	64.496946 
2165.000000	64.501023 
2164.000000	64.506769 
2163.000000	64.513087 
2162.000000	64.518976 
2161.000000	64.523768 
2160.000000	64.526915 
2159.000000	64.528369 
2158.000000	64.527940 
2157.000000	64.525890 
2156.000000	64.522528 
2155.000000	64.518451 
2154.000000	64.514231 
2153.000000	64.510631 
2152.000000	64.508485 
2151.000000	64.508509 
2150.000000	64.511227 
2149.000000	64.516615 
2148.000000	64.524269 
2147.000000	64.533329 
2146.000000	64.542627 
2145.000000	64.551115 
2144.000000	64.558053 
2143.000000	64.563250 
2142.000000	64.567303 
2141.000000	64.571213 
2140.000000	64.576148 
2139.000000	64.583253 
2138.000000	64.593148 
2137.000000	64.605665 
2136.000000	64.619851 
2135.000000	64.634180 
2134.000000	64.646720 
2133.000000	64.655709 
2132.000000	64.659667 
2131.000000	64.657950 
2130.000000	64.650511 
2129.000000	64.638161 
2128.000000	64.622211 
2127.000000	64.604187 
2126.000000	64.585661 
2125.000000	64.568018 
2124.000000	64.552330 
2123.000000	64.539337 
2122.000000	64.529609 
2121.000000	64.523291 
2120.000000	64.520311 
2119.000000	64.520382 
2118.000000	64.523077 
2117.000000	64.528036 
2116.000000	64.534616 
2115.000000	64.542078 
2114.000000	64.549589 
2113.000000	64.556312 
2112.000000	64.561343 
2111.000000	64.563918 
2110.000000	64.563560 
2109.000000	64.560103 
2108.000000	64.553904 
2107.000000	64.545392 
2106.000000	64.535498 
2105.000000	64.525151 
2104.000000	64.515042 
2103.000000	64.505887 
2102.000000	64.498281 
2101.000000	64.492726 
2100.000000	64.489483 
2099.000000	64.488935 
2098.000000	64.491367 
2097.000000	64.496994 
2096.000000	64.505696 
2095.000000	64.516711 
2094.000000	64.528536 
2093.000000	64.539122 
2092.000000	64.546203 
2091.000000	64.547848 
2090.000000	64.543032 
2089.000000	64.532184 
2088.000000	64.517116 
2087.000000	64.500737 
2086.000000	64.486336 
2085.000000	64.477038 
2084.000000	64.474916 
2083.000000	64.480495 
2082.000000	64.492726 
2081.000000	64.509201 
2080.000000	64.526462 
2079.000000	64.540767 
2078.000000	64.548850 
2077.000000	64.548468 
2076.000000	64.538836 
2075.000000	64.520955 
2074.000000	64.497303 
2073.000000	64.471387 
2072.000000	64.447093 
2071.000000	64.427804 
2070.000000	64.415931 
2069.000000	64.412403 
2068.000000	64.416670 
2067.000000	64.426803 
2066.000000	64.440107 
2065.000000	64.453792 
2064.000000	64.465689 
2063.000000	64.474821 
2062.000000	64.481186 
2061.000000	64.485669 
2060.000000	64.489698 
2059.000000	64.494585 
2058.000000	64.501047 
2057.000000	64.508700 
2056.000000	64.516520 
2055.000000	64.522624 
2054.000000	64.525270 
2053.000000	64.522957 
2052.000000	64.515066 
2051.000000	64.501786 
2050.000000	64.484214 
2049.000000	64.464282 
2048.000000	64.443922 
2047.000000	64.425373 
2046.000000	64.410519 
2045.000000	64.401054 
2044.000000	64.398288 
2043.000000	64.403009 
2042.000000	64.415621 
2041.000000	64.435482 
2040.000000	64.460825 
2039.000000	64.488840 
2038.000000	64.515924 
2037.000000	64.538049 
2036.000000	64.551568 
2035.000000	64.554047 
2034.000000	64.544606 
2033.000000	64.524412 
2032.000000	64.496350 
2031.000000	64.464354 
2030.000000	64.432406 
2029.000000	64.404177 
2028.000000	64.381861 
2027.000000	64.366269 
2026.000000	64.356780 
2025.000000	64.352083 
2024.000000	64.350748 
2023.000000	64.351630 
2022.000000	64.354372 
2021.000000	64.359188 
2020.000000	64.366817 
2019.000000	64.377641 
2018.000000	64.391636 
2017.000000	64.407944 
2016.000000	64.425134 
2015.000000	64.441418 
2014.000000	64.455032 
2013.000000	64.464879 
2012.000000	64.470720 
2011.000000	64.473176 
2010.000000	64.473557 
2009.000000	64.473366 
2008.000000	64.473915 
2007.000000	64.475703 
2006.000000	64.478516 
2005.000000	64.481234 
2004.000000	64.482545 
2003.000000	64.481115 
2002.000000	64.475917 
2001.000000	64.466691 
2000.000000	64.454030 
1999.000000	64.439249 
1998.000000	64.423966 
1997.000000	64.409732 
1996.000000	64.397907 
1995.000000	64.389181 
1994.000000	64.383411 
1993.000000	64.379763 
1992.000000	64.377140 
1991.000000	64.374208 
1990.000000	64.370059 
1989.000000	64.364361 
1988.000000	64.357280 
1987.000000	64.349532 
1986.000000	64.342164 
1985.000000	64.335966 
1984.000000	64.331507 
1983.000000	64.328861 
1982.000000	64.327859 
1981.000000	64.327907 
1980.000000	64.328432 
1979.000000	64.329171 
1978.000000	64.330267 
1977.000000	64.332246 
1976.000000	64.335823 
1975.000000	64.341640 
1974.000000	64.349865 
1973.000000	64.360141 
1972.000000	64.371681 
1971.000000	64.383268 
1970.000000	64.393711 
1969.000000	64.402055 
1968.000000	64.407849 
1967.000000	64.411163 
1966.000000	64.412546 
1965.000000	64.412999 
1964.000000	64.413499 
1963.000000	64.414906 
1962.000000	64.417695 
1961.000000	64.421868 
1960.000000	64.426922 
1959.000000	64.432001 
1958.000000	64.435863 
1957.000000	64.437246 
1956.000000	64.435148 
1955.000000	64.428853 
1954.000000	64.418363 
1953.000000	64.404296 
1952.000000	64.388084 
1951.000000	64.371705 
1950.000000	64.357542 
1949.000000	64.347720 
1948.000000	64.343690 
1947.000000	64.345955 
1946.000000	64.353680 
1945.000000	64.365196 
1944.000000	64.378213 
1943.000000	64.390206 
1942.000000	64.399218 
1941.000000	64.403939 
1940.000000	64.404225 
1939.000000	64.400720 
1938.000000	64.394688 
1937.000000	64.387536 
1936.000000	64.380669 
1935.000000	64.374995 
1934.000000	64.370822 
1933.000000	64.367914 
1932.000000	64.365625 
1931.000000	64.363098 
1930.000000	64.359712 
1929.000000	64.355015 
1928.000000	64.349174 
1927.000000	64.342594 
1926.000000	64.336061 
1925.000000	64.330625 
1924.000000	64.327454 
1923.000000	64.327597 
1922.000000	64.331698 
1921.000000	64.339852 
1920.000000	64.351677 
1919.000000	64.366173 
1918.000000	64.381980 
1917.000000	64.397716 
1916.000000	64.411854 
1915.000000	64.423346 
1914.000000	64.431333 
1913.000000	64.435386 
1912.000000	64.435458 
1911.000000	64.431738 
1910.000000	64.424777 
1909.000000	64.415478 
1908.000000	64.404916 
1907.000000	64.394354 
1906.000000	64.384889 
1905.000000	64.377379 
1904.000000	64.372038 
1903.000000	64.368629 
1902.000000	64.366436 
1901.000000	64.364504 
1900.000000	64.362072 
1899.000000	64.358735 
1898.000000	64.355039 
1897.000000	64.352297 
1896.000000	64.352250 
1895.000000	64.356517 
1894.000000	64.366126 
1893.000000	64.381074 
1892.000000	64.399981 
1891.000000	64.420342 
1890.000000	64.439105 
1889.000000	64.453458 
1888.000000	64.461398 
1887.000000	64.462256 
1886.000000	64.456796 
1885.000000	64.446926 
1884.000000	64.435243 
1883.000000	64.424300 
1882.000000	64.416122 
1881.000000	64.411664 
1880.000000	64.410972 
1879.000000	64.413118 
1878.000000	64.416718 
1877.000000	64.420175 
1876.000000	64.422106 
1875.000000	64.421629 
1874.000000	64.418244 
1873.000000	64.411807 
1872.000000	64.402270 
1871.000000	64.389657 
1870.000000	64.374136 
1869.000000	64.355707 
1868.000000	64.334893 
1867.000000	64.312481 
1866.000000	64.289784 
1865.000000	64.268422 
1864.000000	64.250254 
1863.000000	64.237117 
1862.000000	64.230465 
1861.000000	64.231014 
1860.000000	64.238810 
1859.000000	64.252996 
1858.000000	64.272069 
1857.000000	64.294123 
1856.000000	64.317035 
1855.000000	64.338922 
1854.000000	64.358043 
1853.000000	64.373111 
1852.000000	64.383053 
1851.000000	64.387178 
1850.000000	64.385128 
1849.000000	64.377021 
1848.000000	64.363336 
1847.000000	64.345073 
1846.000000	64.323806 
1845.000000	64.301276 
1844.000000	64.279437 
1843.000000	64.259982 
1842.000000	64.244127 
1841.000000	64.232468 
1840.000000	64.224934 
1839.000000	64.221024 
1838.000000	64.219784 
1837.000000	64.220523 
1836.000000	64.222550 
1835.000000	64.225625 
1834.000000	64.229559 
1833.000000	64.234471 
1832.000000	64.240121 
1831.000000	64.246034 
1830.000000	64.251327 
1829.000000	64.254975 
1828.000000	64.256167 
1827.000000	64.254307 
1826.000000	64.249467 
1825.000000	64.242267 
1824.000000	64.233732 
1823.000000	64.225101 
1822.000000	64.217424 
1821.000000	64.211559 
1820.000000	64.207839 
1819.000000	64.206314 
1818.000000	64.206695 
1817.000000	64.208745 
1816.000000	64.212107 
1815.000000	64.216589 
1814.000000	64.221906 
1813.000000	64.227557 
1812.000000	64.232897 
1811.000000	64.236998 
1810.000000	64.239025 
1809.000000	64.238309 
1808.000000	64.234566 
1807.000000	64.228272 
1806.000000	64.220404 
1805.000000	64.212465 
1804.000000	64.205908 
1803.000000	64.202117 
1802.000000	64.201855 
1801.000000	64.205217 
1800.000000	64.211821 
1799.000000	64.220833 
1798.000000	64.231324 
1797.000000	64.242434 
1796.000000	64.253401 
1795.000000	64.263606 
1794.000000	64.272451 
1793.000000	64.279294 
1792.000000	64.283299 
1791.000000	64.283323 
1790.000000	64.278507 
1789.000000	64.268231 
1788.000000	64.252638 
1787.000000	64.232635 
1786.000000	64.209938 
1785.000000	64.186978 
1784.000000	64.166092 
1783.000000	64.149427 
1782.000000	64.138436 
1781.000000	64.134025 
1780.000000	64.135813 
1779.000000	64.142918 
1778.000000	64.154314 
1777.000000	64.169096 
1776.000000	64.186024 
1775.000000	64.204120 
1774.000000	64.222550 
1773.000000	64.240050 
1772.000000	64.254856 
1771.000000	64.264941 
1770.000000	64.268469 
1769.000000	64.263844 
1768.000000	64.250206 
1767.000000	64.227962 
1766.000000	64.198708 
1765.000000	64.165091 
1764.000000	64.130115 
1763.000000	64.096879 
1762.000000	64.067435 
1761.000000	64.042925 
1760.000000	64.022779 
1759.000000	64.005279 
1758.000000	63.987588 
1757.000000	63.967084 
1756.000000	63.941431 
1755.000000	63.909244 
1754.000000	63.870477 
1753.000000	63.826394 
1752.000000	63.778924 
1751.000000	63.729977 
1750.000000	63.680863 
1749.000000	63.632345 
1748.000000	63.583993 
1747.000000	63.534641 
1746.000000	63.482499 
1745.000000	63.426423 
1744.000000	63.365793 
1743.000000	63.301014 
1742.000000	63.233733 
1741.000000	63.166713 
1740.000000	63.103413 
1739.000000	63.047719 
1738.000000	63.002991 
1737.000000	62.971949 
1736.000000	62.956070 
1735.000000	62.955856 
1734.000000	62.970256 
1733.000000	62.997674 
1732.000000	63.035225 
1731.000000	63.080167 
1730.000000	63.129520 
1729.000000	63.181304 
1728.000000	63.233590 
1727.000000	63.285636 
1726.000000	63.337159 
1725.000000	63.388657 
1724.000000	63.440275 
1723.000000	63.492155 
1722.000000	63.544392 
1721.000000	63.596558 
1720.000000	63.647747 
1719.000000	63.696885 
1718.000000	63.743090 
1717.000000	63.785362 
1716.000000	63.822603 
1715.000000	63.853788 
1714.000000	63.878226 
1713.000000	63.895320 
1712.000000	63.904643 
1711.000000	63.906455 
1710.000000	63.901734 
1709.000000	63.892102 
1708.000000	63.879799 
1707.000000	63.867735 
1706.000000	63.858723 
1705.000000	63.855266 
1704.000000	63.859105 
1703.000000	63.870573 
1702.000000	63.889074 
1701.000000	63.913059 
1700.000000	63.940691 
1699.000000	63.969588 
1698.000000	63.997793 
1697.000000	64.024043 
1696.000000	64.047574 
1695.000000	64.067912 
1694.000000	64.084887 
1693.000000	64.098644 
1692.000000	64.108991 
1691.000000	64.115667 
1690.000000	64.118123 
1689.000000	64.116144 
1688.000000	64.109754 
1687.000000	64.099216 
1686.000000	64.085578 
1685.000000	64.070439 
1684.000000	64.055728 
1683.000000	64.043188 
1682.000000	64.034104 
1681.000000	64.028930 
1680.000000	64.027118 
1679.000000	64.027309 
1678.000000	64.027571 
1677.000000	64.025807 
1676.000000	64.020442 
1675.000000	64.010667 
1674.000000	63.996767 
1673.000000	63.979935 
1672.000000	63.961935 
1671.000000	63.944840 
1670.000000	63.930463 
1669.000000	63.920116 
1668.000000	63.914251 
1667.000000	63.912653 
1666.000000	63.914704 
1665.000000	63.919448 
1664.000000	63.925886 
1663.000000	63.933110 
1662.000000	63.940238 
1661.000000	63.946461 
1660.000000	63.951063 
1659.000000	63.953471 
1658.000000	63.953423 
1657.000000	63.951110 
1656.000000	63.947439 
1655.000000	63.943862 
1654.000000	63.942122 
1653.000000	63.944149 
1652.000000	63.951182 
1651.000000	63.963603 
1650.000000	63.980340 
1649.000000	63.999319 
1648.000000	64.017510 
1647.000000	64.031648 
1646.000000	64.039015 
1645.000000	64.038038 
1644.000000	64.028501 
1643.000000	64.011740 
1642.000000	63.990402 
1641.000000	63.967657 
1640.000000	63.946795 
1639.000000	63.930702 
1638.000000	63.921546 
1637.000000	63.920354 
1636.000000	63.927125 
1635.000000	63.940954 
1634.000000	63.960123 
1633.000000	63.982486 
1632.000000	64.005780 
1631.000000	64.027857 
1630.000000	64.046907 
1629.000000	64.061713 
1628.000000	64.071583 
1627.000000	64.076733 
1626.000000	64.077997 
1625.000000	64.076709 
1624.000000	64.074850 
1623.000000	64.074373 
1622.000000	64.077091 
1621.000000	64.083814 
1620.000000	64.094376 
1619.000000	64.107131 
1618.000000	64.119696 
1617.000000	64.129090 
1616.000000	64.132428 
1615.000000	64.127707 
1614.000000	64.114260 
1613.000000	64.093041 
1612.000000	64.066338 
1611.000000	64.037346 
1610.000000	64.009523 
1609.000000	63.985896 
1608.000000	63.968539 
1607.000000	63.958454 
1606.000000	63.955426 
1605.000000	63.958334 
1604.000000	63.965296 
1603.000000	63.974189 
1602.000000	63.982820 
1601.000000	63.989114 
1600.000000	63.991498 
1599.000000	63.988518 
1598.000000	63.979744 
1597.000000	63.965392 
1596.000000	63.947105 
1595.000000	63.927221 
1594.000000	63.909029 
1593.000000	63.895988 
1592.000000	63.890838 
1591.000000	63.895368 
1590.000000	63.909387 
1589.000000	63.930797 
1588.000000	63.955760 
1587.000000	63.979506 
1586.000000	63.997507 
1585.000000	64.006423 
1584.000000	64.004850 
1583.000000	63.993597 
1582.000000	63.975667 
1581.000000	63.955187 
1580.000000	63.936662 
1579.000000	63.923788 
1578.000000	63.918781 
1577.000000	63.921999 
1576.000000	63.932132 
1575.000000	63.946723 
1574.000000	63.962602 
1573.000000	63.976669 
1572.000000	63.986444 
1571.000000	63.990616 
1570.000000	63.988924 
1569.000000	63.982558 
1568.000000	63.973212 
1567.000000	63.963389 
1566.000000	63.955426 
1565.000000	63.951253 
1564.000000	63.952183 
1563.000000	63.958168 
1562.000000	63.968300 
1561.000000	63.980364 
1560.000000	63.991713 
1559.000000	63.999319 
1558.000000	64.000535 
1557.000000	63.993549 
1556.000000	63.977718 
1555.000000	63.954067 
1554.000000	63.924956 
1553.000000	63.893747 
1552.000000	63.864421 
1551.000000	63.840889 
1550.000000	63.826274 
1549.000000	63.822793 
1548.000000	63.831210 
1547.000000	63.850927 
1546.000000	63.880062 
1545.000000	63.915920 
1544.000000	63.955259 
1543.000000	63.994812 
1542.000000	64.031529 
1541.000000	64.062714 
1540.000000	64.086318 
1539.000000	64.101147 
1538.000000	64.107036 
1537.000000	64.104580 
1536.000000	64.095258 
1535.000000	64.081025 
1534.000000	64.064073 
1533.000000	64.046669 
1532.000000	64.030790 
1531.000000	64.017987 
1530.000000	64.009189 
1529.000000	64.004683 
1528.000000	64.003992 
1527.000000	64.006209 
1526.000000	64.009928 
1525.000000	64.013814 
1524.000000	64.016914 
1523.000000	64.018845 
1522.000000	64.019751 
1521.000000	64.020180 
1520.000000	64.020466 
1519.000000	64.020562 
1518.000000	64.019775 
1517.000000	64.016890 
1516.000000	64.010572 
1515.000000	63.999938 
1514.000000	63.984727 
1513.000000	63.965845 
1512.000000	63.945102 
1511.000000	63.924932 
1510.000000	63.907694 
1509.000000	63.894939 
1508.000000	63.887238 
1507.000000	63.884139 
1506.000000	63.883996 
1505.000000	63.885045 
1504.000000	63.885807 
1503.000000	63.885521 
1502.000000	63.884639 
1501.000000	63.884139 
1500.000000	63.885283 
1499.000000	63.889050 
1498.000000	63.895344 
1497.000000	63.903141 
1496.000000	63.910722 
1495.000000	63.915991 
1494.000000	63.917136 
1493.000000	63.913440 
1492.000000	63.905215 
1491.000000	63.894033 
1490.000000	63.881826 
1489.000000	63.870596 
1488.000000	63.861751 
1487.000000	63.855648 
1486.000000	63.851690 
1485.000000	63.848662 
1484.000000	63.845252 
1483.000000	63.840699 
1482.000000	63.834786 
1481.000000	63.828063 
1480.000000	63.821458 
1479.000000	63.816094 
1478.000000	63.812804 
1477.000000	63.811779 
1476.000000	63.812470 
1475.000000	63.813996 
1474.000000	63.814806 
1473.000000	63.813185 
1472.000000	63.807535 
1471.000000	63.796782 
1470.000000	63.780522 
1469.000000	63.759255 
1468.000000	63.734483 
1467.000000	63.708376 
1466.000000	63.683342 
1465.000000	63.661789 
1464.000000	63.645577 
1463.000000	63.635754 
1462.000000	63.632178 
1461.000000	63.633608 
1460.000000	63.638138 
1459.000000	63.643550 
1458.000000	63.647580 
1457.000000	63.648796 
1456.000000	63.646578 
1455.000000	63.641500 
1454.000000	63.634896 
1453.000000	63.628864 
1452.000000	63.625335 
1451.000000	63.625931 
1450.000000	63.631463 
1449.000000	63.641953 
1448.000000	63.656497 
1447.000000	63.673543 
1446.000000	63.691091 
1445.000000	63.707208 
1444.000000	63.720440 
1443.000000	63.729715 
1442.000000	63.734912 
1441.000000	63.736438 
1440.000000	63.735342 
1439.000000	63.733148 
1438.000000	63.731455 
1437.000000	63.731956 
1436.000000	63.735842 
1435.000000	63.744163 
1434.000000	63.756775 
1433.000000	63.773155 
1432.000000	63.791656 
1431.000000	63.810086 
1430.000000	63.825798 
1429.000000	63.836073 
1428.000000	63.838696 
1427.000000	63.832211 
1426.000000	63.816595 
1425.000000	63.793206 
1424.000000	63.764834 
1423.000000	63.735079 
1422.000000	63.708114 
1421.000000	63.687705 
1420.000000	63.676500 
1419.000000	63.675355 
1418.000000	63.683271 
1417.000000	63.697624 
1416.000000	63.714814 
1415.000000	63.730907 
1414.000000	63.742423 
1413.000000	63.747167 
1412.000000	63.744354 
1411.000000	63.734650 
1410.000000	63.719749 
1409.000000	63.701534 
1408.000000	63.681888 
1407.000000	63.662195 
1406.000000	63.643026 
1405.000000	63.624715 
1404.000000	63.607144 
1403.000000	63.590764 
1402.000000	63.576245 
1401.000000	63.565111 
1400.000000	63.559174 
1399.000000	63.560271 
1398.000000	63.569545 
1397.000000	63.587164 
1396.000000	63.611793 
1395.000000	63.640928 
1394.000000	63.671088 
1393.000000	63.698458 
1392.000000	63.719439 
1391.000000	63.731503 
1390.000000	63.733553 
1389.000000	63.725900 
1388.000000	63.710117 
1387.000000	63.688659 
1386.000000	63.664150 
1385.000000	63.638925 
1384.000000	63.614654 
1383.000000	63.592171 
1382.000000	63.571906 
1381.000000	63.553977 
1380.000000	63.538575 
1379.000000	63.526248 
1378.000000	63.517928 
1377.000000	63.514351 
1376.000000	63.516187 
1375.000000	63.523364 
1374.000000	63.535332 
1373.000000	63.550662 
1372.000000	63.567638 
1371.000000	63.584446 
1370.000000	63.599681 
1369.000000	63.612532 
1368.000000	63.622975 
1367.000000	63.631463 
1366.000000	63.638687 
1365.000000	63.645291 
1364.000000	63.651323 
1363.000000	63.656449 
1362.000000	63.659930 
1361.000000	63.660883 
1360.000000	63.658714 
1359.000000	63.653397 
1358.000000	63.645529 
1357.000000	63.636302 
1356.000000	63.627195 
1355.000000	63.619828 
1354.000000	63.615345 
1353.000000	63.614439 
1352.000000	63.617014 
1351.000000	63.622617 
1350.000000	63.630485 
1349.000000	63.639974 
1348.000000	63.650441 
1347.000000	63.661551 
1346.000000	63.673186 
1345.000000	63.685178 
1344.000000	63.697266 
1343.000000	63.708972 
1342.000000	63.719701 
1341.000000	63.728809 
1340.000000	63.735651 
1339.000000	63.739824 
1338.000000	63.741421 
1337.000000	63.740777 
1336.000000	63.738656 
1335.000000	63.735938 
1334.000000	63.733816 
1333.000000	63.733386 
1332.000000	63.735437 
1331.000000	63.740491 
1330.000000	63.748478 
1329.000000	63.758730 
1328.000000	63.769841 
1327.000000	63.780069 
1326.000000	63.786983 
1325.000000	63.788461 
1324.000000	63.782596 
1323.000000	63.768219 
1322.000000	63.745188 
1321.000000	63.714551 
1320.000000	63.678574 
1319.000000	63.640117 
1318.000000	63.602590 
1317.000000	63.568949 
1316.000000	63.541507 
1315.000000	63.521504 
1314.000000	63.509225 
1313.000000	63.503766 
1312.000000	63.503789 
1311.000000	63.508057 
1310.000000	63.515448 
1309.000000	63.525176 
1308.000000	63.536787 
1307.000000	63.549876 
1306.000000	63.563704 
1305.000000	63.577246 
1304.000000	63.588976 
1303.000000	63.597154 
1302.000000	63.600397 
1301.000000	63.597917 
1300.000000	63.590025 
1299.000000	63.578081 
1298.000000	63.564300 
1297.000000	63.551378 
1296.000000	63.541889 
1295.000000	63.537645 
1294.000000	63.539218 
1293.000000	63.545656 
1292.000000	63.554954 
1291.000000	63.563966 
1290.000000	63.569545 
1289.000000	63.568902 
1288.000000	63.560152 
1287.000000	63.542819 
1286.000000	63.517928 
1285.000000	63.487648 
1284.000000	63.454890 
1283.000000	63.422751 
1282.000000	63.394212 
1281.000000	63.371515 
1280.000000	63.355898 
1279.000000	63.347697 
1278.000000	63.346290 
1277.000000	63.350224 
1276.000000	63.357686 
1275.000000	63.366532 
1274.000000	63.374686 
1273.000000	63.380122 
1272.000000	63.381266 
1271.000000	63.376832 
1270.000000	63.366198 
1269.000000	63.349318 
1268.000000	63.326764 
1267.000000	63.299822 
1266.000000	63.270258 
1265.000000	63.240146 
1264.000000	63.211584 
1263.000000	63.186621 
1262.000000	63.167023 
1261.000000	63.154125 
1260.000000	63.148617 
1259.000000	63.150405 
1258.000000	63.158631 
1257.000000	63.171577 
1256.000000	63.187122 
1255.000000	63.202977 
1254.000000	63.217043 
1253.000000	63.227868 
1252.000000	63.235020 
1251.000000	63.239002 
1250.000000	63.240957 
1249.000000	63.242125 
1248.000000	63.243556 
1247.000000	63.245797 
1246.000000	63.248610 
1245.000000	63.251185 
1244.000000	63.252425 
1243.000000	63.251471 
1242.000000	63.247823 
1241.000000	63.241839 
1240.000000	63.234663 
1239.000000	63.227581 
1238.000000	63.221836 
1237.000000	63.218092 
1236.000000	63.216447 
1235.000000	63.216280 
1234.000000	63.216614 
1233.000000	63.216686 
1232.000000	63.216328 
1231.000000	63.216257 
1230.000000	63.217687 
1229.000000	63.222312 
1228.000000	63.231515 
1227.000000	63.246059 
1226.000000	63.265466 
1225.000000	63.288021 
1224.000000	63.311076 
1223.000000	63.331508 
1222.000000	63.346552 
1221.000000	63.354158 
1220.000000	63.353610 
1219.000000	63.345599 
1218.000000	63.332200 
1217.000000	63.316202 
1216.000000	63.300633 
1215.000000	63.288354 
1214.000000	63.281416 
1213.000000	63.280868 
1212.000000	63.286614 
1211.000000	63.297939 
1210.000000	63.313269 
1209.000000	63.330721 
1208.000000	63.348364 
1207.000000	63.364648 
1206.000000	63.378477 
1205.000000	63.389229 
1204.000000	63.397073 
1203.000000	63.402628 
1202.000000	63.406848 
1201.000000	63.410615 
1200.000000	63.414406 
1199.000000	63.417887 
1198.000000	63.419914 
1197.000000	63.418650 
1196.000000	63.412117 
1195.000000	63.398623 
1194.000000	63.377380 
1193.000000	63.348913 
1192.000000	63.315010 
1191.000000	63.278317 
1190.000000	63.242173 
1189.000000	63.209223 
1188.000000	63.181567 
1187.000000	63.159680 
1186.000000	63.142871 
1185.000000	63.129329 
1184.000000	63.116741 
1183.000000	63.103127 
1182.000000	63.087272 
1181.000000	63.069152 
1180.000000	63.049602 
1179.000000	63.030314 
1178.000000	63.013100 
1177.000000	62.999486 
1176.000000	62.990307 
1175.000000	62.985539 
1174.000000	62.984347 
1173.000000	62.985467 
1172.000000	62.987494 
1171.000000	62.989401 
1170.000000	62.990880 
1169.000000	62.992310 
1168.000000	62.994647 
1167.000000	62.999129 
1166.000000	63.006830 
1165.000000	63.018298 
1164.000000	63.033127 
1163.000000	63.050127 
1162.000000	63.067221 
1161.000000	63.082027 
1160.000000	63.092374 
1159.000000	63.096833 
1158.000000	63.095068 
1157.000000	63.087940 
1156.000000	63.077569 
1155.000000	63.067007 
1154.000000	63.059639 
1153.000000	63.058114 
1152.000000	63.064384 
1151.000000	63.079214 
1150.000000	63.102197 
1149.000000	63.131952 
1148.000000	63.166666 
1147.000000	63.204407 
1146.000000	63.243412 
1145.000000	63.282132 
1144.000000	63.319325 
1143.000000	63.353872 
1142.000000	63.384652 
1141.000000	63.410186 
1140.000000	63.428997 
1139.000000	63.439321 
1138.000000	63.439655 
1137.000000	63.428902 
1136.000000	63.406801 
1135.000000	63.374304 
1134.000000	63.333582 
1133.000000	63.288164 
1132.000000	63.242197 
1131.000000	63.200473 
1130.000000	63.167572 
1129.000000	63.147282 
1128.000000	63.141822 
1127.000000	63.151645 
1126.000000	63.175225 
1125.000000	63.209366 
1124.000000	63.249707 
1123.000000	63.291597 
1122.000000	63.330912 
1121.000000	63.364624 
1120.000000	63.391065 
1119.000000	63.410162 
1118.000000	63.422822 
1117.000000	63.430476 
1116.000000	63.434362 
1115.000000	63.435649 
1114.000000	63.434624 
1113.000000	63.431167 
1112.000000	63.424491 
1111.000000	63.414168 
1110.000000	63.399744 
1109.000000	63.381338 
1108.000000	63.359475 
1107.000000	63.335299 
1106.000000	63.310265 
1105.000000	63.286018 
1104.000000	63.264226 
1103.000000	63.246273 
1102.000000	63.233256 
1101.000000	63.225746 
1100.000000	63.223695 
1099.000000	63.226222 
1098.000000	63.231801 
1097.000000	63.238620 
1096.000000	63.244795 
1095.000000	63.249039 
1094.000000	63.250660 
1093.000000	63.249683 
1092.000000	63.247084 
1091.000000	63.244152 
1090.000000	63.242077 
1089.000000	63.241457 
1088.000000	63.242125 
1087.000000	63.243007 
1086.000000	63.242435 
1085.000000	63.238811 
1084.000000	63.230800 
1083.000000	63.218116 
1082.000000	63.201618 
1081.000000	63.183474 
1080.000000	63.166213 
1079.000000	63.152837 
1078.000000	63.145828 
1077.000000	63.146638 
1076.000000	63.155603 
1075.000000	63.171625 
1074.000000	63.192725 
1073.000000	63.216161 
1072.000000	63.238883 
1071.000000	63.257884 
1070.000000	63.270735 
1069.000000	63.275718 
1068.000000	63.272237 
1067.000000	63.260841 
1066.000000	63.242983 
1065.000000	63.221120 
1064.000000	63.198161 
1063.000000	63.177180 
1062.000000	63.160800 
1061.000000	63.150882 
1060.000000	63.148093 
1059.000000	63.151979 
1058.000000	63.160920 
1057.000000	63.172578 
1056.000000	63.184356 
1055.000000	63.193917 
1054.000000	63.199853 
1053.000000	63.202095 
1052.000000	63.201665 
1051.000000	63.200616 
1050.000000	63.201141 
1049.000000	63.204979 
1048.000000	63.212609 
1047.000000	63.223409 
1046.000000	63.235163 
1045.000000	63.244819 
1044.000000	63.249111 
1043.000000	63.245654 
1042.000000	63.233160 
1041.000000	63.212060 
1040.000000	63.184309 
1039.000000	63.153004 
1038.000000	63.121867 
1037.000000	63.094425 
1036.000000	63.073444 
1035.000000	63.060331 
1034.000000	63.054895 
1033.000000	63.055610 
1032.000000	63.060021 
1031.000000	63.065266 
1030.000000	63.068723 
1029.000000	63.068580 
1028.000000	63.064026 
1027.000000	63.055419 
1026.000000	63.043832 
1025.000000	63.031244 
1024.000000	63.019537 
1023.000000	63.010621 
1022.000000	63.005995 
1021.000000	63.006663 
1020.000000	63.013005 
1019.000000	63.024735 
1018.000000	63.041019 
1017.000000	63.060474 
1016.000000	63.081479 
1015.000000	63.102412 
1014.000000	63.121867 
1013.000000	63.138985 
1012.000000	63.153338 
1011.000000	63.165092 
1010.000000	63.174867 
1009.000000	63.183546 
1008.000000	63.192105 
1007.000000	63.201165 
1006.000000	63.210797 
1005.000000	63.220739 
1004.000000	63.230276 
1003.000000	63.238644 
1002.000000	63.244986 
1001.000000	63.248658 
1000.000000	63.249349 
999.000000	 63.247179 
998.000000	 63.242506 
997.000000	 63.236117 
996.000000	 63.228774 
995.000000	 63.221573 
994.000000	 63.215470 
993.000000	 63.211464 
992.000000	 63.210296 
991.000000	 63.212299 
990.000000	 63.217329 
989.000000	 63.224887 
988.000000	 63.234114 
987.000000	 63.244223 
986.000000	 63.254499 
985.000000	 63.264298 
984.000000	 63.273835 
983.000000	 63.283681 
982.000000	 63.294625 
981.000000	 63.307118 
980.000000	 63.320922 
979.000000	 63.334965 
978.000000	 63.347411 
977.000000	 63.355803 
976.000000	 63.357830 
975.000000	 63.351774 
974.000000	 63.337421 
973.000000	 63.315987 
972.000000	 63.289880 
971.000000	 63.262557 
970.000000	 63.237500 
969.000000	 63.218259 
968.000000	 63.207435 
967.000000	 63.206624 
966.000000	 63.216400 
965.000000	 63.235807 
964.000000	 63.262748 
963.000000	 63.293719 
962.000000	 63.324546 
961.000000	 63.350129 
960.000000	 63.365340 
959.000000	 63.365626 
958.000000	 63.348078 
957.000000	 63.312101 
956.000000	 63.260006 
955.000000	 63.196945 
954.000000	 63.130235 
953.000000	 63.068723 
952.000000	 63.020920 
951.000000	 62.993478 
950.000000	 62.990140 
949.000000	 63.010978 
948.000000	 63.052701 
947.000000	 63.108944 
946.000000	 63.171982 
945.000000	 63.233733 
944.000000	 63.287663 
943.000000	 63.329148 
942.000000	 63.356471 
941.000000	 63.370275 
940.000000	 63.373613 
939.000000	 63.370513 
938.000000	 63.365435 
937.000000	 63.362073 
936.000000	 63.363051 
935.000000	 63.369679 
934.000000	 63.381695 
933.000000	 63.397741 
932.000000	 63.415408 
931.000000	 63.432121 
930.000000	 63.445377 
929.000000	 63.453340 
928.000000	 63.454842 
927.000000	 63.449692 
926.000000	 63.438487 
925.000000	 63.422536 
924.000000	 63.403773 
923.000000	 63.384318 
922.000000	 63.366031 
921.000000	 63.350391 
920.000000	 63.338446 
919.000000	 63.330459 
918.000000	 63.325762 
917.000000	 63.323044 
916.000000	 63.320565 
915.000000	 63.316702 
914.000000	 63.310289 
913.000000	 63.301062 
912.000000	 63.289332 
911.000000	 63.276386 
910.000000	 63.264179 
909.000000	 63.254666 
908.000000	 63.249135 
907.000000	 63.247871 
906.000000	 63.250112 
905.000000	 63.253998 
904.000000	 63.257074 
903.000000	 63.257217 
902.000000	 63.253116 
901.000000	 63.244557 
900.000000	 63.232827 
899.000000	 63.220024 
898.000000	 63.208913 
897.000000	 63.201665 
896.000000	 63.200044 
895.000000	 63.204860 
894.000000	 63.216400 
893.000000	 63.234305 
892.000000	 63.257765 
891.000000	 63.285923 
890.000000	 63.317394 
889.000000	 63.350725 
888.000000	 63.383793 
887.000000	 63.414025 
886.000000	 63.438415 
885.000000	 63.454127 
884.000000	 63.458847 
883.000000	 63.451409 
882.000000	 63.432073 
881.000000	 63.402819 
880.000000	 63.366651 
879.000000	 63.327336 
878.000000	 63.288545 
877.000000	 63.253498 
876.000000	 63.224625 
875.000000	 63.203454 
874.000000	 63.190484 
873.000000	 63.185524 
872.000000	 63.187527 
871.000000	 63.194942 
870.000000	 63.205552 
869.000000	 63.216900 
868.000000	 63.226675 
867.000000	 63.233113 
866.000000	 63.235092 
865.000000	 63.232636 
864.000000	 63.226795 
863.000000	 63.219356 
862.000000	 63.212490 
861.000000	 63.208079 
860.000000	 63.207221 
859.000000	 63.210010 
858.000000	 63.215470 
857.000000	 63.222050 
856.000000	 63.228344 
855.000000	 63.233351 
854.000000	 63.236594 
853.000000	 63.238358 
852.000000	 63.239359 
851.000000	 63.240313 
850.000000	 63.241624 
849.000000	 63.243222 
848.000000	 63.244557 
847.000000	 63.245129 
846.000000	 63.244533 
845.000000	 63.242578 
844.000000	 63.239264 
843.000000	 63.234829 
842.000000	 63.229680 
841.000000	 63.223934 
840.000000	 63.217949 
839.000000	 63.211846 
838.000000	 63.205981 
837.000000	 63.201379 
836.000000	 63.199162 
835.000000	 63.200807 
834.000000	 63.206958 
833.000000	 63.217377 
832.000000	 63.230109 
831.000000	 63.241744 
830.000000	 63.248014 
829.000000	 63.244700 
828.000000	 63.228964 
827.000000	 63.200187 
826.000000	 63.160443 
825.000000	 63.114309 
824.000000	 63.068127 
823.000000	 63.028502 
822.000000	 63.000750 
821.000000	 62.987709 
820.000000	 62.989115 
819.000000	 63.002228 
818.000000	 63.022160 
817.000000	 63.043498 
816.000000	 63.061571 
815.000000	 63.073492 
814.000000	 63.078308 
813.000000	 63.076949 
812.000000	 63.071322 
811.000000	 63.063812 
810.000000	 63.056325 
809.000000	 63.049769 
808.000000	 63.044452 
807.000000	 63.039278 
806.000000	 63.032555 
805.000000	 63.022184 
804.000000	 63.006520 
803.000000	 62.985277 
802.000000	 62.959527 
801.000000	 62.932109 
800.000000	 62.906956 
799.000000	 62.888669 
798.000000	 62.881398 
797.000000	 62.887978 
796.000000	 62.909197 
795.000000	 62.944078 
794.000000	 62.989902 
793.000000	 63.042807 
792.000000	 63.098311 
791.000000	 63.151812 
790.000000	 63.199067 
789.000000	 63.236856 
788.000000	 63.263535 
787.000000	 63.279104 
786.000000	 63.285422 
785.000000	 63.285875 
784.000000	 63.284349 
783.000000	 63.284969 
782.000000	 63.290357 
781.000000	 63.301968 
780.000000	 63.318872 
779.000000	 63.338589 
778.000000	 63.357210 
777.000000	 63.370871 
776.000000	 63.376259 
775.000000	 63.371586 
774.000000	 63.356733 
773.000000	 63.333153 
772.000000	 63.303017 
771.000000	 63.268733 
770.000000	 63.232302 
769.000000	 63.194990 
768.000000	 63.157796 
767.000000	 63.121604 
766.000000	 63.087773 
765.000000	 63.058137 
764.000000	 63.034892 
763.000000	 63.020277 
762.000000	 63.015365 
761.000000	 63.020300 
760.000000	 63.034224 
759.000000	 63.055515 
758.000000	 63.081765 
757.000000	 63.110446 
756.000000	 63.139367 
755.000000	 63.166689 
754.000000	 63.190841 
753.000000	 63.210296 
752.000000	 63.223648 
751.000000	 63.229537 
750.000000	 63.226866 
749.000000	 63.215303 
748.000000	 63.195371 
747.000000	 63.168883 
746.000000	 63.139057 
745.000000	 63.109517 
744.000000	 63.083505 
743.000000	 63.063216 
742.000000	 63.049459 
741.000000	 63.041377 
740.000000	 63.036680 
739.000000	 63.032436 
738.000000	 63.025736 
737.000000	 63.014221 
736.000000	 62.996768 
735.000000	 62.973380 
734.000000	 62.945270 
733.000000	 62.914419 
732.000000	 62.883019 
731.000000	 62.853240 
730.000000	 62.826633 
729.000000	 62.804007 
728.000000	 62.785482 
727.000000	 62.770509 
726.000000	 62.758827 
725.000000	 62.750387 
724.000000	 62.746334 
723.000000	 62.748312 
722.000000	 62.759041 
721.000000	 62.781310 
720.000000	 62.817430 
719.000000	 62.868118 
718.000000	 62.931561 
717.000000	 63.003182 
716.000000	 63.075757 
715.000000	 63.140726 
714.000000	 63.189458 
713.000000	 63.214731 
712.000000	 63.212943 
711.000000	 63.184642 
710.000000	 63.134479 
709.000000	 63.070058 
708.000000	 63.001084 
707.000000	 62.937164 
706.000000	 62.885642 
705.000000	 62.850856 
704.000000	 62.833690 
703.000000	 62.832045 
702.000000	 62.842130 
701.000000	 62.859511 
700.000000	 62.880182 
699.000000	 62.901687 
698.000000	 62.922644 
697.000000	 62.943124 
696.000000	 62.963175 
695.000000	 62.983322 
694.000000	 63.003921 
693.000000	 63.025236 
692.000000	 63.047385 
691.000000	 63.070511 
690.000000	 63.094830 
689.000000	 63.120508 
688.000000	 63.147783 
687.000000	 63.177084 
686.000000	 63.209128 
685.000000	 63.244628 
684.000000	 63.283848 
683.000000	 63.326930 
682.000000	 63.373184 
681.000000	 63.421177 
680.000000	 63.468194 
679.000000	 63.511037 
678.000000	 63.545465 
677.000000	 63.567709 
676.000000	 63.573813 
675.000000	 63.560771 
674.000000	 63.526725 
673.000000	 63.471698 
672.000000	 63.397884 
671.000000	 63.310241 
670.000000	 63.215804 
669.000000	 63.122844 
668.000000	 63.040161 
667.000000	 62.976074 
666.000000	 62.936639 
665.000000	 62.924456 
664.000000	 62.938356 
663.000000	 62.973475 
662.000000	 63.021802 
661.000000	 63.073825 
660.000000	 63.119864 
659.000000	 63.151860 
658.000000	 63.164567 
657.000000	 63.156199 
656.000000	 63.128662 
655.000000	 63.086676 
654.000000	 63.036680 
653.000000	 62.985062 
652.000000	 62.937378 
651.000000	 62.896561 
650.000000	 62.863874 
649.000000	 62.837243 
648.000000	 62.812972 
647.000000	 62.785696 
646.000000	 62.750601 
645.000000	 62.703752 
644.000000	 62.642598 
643.000000	 62.567567 
642.000000	 62.481570 
641.000000	 62.390565 
640.000000	 62.301826 
639.000000	 62.224197 
638.000000	 62.166213 
637.000000	 62.134838 
636.000000	 62.133693 
635.000000	 62.162756 
634.000000	 62.218236 
633.000000	 62.292170 
632.000000	 62.374162 
631.000000	 62.452149 
630.000000	 62.515282 
629.000000	 62.556028 
628.000000	 62.572145 
627.000000	 62.565422 
626.000000	 62.542724 
625.000000	 62.513804 
624.000000	 62.490200 
623.000000	 62.482166 
622.000000	 62.497448 
621.000000	 62.540245 
620.000000	 62.610387 
619.000000	 62.704277 
618.000000	 62.814664 
617.000000	 62.932229 
616.000000	 63.047051 
615.000000	 63.149666 
614.000000	 63.233327 
613.000000	 63.294434 
612.000000	 63.334107 
611.000000	 63.357663 
610.000000	 63.373136 
609.000000	 63.388943 
608.000000	 63.411998 
607.000000	 63.445615 
606.000000	 63.486552 
605.000000	 63.525152 
604.000000	 63.546991 
603.000000	 63.536381 
602.000000	 63.480281 
601.000000	 63.372135 
600.000000	 63.214278 
599.000000	 63.018393 
598.000000	 62.804341 
597.000000	 62.595629 
596.000000	 62.414598 
595.000000	 62.277889 
594.000000	 62.192869 
593.000000	 62.157249 
592.000000	 62.159824 
591.000000	 62.185239 
590.000000	 62.217259 
589.000000	 62.244367 
588.000000	 62.259864 
587.000000	 62.265706 
586.000000	 62.269639 
585.000000	 62.283396 
584.000000	 62.316465 
583.000000	 62.376189 
582.000000	 62.464618 
581.000000	 62.578368 
580.000000	 62.708902 
579.000000	 62.843370 
578.000000	 62.966656 
577.000000	 63.064146 
576.000000	 63.124418 
575.000000	 63.140511 
574.000000	 63.111758 
573.000000	 63.044047 
572.000000	 62.949323 
571.000000	 62.843179 
570.000000	 62.742495 
569.000000	 62.663650 
568.000000	 62.618565 
567.000000	 62.614178 
566.000000	 62.649106 
565.000000	 62.716984 
564.000000	 62.803435 
563.000000	 62.888979 
562.000000	 62.951731 
561.000000	 62.971472 
560.000000	 62.934446 
559.000000	 62.835764 
558.000000	 62.682580 
557.000000	 62.492036 
556.000000	 62.290740 
555.000000	 62.109184 
554.000000	 61.975979 
553.000000	 61.911582 
552.000000	 61.925363 
551.000000	 62.013792 
550.000000	 62.161183 
549.000000	 62.343430 
548.000000	 62.532544 
547.000000	 62.702894 
546.000000	 62.834405 
545.000000	 62.917017 
544.000000	 62.951183 
543.000000	 62.946629 
542.000000	 62.916922 
541.000000	 62.877273 
540.000000	 62.841749 
539.000000	 62.819719 
538.000000	 62.816071 
537.000000	 62.830138 
536.000000	 62.859129 
535.000000	 62.897467 
534.000000	 62.940692 
533.000000	 62.983250 
532.000000	 63.019943 
531.000000	 63.044357 
530.000000	 63.049840 
529.000000	 63.028597 
528.000000	 62.973141 
527.000000	 62.880396 
526.000000	 62.753772 
525.000000	 62.605738 
524.000000	 62.456226 
523.000000	 62.331628 
522.000000	 62.257218 
521.000000	 62.250208 
520.000000	 62.312006 
519.000000	 62.427020 
518.000000	 62.562322 
517.000000	 62.674522 
516.000000	 62.719202 
515.000000	 62.660646 
514.000000	 62.482380 
513.000000	 62.191414 
512.000000	 61.818671 
511.000000	 61.410474 
510.000000	 61.021208 
509.000000	 60.699224 
508.000000	 60.480475 
507.000000	 60.380530 
506.000000	 60.397315 
505.000000	 60.514378 
504.000000	 60.707139 
503.000000	 60.949015 
502.000000	 61.216545 
501.000000	 61.491656 
500.000000	 61.759996 
499.000000	 62.008953 
498.000000	 62.228274 
497.000000	 62.409138 
496.000000	 62.545895 
495.000000	 62.636351 
494.000000	 62.685108 
493.000000	 62.700986 
492.000000	 62.698650 
491.000000	 62.691783 
490.000000	 62.690591 
489.000000	 62.698078 
488.000000	 62.710928 
487.000000	 62.721061 
486.000000	 62.719678 
485.000000	 62.700629 
484.000000	 62.666273 
483.000000	 62.623977 
482.000000	 62.585306 
481.000000	 62.559866 
480.000000	 62.552404 
479.000000	 62.558794 
478.000000	 62.566661 
477.000000	 62.558436 
476.000000	 62.517070 
475.000000	 62.429475 
474.000000	 62.291049 
473.000000	 62.106704 
472.000000	 61.890411 
471.000000	 61.662054 
470.000000	 61.443400 
469.000000	 61.252570 
468.000000	 61.101579 
467.000000	 60.993146 
466.000000	 60.923957 
465.000000	 60.886454 
464.000000	 60.874748 
463.000000	 60.886144 
462.000000	 60.924363 
461.000000	 60.995912 
460.000000	 61.108398 
459.000000	 61.265397 
458.000000	 61.462426 
457.000000	 61.685180 
456.000000	 61.909151 
455.000000	 62.103247 
454.000000	 62.235903 
453.000000	 62.282824 
452.000000	 62.232708 
451.000000	 62.091612 
450.000000	 61.881089 
449.000000	 61.634302 
448.000000	 61.388254 
447.000000	 61.176753 
446.000000	 61.025214 
445.000000	 60.948038 
444.000000	 60.951995 
443.000000	 61.038231 
442.000000	 61.207389 
441.000000	 61.459302 
440.000000	 61.789107 
439.000000	 62.184381 
438.000000	 62.623429 
437.000000	 63.074851 
436.000000	 63.496565 
435.000000	 63.845586 
434.000000	 64.083814 
433.000000	 64.189672 
432.000000	 64.168477 
431.000000	 64.046621 
430.000000	 63.869309 
429.000000	 63.684272 
428.000000	 63.534140 
427.000000	 63.440632 
426.000000	 63.402533 
425.000000	 63.396954 
424.000000	 63.391804 
423.000000	 63.353919 
422.000000	 63.263368 
421.000000	 63.114213 
420.000000	 62.916636 
419.000000	 62.695002 
418.000000	 62.482762 
417.000000	 62.315726 
416.000000	 62.225985 
415.000000	 62.244701 
414.000000	 62.394452 
413.000000	 62.689614 
412.000000	 63.124608 
411.000000	 63.673138 
410.000000	 64.278912 
409.000000	 64.868760 
408.000000	 65.353441 
407.000000	 65.629863 
406.000000	 65.613174 
405.000000	 65.269136 
404.000000	 64.615941 
403.000000	 63.724398 
402.000000	 62.705039 
401.000000	 61.683678 
400.000000	 60.781121 
399.000000	 60.095858 
398.000000	 59.682559 
397.000000	 59.538865 
396.000000	 59.633231 
395.000000	 59.919643 
394.000000	 60.357260 
393.000000	 60.921359 
392.000000	 61.599397 
391.000000	 62.380838 
390.000000	 63.262009 
389.000000	 64.227533 
388.000000	 65.243887 
387.000000	 66.238832 
386.000000	 67.127466 
385.000000	 67.789745 
384.000000	 68.088150 
383.000000	 67.867732 
382.000000	 67.008709 
381.000000	 65.431451 
380.000000	 63.127350 
379.000000	 60.183835 
378.000000	 56.732892 
377.000000	 53.037214 
376.000000	 49.430441 
375.000000	 46.355557 
374.000000	 44.293951 
373.000000	 43.682050 
372.000000	 44.848418 
371.000000	 47.835087 
370.000000	 52.339649 

