PE IR       SPECTRUM    SPECTRUM    ASCII       PEDS        1.60        
  -1
BZCB7C~1.ASC
17/04/07
22:05:09.00
17/04/07
22:05:09.00
tln
$BZ1503107-1_t0108$<tbV0>[-7.8,10.4,8.0,0.0,27,1,0]
370.000000
64









2002,4.07    
MIRTGS : RIGHTBACK : INTERNAL 2
MIR : ON : INTERNAL 2
OPTKBR

0.200000
8
8.000000
FILLER
RATIO
SPECTRUM
UNLOCKED 256

DOUBLE
64
COMBINED
1
0
0


1.000000
RATIO


1
0
TRUE
51149
0
LEFT NOT FITTED RIGHT NOT FITTED 0
NONE
NONE
15600
12.000000
4.427000
51148
TRUE
1 0 8 72 0 0 0 0 

15798.010000






#HDR
-1
-1
#GR
CM-1
%T
0.00002384185791015625
0.0
5000.000000
-1.000000
4631
8
86.952853
38.312816
#DATA
5000.000000	66.854143 
4999.000000	67.035031 
4998.000000	67.099118 
4997.000000	67.036104 
4996.000000	66.847443 
4995.000000	66.546821 
4994.000000	66.159391 
4993.000000	65.721702 
4992.000000	65.275764 
4991.000000	64.866352 
4990.000000	64.531397 
4989.000000	64.299201 
4988.000000	64.179635 
4987.000000	64.164328 
4986.000000	64.227628 
4985.000000	64.332890 
4984.000000	64.440131 
4983.000000	64.514470 
4982.000000	64.534282 
4981.000000	64.494109 
4980.000000	64.402914 
4979.000000	64.279365 
4978.000000	64.144396 
4977.000000	64.015221 
4976.000000	63.900303 
4975.000000	63.800120 
4974.000000	63.707470 
4973.000000	63.615393 
4972.000000	63.524079 
4971.000000	63.443374 
4970.000000	63.391661 
4969.000000	63.391351 
4968.000000	63.461303 
4967.000000	63.609766 
4966.000000	63.826680 
4965.000000	64.087104 
4964.000000	64.353084 
4963.000000	64.587044 
4962.000000	64.759373 
4961.000000	64.859652 
4960.000000	64.897656 
4959.000000	64.905214 
4958.000000	64.926815 
4957.000000	65.009522 
4956.000000	65.188479 
4955.000000	65.478801 
4954.000000	65.867757 
4953.000000	66.315579 
4952.000000	66.761207 
4951.000000	67.135548 
4950.000000	67.375636 
4949.000000	67.438817 
4948.000000	67.312741 
4947.000000	67.017889 
4946.000000	66.603827 
4945.000000	66.138052 
4944.000000	65.691637 
4943.000000	65.327525 
4942.000000	65.085864 
4941.000000	64.981579 
4940.000000	65.000939 
4939.000000	65.112304 
4938.000000	65.271258 
4937.000000	65.432977 
4936.000000	65.561103 
4935.000000	65.632271 
4934.000000	65.641498 
4933.000000	65.598344 
4932.000000	65.522670 
4931.000000	65.435528 
4930.000000	65.355753 
4929.000000	65.294647 
4928.000000	65.254735 
4927.000000	65.230536 
4926.000000	65.213584 
4925.000000	65.195012 
4924.000000	65.169000 
4923.000000	65.133380 
4922.000000	65.088129 
4921.000000	65.035843 
4920.000000	64.975666 
4919.000000	64.908552 
4918.000000	64.836740 
4917.000000	64.767432 
4916.000000	64.711999 
4915.000000	64.685487 
4914.000000	64.703297 
4913.000000	64.776706 
4912.000000	64.910054 
4911.000000	65.095877 
4910.000000	65.313625 
4909.000000	65.533852 
4908.000000	65.723896 
4907.000000	65.854883 
4906.000000	65.908432 
4905.000000	65.880870 
4904.000000	65.783691 
4903.000000	65.640735 
4902.000000	65.481972 
4901.000000	65.336418 
4900.000000	65.225481 
4899.000000	65.159368 
4898.000000	65.135598 
4897.000000	65.143227 
4896.000000	65.165925 
4895.000000	65.187025 
4894.000000	65.193772 
4893.000000	65.178751 
4892.000000	65.142297 
4891.000000	65.089511 
4890.000000	65.030074 
4889.000000	64.973306 
4888.000000	64.927530 
4887.000000	64.897084 
4886.000000	64.883017 
4885.000000	64.883351 
4884.000000	64.894676 
4883.000000	64.913845 
4882.000000	64.938402 
4881.000000	64.966940 
4880.000000	64.999008 
4879.000000	65.034532 
4878.000000	65.072584 
4877.000000	65.110635 
4876.000000	65.145754 
4875.000000	65.174746 
4874.000000	65.195226 
4873.000000	65.205931 
4872.000000	65.206789 
4871.000000	65.198588 
4870.000000	65.183210 
4869.000000	65.162754 
4868.000000	65.138053 
4867.000000	65.109205 
4866.000000	65.076184 
4865.000000	65.039229 
4864.000000	64.999818 
4863.000000	64.960813 
4862.000000	64.926505 
4861.000000	64.901304 
4860.000000	64.888858 
4859.000000	64.890384 
4858.000000	64.904212 
4857.000000	64.925050 
4856.000000	64.944672 
4855.000000	64.954018 
4854.000000	64.945411 
4853.000000	64.914989 
4852.000000	64.864015 
4851.000000	64.799547 
4850.000000	64.732623 
4849.000000	64.676952 
4848.000000	64.645290 
4847.000000	64.646983 
4846.000000	64.685559 
4845.000000	64.758062 
4844.000000	64.855599 
4843.000000	64.965248 
4842.000000	65.072655 
4841.000000	65.164780 
4840.000000	65.232396 
4839.000000	65.271043 
4838.000000	65.281438 
4837.000000	65.268135 
4836.000000	65.238642 
4835.000000	65.201568 
4834.000000	65.165090 
4833.000000	65.136480 
4832.000000	65.120601 
4831.000000	65.120744 
4830.000000	65.137052 
4829.000000	65.167403 
4828.000000	65.207409 
4827.000000	65.251135 
4826.000000	65.292906 
4825.000000	65.328049 
4824.000000	65.354228 
4823.000000	65.371561 
4822.000000	65.382218 
4821.000000	65.389537 
4820.000000	65.396928 
4819.000000	65.406560 
4818.000000	65.418791 
4817.000000	65.431880 
4816.000000	65.443062 
4815.000000	65.449404 
4814.000000	65.448927 
4813.000000	65.441060 
4812.000000	65.427112 
4811.000000	65.409636 
4810.000000	65.391731 
4809.000000	65.375685 
4808.000000	65.362477 
4807.000000	65.351414 
4806.000000	65.340781 
4805.000000	65.328311 
4804.000000	65.312290 
4803.000000	65.291523 
4802.000000	65.265727 
4801.000000	65.235757 
4800.000000	65.203022 
4799.000000	65.170264 
4798.000000	65.140891 
4797.000000	65.119099 
4796.000000	65.108895 
4795.000000	65.113902 
4794.000000	65.136361 
4793.000000	65.176033 
4792.000000	65.229916 
4791.000000	65.292620 
4790.000000	65.357589 
4789.000000	65.417551 
4788.000000	65.466666 
4787.000000	65.501928 
4786.000000	65.523886 
4785.000000	65.536212 
4784.000000	65.544795 
4783.000000	65.555977 
4782.000000	65.574836 
4781.000000	65.603947 
4780.000000	65.642333 
4779.000000	65.686202 
4778.000000	65.729737 
4777.000000	65.767216 
4776.000000	65.793895 
4775.000000	65.807437 
4774.000000	65.807867 
4773.000000	65.797567 
4772.000000	65.779924 
4771.000000	65.758228 
4770.000000	65.734839 
4769.000000	65.710687 
4768.000000	65.685224 
4767.000000	65.656876 
4766.000000	65.623831 
4765.000000	65.584635 
4764.000000	65.538620 
4763.000000	65.486168 
4762.000000	65.428423 
4761.000000	65.367436 
4760.000000	65.305972 
4759.000000	65.247726 
4758.000000	65.196371 
4757.000000	65.155887 
4756.000000	65.129804 
4755.000000	65.120744 
4754.000000	65.129303 
4753.000000	65.154051 
4752.000000	65.190911 
4751.000000	65.234279 
4750.000000	65.277123 
4749.000000	65.313386 
4748.000000	65.338826 
4747.000000	65.352058 
4746.000000	65.354561 
4745.000000	65.350103 
4744.000000	65.343379 
4743.000000	65.338540 
4742.000000	65.337753 
4741.000000	65.340733 
4740.000000	65.344905 
4739.000000	65.346765 
4738.000000	65.343165 
4737.000000	65.332031 
4736.000000	65.313291 
4735.000000	65.289092 
4734.000000	65.263700 
4733.000000	65.241861 
4732.000000	65.228343 
4731.000000	65.226387 
4730.000000	65.237522 
4729.000000	65.260791 
4728.000000	65.293312 
4727.000000	65.331530 
4726.000000	65.371394 
4725.000000	65.409469 
4724.000000	65.442848 
4723.000000	65.469765 
4722.000000	65.488767 
4721.000000	65.498590 
4720.000000	65.498065 
4719.000000	65.486216 
4718.000000	65.462827 
4717.000000	65.428900 
4716.000000	65.387296 
4715.000000	65.342903 
4714.000000	65.302348 
4713.000000	65.272903 
4712.000000	65.261197 
4711.000000	65.271449 
4710.000000	65.303969 
4709.000000	65.354800 
4708.000000	65.415978 
4707.000000	65.477466 
4706.000000	65.529704 
4705.000000	65.565562 
4704.000000	65.581989 
4703.000000	65.579748 
4702.000000	65.562796 
4701.000000	65.536665 
4700.000000	65.506505 
4699.000000	65.476131 
4698.000000	65.447688 
4697.000000	65.421867 
4696.000000	65.398907 
4695.000000	65.379285 
4694.000000	65.364551 
4693.000000	65.357041 
4692.000000	65.359354 
4691.000000	65.373945 
4690.000000	65.401911 
4689.000000	65.442681 
4688.000000	65.493583 
4687.000000	65.550684 
4686.000000	65.609121 
4685.000000	65.664029 
4684.000000	65.710830 
4683.000000	65.745282 
4682.000000	65.763759 
4681.000000	65.763306 
4680.000000	65.742516 
4679.000000	65.702199 
4678.000000	65.645742 
4677.000000	65.579390 
4676.000000	65.510892 
4675.000000	65.448927 
4674.000000	65.400838 
4673.000000	65.370893 
4672.000000	65.359854 
4671.000000	65.365171 
4670.000000	65.381884 
4669.000000	65.403890 
4668.000000	65.425896 
4667.000000	65.444159 
4666.000000	65.457725 
4665.000000	65.467691 
4664.000000	65.476608 
4663.000000	65.486907 
4662.000000	65.500068 
4661.000000	65.515947 
4660.000000	65.532875 
4659.000000	65.548110 
4658.000000	65.558981 
4657.000000	65.563631 
4656.000000	65.561366 
4655.000000	65.552711 
4654.000000	65.538859 
4653.000000	65.521287 
4652.000000	65.501570 
4651.000000	65.480756 
4650.000000	65.459442 
4649.000000	65.437483 
4648.000000	65.414452 
4647.000000	65.389728 
4646.000000	65.362834 
4645.000000	65.333867 
4644.000000	65.303540 
4643.000000	65.273594 
4642.000000	65.246295 
4641.000000	65.224599 
4640.000000	65.211367 
4639.000000	65.209054 
4638.000000	65.218830 
4637.000000	65.240764 
4636.000000	65.273618 
4635.000000	65.314912 
4634.000000	65.361237 
4633.000000	65.409040 
4632.000000	65.455126 
4631.000000	65.497159 
4630.000000	65.533638 
4629.000000	65.563845 
4628.000000	65.587282 
4627.000000	65.603923 
4626.000000	65.613365 
4625.000000	65.615177 
4624.000000	65.608429 
4623.000000	65.592956 
4622.000000	65.568852 
4621.000000	65.537261 
4620.000000	65.499639 
4619.000000	65.458464 
4618.000000	65.415787 
4617.000000	65.373754 
4616.000000	65.333604 
4615.000000	65.295648 
4614.000000	65.259528 
4613.000000	65.224814 
4612.000000	65.191054 
4611.000000	65.158152 
4610.000000	65.126681 
4609.000000	65.097451 
4608.000000	65.071725 
4607.000000	65.050673 
4606.000000	65.035510 
4605.000000	65.027260 
4604.000000	65.026974 
4603.000000	65.035247 
4602.000000	65.052676 
4601.000000	65.079426 
4600.000000	65.114855 
4599.000000	65.157175 
4598.000000	65.203404 
4597.000000	65.249300 
4596.000000	65.289878 
4595.000000	65.319752 
4594.000000	65.335130 
4593.000000	65.333509 
4592.000000	65.314722 
4591.000000	65.280103 
4590.000000	65.232825 
4589.000000	65.176630 
4588.000000	65.115332 
4587.000000	65.052890 
4586.000000	64.993214 
4585.000000	64.940094 
4584.000000	64.897227 
4583.000000	64.867877 
4582.000000	64.854335 
4581.000000	64.857482 
4580.000000	64.876341 
4579.000000	64.908218 
4578.000000	64.948868 
4577.000000	64.993548 
4576.000000	65.037655 
4575.000000	65.077567 
4574.000000	65.110445 
4573.000000	65.135192 
4572.000000	65.150976 
4571.000000	65.156745 
4570.000000	65.150070 
4569.000000	65.128111 
4568.000000	65.087366 
4567.000000	65.025877 
4566.000000	64.942932 
4565.000000	64.841556 
4564.000000	64.727044 
4563.000000	64.606547 
4562.000000	64.487648 
4561.000000	64.376878 
4560.000000	64.279294 
4559.000000	64.197659 
4558.000000	64.133262 
4557.000000	64.085769 
4556.000000	64.054584 
4555.000000	64.038801 
4554.000000	64.037847 
4553.000000	64.050984 
4552.000000	64.077973 
4551.000000	64.118242 
4550.000000	64.171075 
4549.000000	64.235067 
4548.000000	64.308452 
4547.000000	64.388823 
4546.000000	64.473223 
4545.000000	64.558291 
4544.000000	64.640450 
4543.000000	64.716315 
4542.000000	64.782643 
4541.000000	64.836812 
4540.000000	64.877700 
4539.000000	64.905071 
4538.000000	64.921021 
4537.000000	64.927887 
4536.000000	64.928054 
4535.000000	64.922761 
4534.000000	64.913225 
4533.000000	64.898872 
4532.000000	64.878368 
4531.000000	64.849758 
4530.000000	64.812445 
4529.000000	64.766573 
4528.000000	64.713859 
4527.000000	64.657258 
4526.000000	64.600944 
4525.000000	64.549827 
4524.000000	64.508891 
4523.000000	64.481949 
4522.000000	64.470553 
4521.000000	64.474201 
4520.000000	64.489960 
4519.000000	64.511990 
4518.000000	64.532923 
4517.000000	64.544844 
4516.000000	64.541792 
4515.000000	64.519906 
4514.000000	64.480209 
4513.000000	64.428043 
4512.000000	64.373469 
4511.000000	64.328670 
4510.000000	64.305591 
4509.000000	64.313507 
4508.000000	64.355993 
4507.000000	64.430093 
4506.000000	64.525890 
4505.000000	64.629101 
4504.000000	64.722800 
4503.000000	64.791727 
4502.000000	64.823794 
4501.000000	64.812588 
4500.000000	64.757513 
4499.000000	64.663934 
4498.000000	64.539670 
4497.000000	64.393258 
4496.000000	64.233016 
4495.000000	64.066648 
4494.000000	63.900732 
4493.000000	63.741755 
4492.000000	63.597941 
4491.000000	63.479113 
4490.000000	63.393831 
4489.000000	63.349509 
4488.000000	63.348865 
4487.000000	63.391160 
4486.000000	63.471293 
4485.000000	63.580465 
4484.000000	63.707637 
4483.000000	63.839483 
4482.000000	63.959264 
4481.000000	64.051628 
4480.000000	64.105319 
4479.000000	64.115309 
4478.000000	64.078807 
4477.000000	64.004468 
4476.000000	63.916492 
4475.000000	63.838839 
4474.000000	63.785052 
4473.000000	63.766717 
4472.000000	63.792443 
4471.000000	63.863348 
4470.000000	63.975024 
4469.000000	64.115834 
4468.000000	64.270329 
4467.000000	64.432239 
4466.000000	64.602541 
4465.000000	64.787101 
4464.000000	64.989328 
4463.000000	65.201973 
4462.000000	65.408802 
4461.000000	65.570759 
4460.000000	65.652322 
4459.000000	65.646576 
4458.000000	65.573525 
4457.000000	65.481710 
4456.000000	65.435123 
4455.000000	65.469336 
4454.000000	65.627002 
4453.000000	65.902471 
4452.000000	66.335153 
4451.000000	67.008924 
4450.000000	68.054962 
4449.000000	69.638562 
4448.000000	71.854734 
4447.000000	74.681067 
4446.000000	77.917242 
4445.000000	81.196188 
4444.000000	84.065866 
4443.000000	86.085653 
4442.000000	86.952853 
4441.000000	86.570596 
4440.000000	85.056996 
4439.000000	82.703280 
4438.000000	79.891657 
4437.000000	76.996278 
4436.000000	74.311733 
4435.000000	71.995353 
4434.000000	70.088791 
4433.000000	68.527221 
4432.000000	67.214822 
4431.000000	66.060423 
4430.000000	65.021061 
4429.000000	64.115262 
4428.000000	63.393926 
4427.000000	62.931394 
4426.000000	62.746715 
4425.000000	62.830615 
4424.000000	63.112401 
4423.000000	63.501071 
4422.000000	63.894820 
4421.000000	64.219546 
4420.000000	64.444327 
4419.000000	64.577150 
4418.000000	64.650821 
4417.000000	64.712214 
4416.000000	64.802002 
4415.000000	64.938831 
4414.000000	65.112781 
4413.000000	65.302491 
4412.000000	65.480732 
4411.000000	65.625548 
4410.000000	65.724587 
4409.000000	65.779089 
4408.000000	65.798616 
4407.000000	65.798258 
4406.000000	65.790057 
4405.000000	65.768527 
4404.000000	65.719676 
4403.000000	65.640544 
4402.000000	65.529441 
4401.000000	65.387082 
4400.000000	65.218281 
4399.000000	65.035629 
4398.000000	64.852046 
4397.000000	64.676117 
4396.000000	64.514183 
4395.000000	64.370322 
4394.000000	64.246368 
4393.000000	64.142346 
4392.000000	64.058923 
4391.000000	63.997364 
4390.000000	63.959312 
4389.000000	63.946342 
4388.000000	63.955426 
4387.000000	63.979172 
4386.000000	64.008235 
4385.000000	64.033794 
4384.000000	64.049959 
4383.000000	64.055585 
4382.000000	64.054369 
4381.000000	64.053988 
4380.000000	64.061808 
4379.000000	64.084267 
4378.000000	64.125061 
4377.000000	64.184331 
4376.000000	64.258766 
4375.000000	64.341974 
4374.000000	64.425992 
4373.000000	64.502811 
4372.000000	64.566087 
4371.000000	64.612388 
4370.000000	64.641404 
4369.000000	64.656281 
4368.000000	64.662909 
4367.000000	64.667582 
4366.000000	64.675116 
4365.000000	64.688491 
4364.000000	64.708566 
4363.000000	64.733386 
4362.000000	64.759230 
4361.000000	64.782071 
4360.000000	64.798808 
4359.000000	64.807295 
4358.000000	64.806771 
4357.000000	64.798021 
4356.000000	64.782691 
4355.000000	64.762973 
4354.000000	64.740490 
4353.000000	64.716410 
4352.000000	64.690828 
4351.000000	64.663076 
4350.000000	64.632081 
4349.000000	64.596796 
4348.000000	64.556860 
4347.000000	64.513206 
4346.000000	64.468169 
4345.000000	64.424633 
4344.000000	64.386200 
4343.000000	64.355969 
4342.000000	64.336299 
4341.000000	64.327406 
4340.000000	64.328551 
4339.000000	64.338231 
4338.000000	64.354729 
4337.000000	64.376449 
4336.000000	64.402937 
4335.000000	64.434552 
4334.000000	64.472246 
4333.000000	64.516615 
4332.000000	64.567279 
4331.000000	64.622449 
4330.000000	64.678764 
4329.000000	64.731645 
4328.000000	64.776539 
4327.000000	64.809226 
4326.000000	64.827728 
4325.000000	64.831924 
4324.000000	64.823341 
4323.000000	64.804649 
4322.000000	64.779734 
4321.000000	64.752221 
4320.000000	64.725208 
4319.000000	64.700484 
4318.000000	64.679670 
4317.000000	64.662957 
4316.000000	64.650082 
4315.000000	64.639902 
4314.000000	64.631271 
4313.000000	64.622735 
4312.000000	64.612722 
4311.000000	64.599943 
4310.000000	64.583539 
4309.000000	64.563632 
4308.000000	64.541554 
4307.000000	64.519381 
4306.000000	64.499640 
4305.000000	64.484834 
4304.000000	64.477324 
4303.000000	64.478135 
4302.000000	64.487934 
4301.000000	64.507365 
4300.000000	64.537334 
4299.000000	64.578866 
4298.000000	64.632678 
4297.000000	64.698791 
4296.000000	64.775681 
4295.000000	64.859294 
4294.000000	64.943838 
4293.000000	65.022253 
4292.000000	65.087771 
4291.000000	65.135407 
4290.000000	65.162920 
4289.000000	65.171551 
4288.000000	65.165352 
4287.000000	65.150833 
4286.000000	65.134239 
4285.000000	65.120148 
4284.000000	65.110468 
4283.000000	65.104603 
4282.000000	65.099453 
4281.000000	65.091037 
4280.000000	65.076136 
4279.000000	65.053439 
4278.000000	65.023660 
4277.000000	64.989018 
4276.000000	64.952540 
4275.000000	64.916896 
4274.000000	64.883565 
4273.000000	64.852643 
4272.000000	64.823055 
4271.000000	64.793419 
4270.000000	64.762759 
4269.000000	64.731264 
4268.000000	64.700150 
4267.000000	64.671826 
4266.000000	64.649128 
4265.000000	64.635062 
4264.000000	64.630961 
4263.000000	64.637517 
4262.000000	64.654111 
4261.000000	64.680004 
4260.000000	64.713811 
4259.000000	64.754772 
4258.000000	64.802718 
4257.000000	64.857721 
4256.000000	64.919304 
4255.000000	64.986371 
4254.000000	65.056562 
4253.000000	65.126395 
4252.000000	65.191411 
4251.000000	65.247416 
4250.000000	65.290856 
4249.000000	65.320014 
4248.000000	65.335011 
4247.000000	65.337872 
4246.000000	65.331578 
4245.000000	65.320062 
4244.000000	65.306758 
4243.000000	65.294098 
4242.000000	65.282988 
4241.000000	65.273857 
4240.000000	65.266180 
4239.000000	65.259146 
4238.000000	65.252184 
4237.000000	65.245556 
4236.000000	65.239906 
4235.000000	65.236258 
4234.000000	65.235519 
4233.000000	65.237855 
4232.000000	65.242409 
4231.000000	65.247511 
4230.000000	65.250372 
4229.000000	65.247917 
4228.000000	65.237331 
4227.000000	65.216779 
4226.000000	65.185904 
4225.000000	65.146064 
4224.000000	65.100431 
4223.000000	65.053510 
4222.000000	65.010404 
4221.000000	64.975929 
4220.000000	64.953684 
4219.000000	64.945793 
4218.000000	64.951944 
4217.000000	64.970636 
4216.000000	64.999222 
4215.000000	65.035033 
4214.000000	65.075635 
4213.000000	65.119123 
4212.000000	65.164113 
4211.000000	65.209364 
4210.000000	65.253424 
4209.000000	65.293955 
4208.000000	65.327692 
4207.000000	65.350914 
4206.000000	65.360450 
4205.000000	65.354347 
4204.000000	65.332722 
4203.000000	65.298295 
4202.000000	65.256190 
4201.000000	65.213465 
4200.000000	65.177702 
4199.000000	65.155601 
4198.000000	65.151596 
4197.000000	65.167641 
4196.000000	65.202355 
4195.000000	65.251827 
4194.000000	65.310072 
4193.000000	65.369868 
4192.000000	65.424108 
4191.000000	65.466451 
4190.000000	65.492796 
4189.000000	65.501189 
4188.000000	65.492796 
4187.000000	65.471100 
4186.000000	65.441632 
4185.000000	65.410900 
4184.000000	65.385603 
4183.000000	65.371346 
4182.000000	65.371870 
4181.000000	65.389037 
4180.000000	65.421676 
4179.000000	65.466427 
4178.000000	65.517497 
4177.000000	65.568089 
4176.000000	65.610742 
4175.000000	65.638518 
4174.000000	65.646314 
4173.000000	65.631842 
4172.000000	65.595984 
4171.000000	65.542626 
4170.000000	65.478205 
4169.000000	65.410447 
4168.000000	65.347504 
4167.000000	65.296006 
4166.000000	65.259957 
4165.000000	65.240144 
4164.000000	65.234470 
4163.000000	65.238928 
4162.000000	65.248799 
4161.000000	65.260362 
4160.000000	65.270900 
4159.000000	65.279912 
4158.000000	65.288305 
4157.000000	65.297865 
4156.000000	65.309810 
4155.000000	65.324425 
4154.000000	65.340614 
4153.000000	65.355992 
4152.000000	65.367555 
4151.000000	65.372014 
4150.000000	65.366697 
4149.000000	65.350008 
4148.000000	65.322089 
4147.000000	65.284466 
4146.000000	65.240073 
4145.000000	65.192890 
4144.000000	65.147471 
4143.000000	65.108871 
4142.000000	65.081858 
4141.000000	65.070533 
4140.000000	65.077495 
4139.000000	65.103077 
4138.000000	65.145158 
4137.000000	65.199232 
4136.000000	65.259170 
4135.000000	65.318107 
4134.000000	65.369439 
4133.000000	65.408205 
4132.000000	65.431380 
4131.000000	65.437841 
4130.000000	65.428328 
4129.000000	65.404844 
4128.000000	65.370440 
4127.000000	65.328812 
4126.000000	65.284204 
4125.000000	65.241217 
4124.000000	65.204310 
4123.000000	65.177917 
4122.000000	65.165328 
4121.000000	65.168190 
4120.000000	65.186071 
4119.000000	65.216398 
4118.000000	65.254569 
4117.000000	65.294766 
4116.000000	65.331578 
4115.000000	65.360689 
4114.000000	65.380024 
4113.000000	65.389704 
4112.000000	65.391325 
4111.000000	65.387129 
4110.000000	65.379118 
4109.000000	65.368866 
4108.000000	65.357232 
4107.000000	65.344738 
4106.000000	65.332150 
4105.000000	65.320682 
4104.000000	65.312409 
4103.000000	65.309572 
4102.000000	65.313839 
4101.000000	65.325832 
4100.000000	65.345048 
4099.000000	65.369200 
4098.000000	65.394520 
4097.000000	65.416431 
4096.000000	65.430450 
4095.000000	65.433001 
4094.000000	65.422415 
4093.000000	65.398955 
4092.000000	65.364980 
4091.000000	65.324425 
4090.000000	65.282201 
4089.000000	65.243482 
4088.000000	65.212774 
4087.000000	65.193653 
4086.000000	65.187954 
4085.000000	65.195679 
4084.000000	65.215039 
4083.000000	65.242624 
4082.000000	65.274357 
4081.000000	65.306210 
4080.000000	65.334558 
4079.000000	65.356659 
4078.000000	65.370345 
4077.000000	65.373897 
4076.000000	65.365791 
4075.000000	65.344929 
4074.000000	65.310740 
4073.000000	65.263676 
4072.000000	65.205645 
4071.000000	65.140748 
4070.000000	65.074229 
4069.000000	65.011835 
4068.000000	64.958715 
4067.000000	64.918875 
4066.000000	64.894032 
4065.000000	64.883780 
4064.000000	64.885997 
4063.000000	64.897537 
4062.000000	64.915633 
4061.000000	64.938521 
4060.000000	64.965605 
4059.000000	64.997172 
4058.000000	65.033340 
4057.000000	65.073060 
4056.000000	65.113425 
4055.000000	65.149688 
4054.000000	65.176200 
4053.000000	65.187716 
4052.000000	65.180850 
4051.000000	65.155410 
4050.000000	65.115094 
4049.000000	65.067052 
4048.000000	65.020442 
4047.000000	64.985132 
4046.000000	64.969468 
4045.000000	64.978885 
4044.000000	65.014624 
4043.000000	65.073728 
4042.000000	65.149736 
4041.000000	65.233993 
4040.000000	65.317654 
4039.000000	65.392732 
4038.000000	65.453577 
4037.000000	65.497279 
4036.000000	65.523576 
4035.000000	65.534114 
4034.000000	65.531301 
4033.000000	65.517950 
4032.000000	65.496015 
4031.000000	65.467000 
4030.000000	65.431427 
4029.000000	65.390086 
4028.000000	65.343856 
4027.000000	65.294790 
4026.000000	65.245866 
4025.000000	65.200638 
4024.000000	65.162777 
4023.000000	65.134763 
4022.000000	65.117716 
4021.000000	65.110731 
4020.000000	65.111374 
4019.000000	65.116071 
4018.000000	65.121173 
4017.000000	65.123724 
4016.000000	65.122056 
4015.000000	65.115833 
4014.000000	65.105962 
4013.000000	65.093660 
4012.000000	65.080308 
4011.000000	65.066814 
4010.000000	65.053224 
4009.000000	65.038943 
4008.000000	65.023684 
4007.000000	65.007901 
4006.000000	64.992642 
4005.000000	64.979767 
4004.000000	64.971280 
4003.000000	64.969158 
4002.000000	64.974284 
4001.000000	64.986777 
4000.000000	65.005564 
3999.000000	65.029454 
3998.000000	65.056991 
3997.000000	65.087223 
3996.000000	65.119647 
3995.000000	65.154027 
3994.000000	65.190148 
3993.000000	65.227103 
3992.000000	65.263056 
3991.000000	65.295505 
3990.000000	65.321445 
3989.000000	65.338325 
3988.000000	65.344572 
3987.000000	65.340185 
3986.000000	65.326857 
3985.000000	65.307450 
3984.000000	65.285515 
3983.000000	65.264201 
3982.000000	65.245914 
3981.000000	65.232086 
3980.000000	65.223217 
3979.000000	65.219354 
3978.000000	65.220022 
3977.000000	65.224647 
3976.000000	65.232372 
3975.000000	65.242075 
3974.000000	65.252113 
3973.000000	65.260076 
3972.000000	65.263414 
3971.000000	65.259647 
3970.000000	65.247154 
3969.000000	65.225386 
3968.000000	65.195155 
3967.000000	65.158963 
3966.000000	65.120172 
3965.000000	65.082740 
3964.000000	65.050315 
3963.000000	65.025329 
3962.000000	65.008878 
3961.000000	65.000844 
3960.000000	64.999914 
3959.000000	65.003991 
3958.000000	65.010714 
3957.000000	65.017843 
3956.000000	65.023112 
3955.000000	65.024566 
3954.000000	65.020346 
3953.000000	65.009379 
3952.000000	64.991068 
3951.000000	64.966273 
3950.000000	64.937162 
3949.000000	64.907789 
3948.000000	64.883184 
3947.000000	64.868879 
3946.000000	64.869904 
3945.000000	64.889287 
3944.000000	64.927411 
3943.000000	64.981150 
3942.000000	65.044164 
3941.000000	65.108013 
3940.000000	65.163946 
3939.000000	65.204834 
3938.000000	65.226364 
3937.000000	65.228319 
3936.000000	65.214514 
3935.000000	65.191149 
3934.000000	65.164971 
3933.000000	65.141725 
3932.000000	65.124988 
3931.000000	65.115499 
3930.000000	65.111517 
3929.000000	65.110015 
3928.000000	65.107870 
3927.000000	65.102481 
3926.000000	65.092635 
3925.000000	65.078067 
3924.000000	65.059399 
3923.000000	65.037178 
3922.000000	65.012335 
3921.000000	64.985299 
3920.000000	64.957141 
3919.000000	64.929389 
3918.000000	64.904808 
3917.000000	64.886999 
3916.000000	64.880228 
3915.000000	64.888095 
3914.000000	64.912962 
3913.000000	64.954543 
3912.000000	65.010190 
3911.000000	65.075111 
3910.000000	65.143084 
3909.000000	65.207576 
3908.000000	65.262866 
3907.000000	65.305185 
3906.000000	65.332651 
3905.000000	65.345096 
3904.000000	65.344095 
3903.000000	65.332460 
3902.000000	65.313529 
3901.000000	65.290641 
3900.000000	65.266919 
3899.000000	65.245008 
3898.000000	65.227460 
3897.000000	65.216350 
3896.000000	65.213346 
3895.000000	65.219354 
3894.000000	65.234661 
3893.000000	65.258240 
3892.000000	65.287756 
3891.000000	65.319800 
3890.000000	65.350270 
3889.000000	65.375185 
3888.000000	65.391540 
3887.000000	65.397500 
3886.000000	65.393280 
3885.000000	65.380358 
3884.000000	65.361905 
3883.000000	65.340709 
3882.000000	65.319180 
3881.000000	65.297746 
3880.000000	65.275287 
3879.000000	65.248847 
3878.000000	65.214848 
3877.000000	65.170502 
3876.000000	65.115213 
3875.000000	65.051126 
3874.000000	64.983391 
3873.000000	64.919400 
3872.000000	64.867472 
3871.000000	64.834976 
3870.000000	64.827013 
3869.000000	64.845061 
3868.000000	64.886736 
3867.000000	64.946413 
3866.000000	65.016198 
3865.000000	65.087342 
3864.000000	65.151834 
3863.000000	65.203142 
3862.000000	65.237164 
3861.000000	65.252137 
3860.000000	65.248489 
3859.000000	65.228247 
3858.000000	65.194559 
3857.000000	65.151238 
3856.000000	65.102243 
3855.000000	65.051913 
3854.000000	65.003967 
3853.000000	64.961767 
3852.000000	64.927911 
3851.000000	64.904332 
3850.000000	64.892053 
3849.000000	64.891242 
3848.000000	64.901661 
3847.000000	64.922475 
3846.000000	64.952373 
3845.000000	64.989423 
3844.000000	65.031290 
3843.000000	65.075325 
3842.000000	65.118336 
3841.000000	65.156888 
3840.000000	65.187716 
3839.000000	65.208148 
3838.000000	65.216588 
3837.000000	65.212821 
3836.000000	65.197992 
3835.000000	65.174722 
3834.000000	65.146827 
3833.000000	65.118646 
3832.000000	65.094375 
3831.000000	65.077257 
3830.000000	65.069413 
3829.000000	65.071344 
3828.000000	65.082192 
3827.000000	65.099859 
3826.000000	65.121459 
3825.000000	65.144205 
3824.000000	65.165781 
3823.000000	65.185022 
3822.000000	65.201830 
3821.000000	65.217328 
3820.000000	65.233206 
3819.000000	65.251398 
3818.000000	65.272927 
3817.000000	65.297842 
3816.000000	65.324401 
3815.000000	65.349411 
3814.000000	65.368366 
3813.000000	65.376496 
3812.000000	65.369677 
3811.000000	65.345859 
3810.000000	65.305590 
3809.000000	65.252161 
3808.000000	65.191507 
3807.000000	65.131044 
3806.000000	65.078759 
3805.000000	65.041351 
3804.000000	65.023279 
3803.000000	65.026044 
3802.000000	65.047693 
3801.000000	65.083694 
3800.000000	65.127611 
3799.000000	65.172386 
3798.000000	65.211486 
3797.000000	65.240025 
3796.000000	65.255498 
3795.000000	65.257740 
3794.000000	65.248823 
3793.000000	65.232419 
3792.000000	65.213370 
3791.000000	65.196537 
3790.000000	65.186119 
3789.000000	65.184402 
3788.000000	65.191507 
3787.000000	65.205216 
3786.000000	65.221476 
3785.000000	65.235471 
3784.000000	65.242767 
3783.000000	65.240645 
3782.000000	65.228629 
3781.000000	65.208816 
3780.000000	65.185260 
3779.000000	65.162873 
3778.000000	65.146279 
3777.000000	65.138530 
3776.000000	65.140318 
3775.000000	65.150284 
3774.000000	65.165543 
3773.000000	65.182566 
3772.000000	65.198326 
3771.000000	65.210771 
3770.000000	65.219378 
3769.000000	65.224480 
3768.000000	65.226697 
3767.000000	65.226292 
3766.000000	65.222740 
3765.000000	65.215015 
3764.000000	65.202188 
3763.000000	65.184211 
3762.000000	65.162205 
3761.000000	65.138912 
3760.000000	65.117979 
3759.000000	65.103483 
3758.000000	65.098643 
3757.000000	65.104818 
3756.000000	65.121436 
3755.000000	65.145683 
3754.000000	65.173554 
3753.000000	65.200757 
3752.000000	65.223979 
3751.000000	65.241360 
3750.000000	65.252852 
3749.000000	65.259504 
3748.000000	65.263128 
3747.000000	65.265297 
3746.000000	65.266966 
3745.000000	65.268421 
3744.000000	65.269374 
3743.000000	65.269517 
3742.000000	65.268874 
3741.000000	65.267992 
3740.000000	65.267753 
3739.000000	65.269041 
3738.000000	65.272474 
3737.000000	65.278005 
3736.000000	65.284729 
3735.000000	65.290904 
3734.000000	65.294361 
3733.000000	65.293169 
3732.000000	65.286111 
3731.000000	65.273189 
3730.000000	65.255665 
3729.000000	65.236115 
3728.000000	65.217661 
3727.000000	65.203595 
3726.000000	65.196299 
3725.000000	65.197205 
3724.000000	65.206241 
3723.000000	65.221858 
3722.000000	65.241622 
3721.000000	65.262556 
3720.000000	65.281820 
3719.000000	65.297079 
3718.000000	65.306997 
3717.000000	65.311288 
3716.000000	65.310549 
3715.000000	65.305638 
3714.000000	65.297436 
3713.000000	65.286469 
3712.000000	65.272855 
3711.000000	65.256619 
3710.000000	65.237879 
3709.000000	65.216994 
3708.000000	65.195035 
3707.000000	65.173745 
3706.000000	65.155315 
3705.000000	65.141940 
3704.000000	65.135622 
3703.000000	65.137672 
3702.000000	65.148568 
3701.000000	65.167641 
3700.000000	65.193128 
3699.000000	65.222406 
3698.000000	65.252542 
3697.000000	65.280556 
3696.000000	65.304279 
3695.000000	65.322470 
3694.000000	65.335488 
3693.000000	65.344882 
3692.000000	65.353274 
3691.000000	65.363645 
3690.000000	65.378427 
3689.000000	65.399003 
3688.000000	65.424823 
3687.000000	65.453600 
3686.000000	65.481352 
3685.000000	65.503334 
3684.000000	65.515208 
3683.000000	65.513730 
3682.000000	65.497756 
3681.000000	65.468406 
3680.000000	65.428853 
3679.000000	65.383648 
3678.000000	65.337920 
3677.000000	65.296530 
3676.000000	65.263485 
3675.000000	65.241146 
3674.000000	65.230703 
3673.000000	65.231752 
3672.000000	65.242576 
3671.000000	65.260553 
3670.000000	65.282297 
3669.000000	65.304422 
3668.000000	65.323853 
3667.000000	65.338253 
3666.000000	65.346002 
3665.000000	65.346717 
3664.000000	65.341162 
3663.000000	65.330862 
3662.000000	65.317678 
3661.000000	65.303301 
3660.000000	65.288782 
3659.000000	65.274429 
3658.000000	65.260004 
3657.000000	65.244936 
3656.000000	65.229034 
3655.000000	65.212678 
3654.000000	65.196967 
3653.000000	65.183472 
3652.000000	65.174126 
3651.000000	65.170145 
3650.000000	65.172100 
3649.000000	65.179538 
3648.000000	65.191388 
3647.000000	65.206146 
3646.000000	65.222191 
3645.000000	65.238165 
3644.000000	65.253233 
3643.000000	65.267014 
3642.000000	65.279507 
3641.000000	65.290594 
3640.000000	65.300130 
3639.000000	65.307712 
3638.000000	65.313005 
3637.000000	65.316009 
3636.000000	65.317082 
3635.000000	65.317082 
3634.000000	65.317034 
3633.000000	65.317988 
3632.000000	65.320515 
3631.000000	65.324330 
3630.000000	65.328264 
3629.000000	65.330195 
3628.000000	65.328097 
3627.000000	65.320110 
3626.000000	65.305161 
3625.000000	65.283060 
3624.000000	65.254974 
3623.000000	65.223145 
3622.000000	65.190219 
3621.000000	65.159058 
3620.000000	65.132069 
3619.000000	65.111207 
3618.000000	65.097761 
3617.000000	65.092420 
3616.000000	65.095114 
3615.000000	65.105104 
3614.000000	65.121054 
3613.000000	65.141010 
3612.000000	65.162205 
3611.000000	65.181684 
3610.000000	65.196681 
3609.000000	65.205025 
3608.000000	65.205311 
3607.000000	65.197682 
3606.000000	65.183639 
3605.000000	65.165972 
3604.000000	65.148234 
3603.000000	65.134286 
3602.000000	65.127515 
3601.000000	65.130496 
3600.000000	65.144538 
3599.000000	65.169572 
3598.000000	65.204000 
3597.000000	65.245270 
3596.000000	65.289735 
3595.000000	65.332818 
3594.000000	65.369725 
3593.000000	65.396022 
3592.000000	65.408301 
3591.000000	65.404796 
3590.000000	65.385770 
3589.000000	65.353775 
3588.000000	65.312790 
3587.000000	65.267682 
3586.000000	65.222978 
3585.000000	65.182352 
3584.000000	65.147805 
3583.000000	65.119862 
3582.000000	65.097784 
3581.000000	65.080142 
3580.000000	65.065622 
3579.000000	65.053820 
3578.000000	65.044832 
3577.000000	65.039515 
3576.000000	65.038704 
3575.000000	65.043210 
3574.000000	65.053057 
3573.000000	65.067625 
3572.000000	65.085983 
3571.000000	65.107011 
3570.000000	65.130138 
3569.000000	65.154957 
3568.000000	65.181088 
3567.000000	65.207576 
3566.000000	65.232849 
3565.000000	65.254569 
3564.000000	65.270090 
3563.000000	65.277099 
3562.000000	65.274047 
3561.000000	65.260815 
3560.000000	65.239095 
3559.000000	65.211796 
3558.000000	65.183067 
3557.000000	65.156579 
3556.000000	65.135025 
3555.000000	65.119409 
3554.000000	65.109157 
3553.000000	65.102028 
3552.000000	65.095043 
3551.000000	65.085411 
3550.000000	65.071511 
3549.000000	65.053343 
3548.000000	65.032935 
3547.000000	65.013527 
3546.000000	64.999341 
3545.000000	64.994621 
3544.000000	65.002870 
3543.000000	65.025854 
3542.000000	65.063095 
3541.000000	65.111804 
3540.000000	65.167045 
3539.000000	65.222287 
3538.000000	65.270948 
3537.000000	65.307497 
3536.000000	65.328502 
3535.000000	65.333199 
3534.000000	65.323638 
3533.000000	65.304017 
3532.000000	65.279626 
3531.000000	65.255856 
3530.000000	65.236639 
3529.000000	65.223956 
3528.000000	65.217375 
3527.000000	65.214991 
3526.000000	65.213727 
3525.000000	65.210509 
3524.000000	65.203189 
3523.000000	65.191078 
3522.000000	65.174770 
3521.000000	65.155911 
3520.000000	65.136361 
3519.000000	65.117788 
3518.000000	65.101337 
3517.000000	65.087413 
3516.000000	65.075659 
3515.000000	65.065455 
3514.000000	65.056324 
3513.000000	65.048146 
3512.000000	65.040874 
3511.000000	65.035200 
3510.000000	65.032052 
3509.000000	65.032625 
3508.000000	65.037798 
3507.000000	65.048122 
3506.000000	65.063738 
3505.000000	65.084242 
3504.000000	65.108585 
3503.000000	65.135192 
3502.000000	65.162110 
3501.000000	65.187311 
3500.000000	65.208983 
3499.000000	65.225863 
3498.000000	65.237259 
3497.000000	65.243339 
3496.000000	65.245103 
3495.000000	65.244007 
3494.000000	65.241360 
3493.000000	65.238237 
3492.000000	65.234780 
3491.000000	65.230250 
3490.000000	65.223097 
3489.000000	65.211558 
3488.000000	65.194320 
3487.000000	65.170931 
3486.000000	65.142273 
3485.000000	65.110540 
3484.000000	65.079116 
3483.000000	65.051698 
3482.000000	65.031766 
3481.000000	65.021419 
3480.000000	65.021347 
3479.000000	65.030741 
3478.000000	65.047502 
3477.000000	65.068745 
3476.000000	65.091657 
3475.000000	65.114188 
3474.000000	65.135097 
3473.000000	65.153765 
3472.000000	65.170311 
3471.000000	65.184974 
3470.000000	65.197610 
3469.000000	65.207672 
3468.000000	65.214514 
3467.000000	65.217542 
3466.000000	65.216660 
3465.000000	65.212368 
3464.000000	65.206122 
3463.000000	65.199637 
3462.000000	65.194892 
3461.000000	65.193200 
3460.000000	65.194988 
3459.000000	65.199446 
3458.000000	65.204977 
3457.000000	65.209174 
3456.000000	65.209555 
3455.000000	65.203952 
3454.000000	65.191149 
3453.000000	65.171265 
3452.000000	65.145349 
3451.000000	65.115451 
3450.000000	65.084123 
3449.000000	65.054154 
3448.000000	65.027904 
3447.000000	65.007424 
3446.000000	64.993858 
3445.000000	64.987802 
3444.000000	64.989376 
3443.000000	64.998030 
3442.000000	65.012550 
3441.000000	65.031266 
3440.000000	65.052247 
3439.000000	65.073060 
3438.000000	65.091371 
3437.000000	65.105247 
3436.000000	65.113496 
3435.000000	65.115857 
3434.000000	65.113210 
3433.000000	65.107417 
3432.000000	65.101099 
3431.000000	65.097069 
3430.000000	65.097761 
3429.000000	65.104675 
3428.000000	65.117907 
3427.000000	65.136432 
3426.000000	65.157985 
3425.000000	65.179657 
3424.000000	65.198326 
3423.000000	65.211439 
3422.000000	65.217399 
3421.000000	65.215730 
3420.000000	65.207242 
3419.000000	65.193819 
3418.000000	65.178275 
3417.000000	65.163588 
3416.000000	65.152597 
3415.000000	65.147399 
3414.000000	65.148758 
3413.000000	65.155935 
3412.000000	65.166759 
3411.000000	65.177965 
3410.000000	65.185928 
3409.000000	65.187358 
3408.000000	65.180063 
3407.000000	65.163779 
3406.000000	65.140151 
3405.000000	65.112662 
3404.000000	65.085840 
3403.000000	65.064549 
3402.000000	65.052914 
3401.000000	65.053462 
3400.000000	65.066480 
3399.000000	65.090107 
3398.000000	65.120744 
3397.000000	65.153741 
3396.000000	65.184235 
3395.000000	65.208125 
3394.000000	65.222525 
3393.000000	65.226197 
3392.000000	65.219330 
3391.000000	65.203475 
3390.000000	65.181088 
3389.000000	65.154862 
3388.000000	65.127444 
3387.000000	65.101075 
3386.000000	65.077328 
3385.000000	65.057420 
3384.000000	65.042185 
3383.000000	65.032291 
3382.000000	65.028238 
3381.000000	65.030455 
3380.000000	65.039086 
3379.000000	65.053820 
3378.000000	65.073633 
3377.000000	65.096735 
3376.000000	65.120434 
3375.000000	65.141463 
3374.000000	65.156555 
3373.000000	65.163040 
3372.000000	65.159606 
3371.000000	65.146517 
3370.000000	65.125870 
3369.000000	65.101027 
3368.000000	65.076112 
3367.000000	65.054917 
3366.000000	65.040040 
3365.000000	65.032410 
3364.000000	65.031361 
3363.000000	65.035128 
3362.000000	65.041446 
3361.000000	65.048289 
3360.000000	65.054893 
3359.000000	65.061759 
3358.000000	65.070176 
3357.000000	65.081739 
3356.000000	65.097427 
3355.000000	65.116906 
3354.000000	65.138530 
3353.000000	65.159821 
3352.000000	65.177917 
3351.000000	65.190768 
3350.000000	65.198040 
3349.000000	65.200519 
3348.000000	65.200233 
3347.000000	65.199065 
3346.000000	65.198349 
3345.000000	65.198040 
3344.000000	65.196681 
3343.000000	65.191936 
3342.000000	65.181469 
3341.000000	65.163993 
3340.000000	65.140008 
3339.000000	65.111827 
3338.000000	65.083360 
3337.000000	65.058684 
3336.000000	65.040946 
3335.000000	65.031337 
3334.000000	65.028810 
3333.000000	65.030264 
3332.000000	65.031623 
3331.000000	65.029096 
3330.000000	65.020585 
3329.000000	65.006208 
3328.000000	64.988636 
3327.000000	64.972019 
3326.000000	64.961051 
3325.000000	64.959740 
3324.000000	64.970064 
3323.000000	64.991641 
3322.000000	65.021681 
3321.000000	65.055704 
3320.000000	65.088582 
3319.000000	65.115666 
3318.000000	65.133881 
3317.000000	65.142011 
3316.000000	65.140938 
3315.000000	65.133094 
3314.000000	65.122151 
3313.000000	65.111708 
3312.000000	65.105080 
3311.000000	65.104532 
3310.000000	65.111112 
3309.000000	65.124464 
3308.000000	65.143132 
3307.000000	65.164756 
3306.000000	65.186429 
3305.000000	65.205168 
3304.000000	65.218400 
3303.000000	65.224409 
3302.000000	65.222358 
3301.000000	65.212583 
3300.000000	65.196704 
3299.000000	65.176868 
3298.000000	65.155792 
3297.000000	65.135860 
3296.000000	65.119242 
3295.000000	65.107202 
3294.000000	65.100002 
3293.000000	65.097141 
3292.000000	65.097498 
3291.000000	65.099596 
3290.000000	65.102076 
3289.000000	65.103888 
3288.000000	65.104031 
3287.000000	65.102148 
3286.000000	65.098118 
3285.000000	65.092134 
3284.000000	65.084576 
3283.000000	65.075993 
3282.000000	65.066957 
3281.000000	65.058159 
3280.000000	65.050196 
3279.000000	65.043425 
3278.000000	65.038132 
3277.000000	65.034198 
3276.000000	65.031409 
3275.000000	65.029835 
3274.000000	65.029859 
3273.000000	65.032267 
3272.000000	65.038108 
3271.000000	65.048599 
3270.000000	65.064406 
3269.000000	65.085506 
3268.000000	65.110611 
3267.000000	65.137362 
3266.000000	65.162587 
3265.000000	65.183162 
3264.000000	65.196776 
3263.000000	65.202450 
3262.000000	65.201091 
3261.000000	65.195250 
3260.000000	65.188646 
3259.000000	65.185070 
3258.000000	65.187191 
3257.000000	65.196013 
3256.000000	65.210437 
3255.000000	65.227699 
3254.000000	65.243935 
3253.000000	65.255165 
3252.000000	65.258526 
3251.000000	65.252804 
3250.000000	65.238428 
3249.000000	65.217423 
3248.000000	65.192341 
3247.000000	65.165996 
3246.000000	65.140461 
3245.000000	65.117096 
3244.000000	65.096473 
3243.000000	65.078783 
3242.000000	65.064334 
3241.000000	65.053725 
3240.000000	65.048027 
3239.000000	65.048313 
3238.000000	65.055131 
3237.000000	65.068173 
3236.000000	65.086007 
3235.000000	65.106010 
3234.000000	65.124702 
3233.000000	65.138602 
3232.000000	65.144729 
3231.000000	65.141272 
3230.000000	65.128064 
3229.000000	65.106272 
3228.000000	65.077924 
3227.000000	65.045595 
3226.000000	65.011835 
3225.000000	64.978551 
3224.000000	64.947056 
3223.000000	64.918184 
3222.000000	64.892554 
3221.000000	64.870905 
3220.000000	64.854216 
3219.000000	64.843535 
3218.000000	64.839982 
3217.000000	64.843773 
3216.000000	64.854502 
3215.000000	64.870476 
3214.000000	64.889383 
3213.000000	64.908146 
3212.000000	64.923954 
3211.000000	64.934706 
3210.000000	64.939570 
3209.000000	64.939117 
3208.000000	64.935255 
3207.000000	64.930534 
3206.000000	64.927673 
3205.000000	64.928770 
3204.000000	64.934968 
3203.000000	64.946174 
3202.000000	64.961314 
3201.000000	64.978551 
3200.000000	64.996004 
3199.000000	65.012145 
3198.000000	65.026044 
3197.000000	65.037274 
3196.000000	65.046095 
3195.000000	65.053033 
3194.000000	65.058684 
3193.000000	65.063405 
3192.000000	65.067648 
3191.000000	65.071630 
3190.000000	65.075683 
3189.000000	65.079951 
3188.000000	65.084958 
3187.000000	65.090823 
3186.000000	65.097570 
3185.000000	65.104484 
3184.000000	65.110516 
3183.000000	65.114068 
3182.000000	65.113568 
3181.000000	65.107893 
3180.000000	65.096521 
3179.000000	65.080380 
3178.000000	65.061426 
3177.000000	65.042686 
3176.000000	65.027618 
3175.000000	65.019464 
3174.000000	65.020394 
3173.000000	65.030980 
3172.000000	65.049743 
3171.000000	65.073513 
3170.000000	65.097713 
3169.000000	65.117335 
3168.000000	65.128064 
3167.000000	65.127515 
3166.000000	65.115523 
3165.000000	65.094184 
3164.000000	65.067505 
3163.000000	65.040349 
3162.000000	65.017008 
3161.000000	65.000462 
3160.000000	64.991426 
3159.000000	64.988589 
3158.000000	64.989185 
3157.000000	64.989733 
3156.000000	64.987421 
3155.000000	64.980888 
3154.000000	64.970612 
3153.000000	64.958739 
3152.000000	64.948463 
3151.000000	64.942812 
3150.000000	64.943933 
3149.000000	64.952206 
3148.000000	64.966392 
3147.000000	64.983844 
3146.000000	65.001440 
3145.000000	65.016436 
3144.000000	65.027141 
3143.000000	65.033125 
3142.000000	65.035200 
3141.000000	65.034794 
3140.000000	65.033268 
3139.000000	65.031194 
3138.000000	65.028214 
3137.000000	65.022921 
3136.000000	65.013647 
3135.000000	64.998841 
3134.000000	64.978003 
3133.000000	64.951896 
3132.000000	64.922523 
3131.000000	64.892959 
3130.000000	64.866495 
3129.000000	64.846277 
3128.000000	64.834117 
3127.000000	64.830565 
3126.000000	64.834713 
3125.000000	64.844584 
3124.000000	64.857625 
3123.000000	64.871239 
3122.000000	64.883303 
3121.000000	64.892435 
3120.000000	64.898109 
3119.000000	64.900422 
3118.000000	64.899992 
3117.000000	64.897799 
3116.000000	64.894700 
3115.000000	64.891576 
3114.000000	64.888954 
3113.000000	64.887380 
3112.000000	64.887094 
3111.000000	64.888238 
3110.000000	64.890789 
3109.000000	64.894747 
3108.000000	64.900183 
3107.000000	64.907026 
3106.000000	64.915394 
3105.000000	64.925217 
3104.000000	64.936470 
3103.000000	64.948844 
3102.000000	64.961934 
3101.000000	64.975094 
3100.000000	64.987492 
3099.000000	64.998459 
3098.000000	65.007352 
3097.000000	65.013813 
3096.000000	65.017771 
3095.000000	65.019536 
3094.000000	65.019559 
3093.000000	65.018272 
3092.000000	65.015888 
3091.000000	65.012478 
3090.000000	65.007615 
3089.000000	65.000724 
3088.000000	64.991283 
3087.000000	64.979076 
3086.000000	64.964365 
3085.000000	64.947891 
3084.000000	64.930963 
3083.000000	64.915013 
3082.000000	64.901304 
3081.000000	64.890599 
3080.000000	64.883017 
3079.000000	64.877986 
3078.000000	64.874553 
3077.000000	64.871573 
3076.000000	64.868116 
3075.000000	64.863777 
3074.000000	64.858603 
3073.000000	64.853119 
3072.000000	64.847993 
3071.000000	64.843869 
3070.000000	64.840984 
3069.000000	64.839196 
3068.000000	64.838147 
3067.000000	64.837408 
3066.000000	64.836812 
3065.000000	64.836668 
3064.000000	64.837598 
3063.000000	64.840459 
3062.000000	64.846181 
3061.000000	64.855098 
3060.000000	64.867043 
3059.000000	64.881205 
3058.000000	64.896535 
3057.000000	64.912009 
3056.000000	64.927053 
3055.000000	64.941740 
3054.000000	64.956760 
3053.000000	64.973235 
3052.000000	64.991974 
3051.000000	65.013194 
3050.000000	65.035963 
3049.000000	65.058255 
3048.000000	65.077328 
3047.000000	65.090394 
3046.000000	65.095210 
3045.000000	65.091037 
3044.000000	65.078544 
3043.000000	65.059947 
3042.000000	65.038228 
3041.000000	65.016603 
3040.000000	64.997577 
3039.000000	64.982271 
3038.000000	64.970541 
3037.000000	64.961194 
3036.000000	64.952445 
3035.000000	64.942669 
3034.000000	64.931106 
3033.000000	64.918017 
3032.000000	64.904713 
3031.000000	64.893126 
3030.000000	64.885044 
3029.000000	64.881801 
3028.000000	64.883542 
3027.000000	64.889454 
3026.000000	64.897751 
3025.000000	64.906263 
3024.000000	64.913201 
3023.000000	64.917445 
3022.000000	64.918732 
3021.000000	64.917540 
3020.000000	64.915180 
3019.000000	64.913177 
3018.000000	64.912486 
3017.000000	64.913582 
3016.000000	64.916348 
3015.000000	64.919996 
3014.000000	64.923524 
3013.000000	64.926195 
3012.000000	64.927601 
3011.000000	64.927911 
3010.000000	64.927816 
3009.000000	64.928269 
3008.000000	64.930129 
3007.000000	64.934015 
3006.000000	64.939856 
3005.000000	64.947295 
3004.000000	64.955568 
3003.000000	64.963626 
3002.000000	64.970469 
3001.000000	64.975214 
3000.000000	64.977097 
2999.000000	64.975428 
2998.000000	64.969539 
2997.000000	64.959216 
2996.000000	64.944243 
2995.000000	64.924645 
2994.000000	64.900827 
2993.000000	64.873766 
2992.000000	64.844942 
2991.000000	64.816021 
2990.000000	64.788913 
2989.000000	64.765477 
2988.000000	64.747118 
2987.000000	64.734578 
2986.000000	64.727759 
2985.000000	64.725542 
2984.000000	64.726066 
2983.000000	64.726924 
2982.000000	64.725494 
2981.000000	64.719343 
2980.000000	64.706754 
2979.000000	64.686942 
2978.000000	64.660143 
2977.000000	64.627504 
2976.000000	64.591097 
2975.000000	64.552998 
2974.000000	64.515089 
2973.000000	64.478302 
2972.000000	64.442968 
2971.000000	64.408326 
2970.000000	64.373302 
2969.000000	64.336919 
2968.000000	64.298534 
2967.000000	64.258766 
2966.000000	64.219069 
2965.000000	64.181971 
2964.000000	64.150357 
2963.000000	64.127159 
2962.000000	64.114260 
2961.000000	64.112591 
2960.000000	64.121651 
2959.000000	64.139747 
2958.000000	64.164018 
2957.000000	64.191412 
2956.000000	64.219164 
2955.000000	64.244914 
2954.000000	64.267182 
2953.000000	64.285206 
2952.000000	64.299368 
2951.000000	64.310526 
2950.000000	64.319944 
2949.000000	64.329004 
2948.000000	64.338684 
2947.000000	64.349460 
2946.000000	64.360904 
2945.000000	64.372110 
2944.000000	64.381718 
2943.000000	64.388370 
2942.000000	64.391064 
2941.000000	64.389634 
2940.000000	64.385080 
2939.000000	64.378881 
2938.000000	64.373397 
2937.000000	64.371299 
2936.000000	64.375138 
2935.000000	64.386773 
2934.000000	64.407181 
2933.000000	64.436292 
2932.000000	64.472818 
2931.000000	64.514446 
2930.000000	64.558005 
2929.000000	64.600062 
2928.000000	64.637184 
2927.000000	64.666485 
2926.000000	64.685869 
2925.000000	64.694356 
2924.000000	64.692163 
2923.000000	64.680480 
2922.000000	64.661431 
2921.000000	64.637184 
2920.000000	64.610028 
2919.000000	64.581656 
2918.000000	64.553236 
2917.000000	64.525389 
2916.000000	64.498591 
2915.000000	64.473342 
2914.000000	64.450502 
2913.000000	64.431428 
2912.000000	64.417839 
2911.000000	64.411544 
2910.000000	64.413690 
2909.000000	64.424538 
2908.000000	64.442873 
2907.000000	64.466261 
2906.000000	64.491152 
2905.000000	64.513874 
2904.000000	64.531159 
2903.000000	64.541077 
2902.000000	64.543294 
2901.000000	64.539027 
2900.000000	64.530754 
2899.000000	64.521312 
2898.000000	64.513230 
2897.000000	64.508342 
2896.000000	64.507532 
2895.000000	64.510488 
2894.000000	64.516139 
2893.000000	64.522910 
2892.000000	64.529204 
2891.000000	64.533901 
2890.000000	64.536380 
2889.000000	64.536571 
2888.000000	64.534902 
2887.000000	64.532160 
2886.000000	64.529156 
2885.000000	64.526462 
2884.000000	64.524412 
2883.000000	64.523243 
2882.000000	64.523053 
2881.000000	64.523935 
2880.000000	64.526009 
2879.000000	64.529490 
2878.000000	64.534568 
2877.000000	64.541077 
2876.000000	64.548492 
2875.000000	64.555954 
2874.000000	64.562153 
2873.000000	64.565730 
2872.000000	64.565396 
2871.000000	64.560651 
2870.000000	64.551973 
2869.000000	64.540767 
2868.000000	64.529395 
2867.000000	64.520382 
2866.000000	64.515686 
2865.000000	64.516210 
2864.000000	64.521598 
2863.000000	64.530348 
2862.000000	64.540195 
2861.000000	64.548993 
2860.000000	64.555215 
2859.000000	64.558362 
2858.000000	64.558935 
2857.000000	64.558219 
2856.000000	64.557695 
2855.000000	64.558863 
2854.000000	64.562559 
2853.000000	64.569330 
2852.000000	64.579033 
2851.000000	64.591670 
2850.000000	64.607262 
2849.000000	64.626145 
2848.000000	64.648604 
2847.000000	64.674663 
2846.000000	64.703750 
2845.000000	64.734220 
2844.000000	64.763593 
2843.000000	64.789104 
2842.000000	64.807963 
2841.000000	64.818406 
2840.000000	64.819955 
2839.000000	64.813756 
2838.000000	64.802145 
2837.000000	64.788341 
2836.000000	64.775633 
2835.000000	64.766979 
2834.000000	64.764070 
2833.000000	64.767456 
2832.000000	64.776277 
2831.000000	64.788627 
2830.000000	64.801931 
2829.000000	64.813637 
2828.000000	64.821672 
2827.000000	64.824700 
2826.000000	64.822316 
2825.000000	64.814925 
2824.000000	64.803600 
2823.000000	64.789605 
2822.000000	64.774250 
2821.000000	64.758634 
2820.000000	64.743733 
2819.000000	64.730381 
2818.000000	64.719319 
2817.000000	64.711308 
2816.000000	64.706969 
2815.000000	64.706921 
2814.000000	64.711213 
2813.000000	64.719271 
2812.000000	64.729857 
2811.000000	64.740943 
2810.000000	64.750123 
2809.000000	64.755225 
2808.000000	64.754843 
2807.000000	64.748954 
2806.000000	64.738798 
2805.000000	64.727044 
2804.000000	64.716863 
2803.000000	64.711141 
2802.000000	64.711952 
2801.000000	64.719700 
2800.000000	64.733242 
2799.000000	64.749765 
2798.000000	64.765739 
2797.000000	64.777469 
2796.000000	64.782238 
2795.000000	64.778709 
2794.000000	64.767503 
2793.000000	64.750766 
2792.000000	64.732170 
2791.000000	64.715838 
2790.000000	64.705610 
2789.000000	64.704346 
2788.000000	64.713311 
2787.000000	64.732050 
2786.000000	64.758300 
2785.000000	64.788794 
2784.000000	64.819598 
2783.000000	64.846920 
2782.000000	64.867711 
2781.000000	64.880061 
2780.000000	64.883542 
2779.000000	64.878821 
2778.000000	64.867687 
2777.000000	64.852285 
2776.000000	64.834880 
2775.000000	64.817452 
2774.000000	64.801573 
2773.000000	64.788389 
2772.000000	64.778590 
2771.000000	64.772629 
2770.000000	64.770817 
2769.000000	64.773130 
2768.000000	64.779162 
2767.000000	64.788079 
2766.000000	64.798593 
2765.000000	64.809131 
2764.000000	64.817833 
2763.000000	64.822936 
2762.000000	64.822959 
2761.000000	64.816927 
2760.000000	64.804887 
2759.000000	64.787769 
2758.000000	64.767336 
2757.000000	64.745783 
2756.000000	64.725589 
2755.000000	64.708971 
2754.000000	64.697551 
2753.000000	64.692044 
2752.000000	64.692115 
2751.000000	64.696431 
2750.000000	64.703297 
2749.000000	64.710783 
2748.000000	64.716863 
2747.000000	64.720320 
2746.000000	64.720582 
2745.000000	64.717864 
2744.000000	64.713120 
2743.000000	64.707684 
2742.000000	64.702725 
2741.000000	64.699363 
2740.000000	64.698457 
2739.000000	64.700651 
2738.000000	64.706468 
2737.000000	64.716386 
2736.000000	64.730572 
2735.000000	64.749073 
2734.000000	64.771533 
2733.000000	64.796876 
2732.000000	64.823365 
2731.000000	64.849090 
2730.000000	64.871883 
2729.000000	64.889860 
2728.000000	64.901494 
2727.000000	64.905762 
2726.000000	64.902234 
2725.000000	64.891147 
2724.000000	64.873170 
2723.000000	64.849352 
2722.000000	64.821338 
2721.000000	64.791202 
2720.000000	64.761710 
2719.000000	64.736032 
2718.000000	64.717340 
2717.000000	64.708495 
2716.000000	64.711308 
2715.000000	64.726161 
2714.000000	64.751482 
2713.000000	64.784002 
2712.000000	64.819145 
2711.000000	64.851927 
2710.000000	64.877629 
2709.000000	64.892721 
2708.000000	64.895296 
2707.000000	64.885401 
2706.000000	64.864563 
2705.000000	64.835596 
2704.000000	64.802122 
2703.000000	64.768099 
2702.000000	64.736986 
2701.000000	64.711427 
2700.000000	64.693307 
2699.000000	64.683413 
2698.000000	64.681625 
2697.000000	64.686918 
2696.000000	64.697670 
2695.000000	64.712023 
2694.000000	64.727783 
2693.000000	64.743161 
2692.000000	64.756608 
2691.000000	64.767313 
2690.000000	64.775085 
2689.000000	64.780235 
2688.000000	64.783477 
2687.000000	64.785671 
2686.000000	64.787530 
2685.000000	64.789557 
2684.000000	64.791655 
2683.000000	64.793419 
2682.000000	64.793872 
2681.000000	64.791679 
2680.000000	64.785456 
2679.000000	64.773917 
2678.000000	64.756703 
2677.000000	64.734172 
2676.000000	64.707994 
2675.000000	64.680695 
2674.000000	64.655447 
2673.000000	64.635419 
2672.000000	64.623045 
2671.000000	64.619660 
2670.000000	64.625144 
2669.000000	64.637851 
2668.000000	64.655017 
2667.000000	64.673233 
2666.000000	64.689350 
2665.000000	64.701056 
2664.000000	64.707064 
2663.000000	64.707374 
2662.000000	64.702868 
2661.000000	64.695096 
2660.000000	64.685750 
2659.000000	64.676308 
2658.000000	64.668083 
2657.000000	64.662146 
2656.000000	64.659476 
2655.000000	64.660906 
2654.000000	64.667224 
2653.000000	64.678859 
2652.000000	64.695787 
2651.000000	64.717221 
2650.000000	64.741826 
2649.000000	64.767503 
2648.000000	64.791989 
2647.000000	64.813065 
2646.000000	64.828824 
2645.000000	64.837908 
2644.000000	64.839959 
2643.000000	64.835429 
2642.000000	64.825272 
2641.000000	64.810919 
2640.000000	64.793944 
2639.000000	64.775848 
2638.000000	64.758038 
2637.000000	64.741516 
2636.000000	64.727163 
2635.000000	64.715552 
2634.000000	64.707207 
2633.000000	64.702367 
2632.000000	64.700937 
2631.000000	64.702701 
2630.000000	64.707183 
2629.000000	64.713621 
2628.000000	64.721012 
2627.000000	64.728021 
2626.000000	64.733266 
2625.000000	64.735388 
2624.000000	64.733695 
2623.000000	64.727950 
2622.000000	64.719033 
2621.000000	64.708518 
2620.000000	64.698410 
2619.000000	64.690923 
2618.000000	64.687705 
2617.000000	64.689421 
2616.000000	64.695501 
2615.000000	64.704203 
2614.000000	64.713144 
2613.000000	64.719605 
2612.000000	64.721298 
2611.000000	64.717054 
2610.000000	64.706850 
2609.000000	64.691853 
2608.000000	64.674139 
2607.000000	64.655876 
2606.000000	64.639091 
2605.000000	64.625263 
2604.000000	64.615130 
2603.000000	64.608860 
2602.000000	64.606356 
2601.000000	64.607477 
2600.000000	64.611983 
2599.000000	64.619851 
2598.000000	64.630627 
2597.000000	64.643716 
2596.000000	64.657974 
2595.000000	64.671921 
2594.000000	64.683842 
2593.000000	64.692282 
2592.000000	64.696407 
2591.000000	64.696168 
2590.000000	64.692592 
2589.000000	64.687204 
2588.000000	64.681935 
2587.000000	64.678406 
2586.000000	64.677572 
2585.000000	64.679408 
2584.000000	64.683055 
2583.000000	64.687085 
2582.000000	64.690017 
2581.000000	64.690971 
2580.000000	64.689922 
2579.000000	64.687752 
2578.000000	64.686012 
2577.000000	64.686322 
2576.000000	64.689803 
2575.000000	64.696741 
2574.000000	64.706397 
2573.000000	64.716982 
2572.000000	64.726328 
2571.000000	64.732313 
2570.000000	64.733672 
2569.000000	64.730119 
2568.000000	64.722466 
2567.000000	64.712333 
2566.000000	64.701581 
2565.000000	64.691948 
2564.000000	64.684414 
2563.000000	64.679360 
2562.000000	64.676403 
2561.000000	64.674878 
2560.000000	64.674258 
2559.000000	64.674448 
2558.000000	64.675664 
2557.000000	64.678573 
2556.000000	64.683794 
2555.000000	64.691543 
2554.000000	64.701437 
2553.000000	64.712309 
2552.000000	64.722537 
2551.000000	64.730334 
2550.000000	64.734315 
2549.000000	64.733672 
2548.000000	64.728522 
2547.000000	64.719700 
2546.000000	64.708495 
2545.000000	64.696264 
2544.000000	64.683842 
2543.000000	64.671635 
2542.000000	64.659500 
2541.000000	64.647006 
2540.000000	64.633893 
2539.000000	64.620542 
2538.000000	64.608001 
2537.000000	64.598155 
2536.000000	64.592933 
2535.000000	64.594030 
2534.000000	64.602184 
2533.000000	64.616990 
2532.000000	64.636445 
2531.000000	64.657759 
2530.000000	64.677762 
2529.000000	64.693713 
2528.000000	64.703989 
2527.000000	64.708471 
2526.000000	64.708447 
2525.000000	64.706087 
2524.000000	64.703869 
2523.000000	64.703631 
2522.000000	64.706015 
2521.000000	64.710354 
2520.000000	64.714765 
2519.000000	64.716982 
2518.000000	64.714550 
2517.000000	64.706063 
2516.000000	64.690971 
2515.000000	64.670062 
2514.000000	64.644789 
2513.000000	64.616990 
2512.000000	64.588522 
2511.000000	64.560604 
2510.000000	64.534282 
2509.000000	64.510154 
2508.000000	64.488911 
2507.000000	64.471244 
2506.000000	64.458227 
2505.000000	64.451146 
2504.000000	64.451122 
2503.000000	64.458751 
2502.000000	64.473724 
2501.000000	64.494705 
2500.000000	64.519500 
2499.000000	64.545369 
2498.000000	64.569520 
2497.000000	64.589762 
2496.000000	64.604806 
2495.000000	64.614415 
2494.000000	64.619398 
2493.000000	64.620995 
2492.000000	64.620351 
2491.000000	64.617967 
2490.000000	64.613747 
2489.000000	64.606809 
2488.000000	64.595937 
2487.000000	64.579963 
2486.000000	64.558649 
2485.000000	64.532852 
2484.000000	64.504885 
2483.000000	64.478015 
2482.000000	64.455962 
2481.000000	64.442253 
2480.000000	64.439249 
2479.000000	64.447665 
2478.000000	64.466357 
2477.000000	64.492607 
2476.000000	64.522552 
2475.000000	64.552044 
2474.000000	64.577484 
2473.000000	64.596462 
2472.000000	64.608144 
2471.000000	64.613080 
2470.000000	64.613103 
2469.000000	64.610671 
2468.000000	64.608049 
2467.000000	64.607024 
2466.000000	64.608573 
2465.000000	64.612960 
2464.000000	64.619779 
2463.000000	64.628434 
2462.000000	64.638185 
2461.000000	64.648413 
2460.000000	64.658641 
2459.000000	64.668631 
2458.000000	64.677715 
2457.000000	64.684915 
2456.000000	64.688849 
2455.000000	64.688062 
2454.000000	64.681172 
2453.000000	64.667224 
2452.000000	64.646077 
2451.000000	64.618730 
2450.000000	64.587354 
2449.000000	64.554905 
2448.000000	64.524793 
2447.000000	64.500141 
2446.000000	64.483499 
2445.000000	64.476418 
2444.000000	64.478969 
2443.000000	64.489722 
2442.000000	64.506268 
2441.000000	64.525604 
2440.000000	64.544415 
2439.000000	64.559888 
2438.000000	64.569973 
2437.000000	64.573907 
2436.000000	64.572072 
2435.000000	64.566063 
2434.000000	64.558196 
2433.000000	64.551162 
2432.000000	64.547300 
2431.000000	64.548397 
2430.000000	64.555072 
2429.000000	64.566707 
2428.000000	64.581704 
2427.000000	64.597630 
2426.000000	64.611911 
2425.000000	64.622068 
2424.000000	64.626479 
2423.000000	64.624524 
2422.000000	64.616584 
2421.000000	64.603853 
2420.000000	64.588093 
2419.000000	64.571118 
2418.000000	64.554429 
2417.000000	64.539194 
2416.000000	64.526104 
2415.000000	64.515638 
2414.000000	64.508128 
2413.000000	64.503955 
2412.000000	64.503598 
2411.000000	64.507508 
2410.000000	64.515948 
2409.000000	64.528417 
2408.000000	64.544010 
2407.000000	64.561057 
2406.000000	64.577603 
2405.000000	64.591717 
2404.000000	64.601850 
2403.000000	64.607429 
2402.000000	64.608812 
2401.000000	64.607286 
2400.000000	64.604425 
2399.000000	64.601731 
2398.000000	64.599990 
2397.000000	64.599251 
2396.000000	64.598703 
2395.000000	64.597201 
2394.000000	64.593625 
2393.000000	64.587378 
2392.000000	64.578533 
2391.000000	64.567780 
2390.000000	64.556145 
2389.000000	64.544844 
2388.000000	64.534759 
2387.000000	64.526367 
2386.000000	64.519715 
2385.000000	64.514327 
2384.000000	64.509701 
2383.000000	64.505290 
2382.000000	64.500570 
2381.000000	64.495277 
2380.000000	64.489340 
2379.000000	64.482951 
2378.000000	64.476084 
2377.000000	64.469075 
2376.000000	64.462184 
2375.000000	64.456200 
2374.000000	64.451932 
2373.000000	64.450430 
2372.000000	64.452815 
2371.000000	64.460015 
2370.000000	64.472413 
2369.000000	64.489984 
2368.000000	64.512038 
2367.000000	64.537382 
2366.000000	64.564347 
2365.000000	64.591217 
2364.000000	64.616155 
2363.000000	64.637684 
2362.000000	64.654564 
2361.000000	64.666032 
2360.000000	64.671659 
2359.000000	64.671611 
2358.000000	64.666390 
2357.000000	64.656639 
2356.000000	64.643216 
2355.000000	64.627218 
2354.000000	64.609980 
2353.000000	64.592814 
2352.000000	64.577102 
2351.000000	64.564204 
2350.000000	64.555120 
2349.000000	64.550518 
2348.000000	64.550471 
2347.000000	64.554357 
2346.000000	64.560770 
2345.000000	64.567995 
2344.000000	64.573907 
2343.000000	64.576292 
2342.000000	64.573550 
2341.000000	64.564847 
2340.000000	64.550280 
2339.000000	64.530682 
2338.000000	64.507794 
2337.000000	64.483833 
2336.000000	64.461016 
2335.000000	64.441299 
2334.000000	64.426326 
2333.000000	64.417409 
2332.000000	64.415216 
2331.000000	64.420008 
2330.000000	64.431762 
2329.000000	64.450049 
2328.000000	64.473915 
2327.000000	64.502000 
2326.000000	64.532303 
2325.000000	64.562296 
2324.000000	64.589309 
2323.000000	64.610552 
2322.000000	64.623641 
2321.000000	64.627027 
2320.000000	64.620327 
2319.000000	64.604306 
2318.000000	64.581036 
2317.000000	64.553165 
2316.000000	64.524173 
2315.000000	64.497137 
2314.000000	64.474558 
2313.000000	64.457988 
2312.000000	64.447760 
2311.000000	64.443063 
2310.000000	64.442038 
2309.000000	64.442324 
2308.000000	64.441585 
2307.000000	64.437747 
2306.000000	64.429521 
2305.000000	64.416766 
2304.000000	64.400553 
2303.000000	64.382743 
2302.000000	64.365839 
2301.000000	64.352393 
2300.000000	64.344429 
2299.000000	64.342951 
2298.000000	64.347648 
2297.000000	64.356899 
2296.000000	64.368200 
2295.000000	64.378666 
2294.000000	64.385747 
2293.000000	64.387631 
2292.000000	64.383840 
2291.000000	64.375162 
2290.000000	64.363336 
2289.000000	64.350724 
2288.000000	64.339327 
2287.000000	64.330506 
2286.000000	64.324736 
2285.000000	64.321541 
2284.000000	64.319896 
2283.000000	64.318728 
2282.000000	64.317464 
2281.000000	64.316344 
2280.000000	64.316439 
2279.000000	64.319348 
2278.000000	64.326643 
2277.000000	64.339327 
2276.000000	64.357495 
2275.000000	64.380168 
2274.000000	64.405369 
2273.000000	64.430522 
2272.000000	64.453101 
2271.000000	64.470887 
2270.000000	64.482760 
2269.000000	64.488649 
2268.000000	64.489316 
2267.000000	64.486265 
2266.000000	64.481282 
2265.000000	64.476037 
2264.000000	64.471864 
2263.000000	64.469599 
2262.000000	64.469552 
2261.000000	64.471530 
2260.000000	64.475107 
2259.000000	64.479541 
2258.000000	64.484167 
2257.000000	64.488363 
2256.000000	64.491581 
2255.000000	64.493489 
2254.000000	64.493799 
2253.000000	64.492344 
2252.000000	64.489102 
2251.000000	64.483880 
2250.000000	64.476585 
2249.000000	64.467215 
2248.000000	64.455962 
2247.000000	64.443182 
2246.000000	64.429569 
2245.000000	64.416027 
2244.000000	64.403772 
2243.000000	64.393854 
2242.000000	64.387202 
2241.000000	64.384174 
2240.000000	64.384746 
2239.000000	64.388036 
2238.000000	64.393210 
2237.000000	64.399123 
2236.000000	64.405083 
2235.000000	64.410662 
2234.000000	64.416193 
2233.000000	64.422321 
2232.000000	64.429855 
2231.000000	64.439272 
2230.000000	64.450502 
2229.000000	64.462780 
2228.000000	64.474725 
2227.000000	64.484477 
2226.000000	64.490127 
2225.000000	64.490294 
2224.000000	64.484357 
2223.000000	64.472627 
2222.000000	64.456176 
2221.000000	64.436769 
2220.000000	64.416313 
2219.000000	64.396691 
2218.000000	64.379262 
2217.000000	64.364957 
2216.000000	64.354324 
2215.000000	64.347529 
2214.000000	64.344358 
2213.000000	64.344310 
2212.000000	64.346766 
2211.000000	64.350795 
2210.000000	64.355254 
2209.000000	64.358806 
2208.000000	64.360094 
2207.000000	64.357781 
2206.000000	64.351010 
2205.000000	64.339423 
2204.000000	64.323425 
2203.000000	64.304018 
2202.000000	64.282751 
2201.000000	64.261317 
2200.000000	64.241313 
2199.000000	64.223933 
2198.000000	64.209890 
2197.000000	64.199185 
2196.000000	64.191651 
2195.000000	64.186954 
2194.000000	64.184927 
2193.000000	64.185643 
2192.000000	64.189481 
2191.000000	64.197039 
2190.000000	64.208698 
2189.000000	64.224433 
2188.000000	64.243555 
2187.000000	64.264607 
2186.000000	64.285469 
2185.000000	64.303898 
2184.000000	64.317727 
2183.000000	64.325499 
2182.000000	64.326763 
2181.000000	64.322209 
2180.000000	64.313483 
2179.000000	64.302968 
2178.000000	64.293074 
2177.000000	64.285922 
2176.000000	64.282822 
2175.000000	64.284276 
2174.000000	64.289855 
2173.000000	64.298653 
2172.000000	64.309310 
2171.000000	64.320564 
2170.000000	64.331388 
2169.000000	64.341139 
2168.000000	64.349484 
2167.000000	64.356350 
2166.000000	64.361834 
2165.000000	64.365959 
2164.000000	64.368677 
2163.000000	64.369988 
2162.000000	64.369916 
2161.000000	64.368700 
2160.000000	64.366769 
2159.000000	64.364552 
2158.000000	64.362502 
2157.000000	64.360737 
2156.000000	64.359021 
2155.000000	64.356660 
2154.000000	64.352536 
2153.000000	64.345431 
2152.000000	64.334416 
2151.000000	64.319133 
2150.000000	64.300060 
2149.000000	64.278483 
2148.000000	64.256477 
2147.000000	64.236330 
2146.000000	64.220309 
2145.000000	64.210104 
2144.000000	64.206457 
2143.000000	64.209103 
2142.000000	64.216804 
2141.000000	64.227938 
2140.000000	64.240574 
2139.000000	64.252948 
2138.000000	64.263892 
2137.000000	64.272451 
2136.000000	64.278244 
2135.000000	64.281105 
2134.000000	64.281034 
2133.000000	64.278197 
2132.000000	64.272618 
2131.000000	64.264655 
2130.000000	64.254593 
2129.000000	64.242959 
2128.000000	64.230298 
2127.000000	64.217352 
2126.000000	64.204907 
2125.000000	64.193844 
2124.000000	64.184856 
2123.000000	64.178657 
2122.000000	64.175581 
2121.000000	64.175629 
2120.000000	64.178323 
2119.000000	64.182710 
2118.000000	64.187502 
2117.000000	64.191293 
2116.000000	64.192867 
2115.000000	64.191532 
2114.000000	64.187383 
2113.000000	64.181470 
2112.000000	64.175605 
2111.000000	64.172172 
2110.000000	64.173579 
2109.000000	64.181542 
2108.000000	64.196729 
2107.000000	64.218497 
2106.000000	64.244771 
2105.000000	64.272522 
2104.000000	64.298319 
2103.000000	64.318776 
2102.000000	64.331555 
2101.000000	64.335370 
2100.000000	64.330482 
2099.000000	64.318227 
2098.000000	64.300775 
2097.000000	64.280557 
2096.000000	64.259910 
2095.000000	64.240455 
2094.000000	64.223170 
2093.000000	64.208221 
2092.000000	64.195418 
2091.000000	64.184188 
2090.000000	64.173889 
2089.000000	64.164066 
2088.000000	64.154529 
2087.000000	64.145278 
2086.000000	64.136528 
2085.000000	64.128684 
2084.000000	64.122319 
2083.000000	64.117932 
2082.000000	64.115905 
2081.000000	64.116382 
2080.000000	64.119076 
2079.000000	64.123296 
2078.000000	64.128017 
2077.000000	64.131689 
2076.000000	64.132976 
2075.000000	64.130735 
2074.000000	64.124512 
2073.000000	64.114522 
2072.000000	64.101934 
2071.000000	64.088654 
2070.000000	64.077091 
2069.000000	64.069414 
2068.000000	64.067363 
2067.000000	64.071822 
2066.000000	64.082598 
2065.000000	64.098644 
2064.000000	64.118337 
2063.000000	64.140033 
2062.000000	64.162349 
2061.000000	64.184284 
2060.000000	64.205551 
2059.000000	64.226245 
2058.000000	64.246535 
2057.000000	64.266276 
2056.000000	64.285063 
2055.000000	64.301729 
2054.000000	64.315056 
2053.000000	64.323472 
2052.000000	64.325928 
2051.000000	64.321660 
2050.000000	64.311003 
2049.000000	64.295029 
2048.000000	64.275431 
2047.000000	64.254450 
2046.000000	64.234447 
2045.000000	64.217638 
2044.000000	64.205694 
2043.000000	64.199614 
2042.000000	64.199447 
2041.000000	64.204239 
2040.000000	64.212179 
2039.000000	64.220643 
2038.000000	64.226746 
2037.000000	64.227628 
2036.000000	64.221286 
2035.000000	64.206647 
2034.000000	64.184021 
2033.000000	64.155054 
2032.000000	64.122557 
2031.000000	64.089798 
2030.000000	64.059996 
2029.000000	64.035987 
2028.000000	64.019703 
2027.000000	64.011740 
2026.000000	64.011859 
2025.000000	64.018845 
2024.000000	64.031434 
2023.000000	64.048004 
2022.000000	64.067292 
2021.000000	64.088153 
2020.000000	64.109921 
2019.000000	64.131641 
2018.000000	64.152598 
2017.000000	64.171743 
2016.000000	64.188027 
2015.000000	64.200258 
2014.000000	64.207434 
2013.000000	64.208817 
2012.000000	64.204192 
2011.000000	64.193892 
2010.000000	64.178848 
2009.000000	64.160418 
2008.000000	64.140272 
2007.000000	64.120173 
2006.000000	64.101743 
2005.000000	64.086437 
2004.000000	64.075279 
2003.000000	64.069032 
2002.000000	64.067888 
2001.000000	64.072036 
2000.000000	64.081215 
1999.000000	64.095044 
1998.000000	64.112734 
1997.000000	64.133286 
1996.000000	64.155435 
1995.000000	64.177775 
1994.000000	64.198589 
1993.000000	64.216208 
1992.000000	64.229083 
1991.000000	64.236044 
1990.000000	64.236354 
1989.000000	64.229846 
1988.000000	64.216923 
1987.000000	64.198756 
1986.000000	64.176988 
1985.000000	64.153742 
1984.000000	64.131259 
1983.000000	64.111638 
1982.000000	64.096665 
1981.000000	64.087414 
1980.000000	64.084315 
1979.000000	64.086794 
1978.000000	64.093542 
1977.000000	64.102745 
1976.000000	64.112472 
1975.000000	64.120888 
1974.000000	64.126801 
1973.000000	64.129638 
1972.000000	64.129853 
1971.000000	64.128375 
1970.000000	64.126658 
1969.000000	64.126253 
1968.000000	64.128327 
1967.000000	64.133429 
1966.000000	64.141249 
1965.000000	64.150810 
1964.000000	64.160370 
1963.000000	64.168095 
1962.000000	64.172196 
1961.000000	64.171385 
1960.000000	64.164948 
1959.000000	64.153003 
1958.000000	64.136433 
1957.000000	64.116787 
1956.000000	64.096045 
1955.000000	64.076328 
1954.000000	64.059543 
1953.000000	64.047122 
1952.000000	64.039587 
1951.000000	64.036512 
1950.000000	64.036655 
1949.000000	64.038467 
1948.000000	64.040231 
1947.000000	64.041018 
1946.000000	64.040637 
1945.000000	64.039897 
1944.000000	64.040184 
1943.000000	64.042949 
1942.000000	64.049315 
1941.000000	64.059591 
1940.000000	64.072990 
1939.000000	64.087724 
1938.000000	64.101552 
1937.000000	64.112186 
1936.000000	64.118075 
1935.000000	64.118504 
1934.000000	64.114022 
1933.000000	64.106035 
1932.000000	64.096283 
1931.000000	64.086437 
1930.000000	64.077687 
1929.000000	64.070630 
1928.000000	64.065265 
1927.000000	64.061284 
1926.000000	64.058279 
1925.000000	64.055752 
1924.000000	64.053654 
1923.000000	64.051985 
1922.000000	64.051175 
1921.000000	64.051747 
1920.000000	64.054465 
1919.000000	64.060211 
1918.000000	64.069533 
1917.000000	64.082622 
1916.000000	64.099121 
1915.000000	64.117860 
1914.000000	64.137196 
1913.000000	64.154982 
1912.000000	64.169073 
1911.000000	64.177703 
1910.000000	64.179682 
1909.000000	64.174914 
1908.000000	64.164161 
1907.000000	64.149165 
1906.000000	64.132094 
1905.000000	64.115285 
1904.000000	64.100670 
1903.000000	64.089584 
1902.000000	64.082479 
1901.000000	64.079165 
1900.000000	64.078998 
1899.000000	64.081096 
1898.000000	64.084672 
1897.000000	64.089131 
1896.000000	64.094209 
1895.000000	64.099884 
1894.000000	64.106154 
1893.000000	64.112973 
1892.000000	64.119935 
1891.000000	64.126253 
1890.000000	64.130902 
1889.000000	64.132833 
1888.000000	64.131140 
1887.000000	64.125299 
1886.000000	64.115428 
1885.000000	64.102220 
1884.000000	64.086866 
1883.000000	64.070725 
1882.000000	64.055228 
1881.000000	64.041519 
1880.000000	64.030218 
1879.000000	64.021372 
1878.000000	64.014554 
1877.000000	64.009070 
1876.000000	64.004206 
1875.000000	63.999390 
1874.000000	63.994312 
1873.000000	63.989162 
1872.000000	63.984441 
1871.000000	63.980746 
1870.000000	63.978552 
1869.000000	63.978195 
1868.000000	63.979673 
1867.000000	63.982534 
1866.000000	63.986182 
1865.000000	63.989877 
1864.000000	63.993024 
1863.000000	63.995289 
1862.000000	63.996458 
1861.000000	63.996624 
1860.000000	63.995909 
1859.000000	63.994550 
1858.000000	63.992547 
1857.000000	63.989734 
1856.000000	63.985824 
1855.000000	63.980484 
1854.000000	63.973522 
1853.000000	63.965010 
1852.000000	63.955473 
1851.000000	63.945603 
1850.000000	63.936376 
1849.000000	63.928890 
1848.000000	63.924169 
1847.000000	63.923096 
1846.000000	63.926196 
1845.000000	63.933682 
1844.000000	63.945341 
1843.000000	63.960552 
1842.000000	63.978290 
1841.000000	63.997220 
1840.000000	64.015865 
1839.000000	64.032697 
1838.000000	64.046359 
1837.000000	64.055585 
1836.000000	64.059519 
1835.000000	64.057922 
1834.000000	64.051055 
1833.000000	64.039707 
1832.000000	64.025211 
1831.000000	64.009165 
1830.000000	63.993453 
1829.000000	63.979649 
1828.000000	63.968968 
1827.000000	63.962125 
1826.000000	63.959312 
1825.000000	63.960242 
1824.000000	63.964366 
1823.000000	63.970994 
1822.000000	63.979363 
1821.000000	63.988709 
1820.000000	63.998317 
1819.000000	64.007282 
1818.000000	64.014625 
1817.000000	64.019346 
1816.000000	64.020609 
1815.000000	64.017796 
1814.000000	64.010787 
1813.000000	64.000177 
1812.000000	63.987207 
1811.000000	63.973546 
1810.000000	63.961100 
1809.000000	63.951683 
1808.000000	63.946580 
1807.000000	63.946247 
1806.000000	63.950204 
1805.000000	63.957381 
1804.000000	63.966107 
1803.000000	63.974714 
1802.000000	63.981747 
1801.000000	63.986110 
1800.000000	63.987207 
1799.000000	63.984990 
1798.000000	63.979792 
1797.000000	63.971829 
1796.000000	63.961386 
1795.000000	63.948488 
1794.000000	63.932943 
1793.000000	63.914275 
1792.000000	63.892173 
1791.000000	63.866543 
1790.000000	63.837862 
1789.000000	63.807439 
1788.000000	63.776969 
1787.000000	63.748550 
1786.000000	63.724279 
1785.000000	63.706040 
1784.000000	63.694524 
1783.000000	63.689613 
1782.000000	63.690257 
1781.000000	63.695096 
1780.000000	63.702106 
1779.000000	63.709759 
1778.000000	63.717150 
1777.000000	63.724207 
1776.000000	63.731360 
1775.000000	63.739442 
1774.000000	63.749265 
1773.000000	63.761043 
1772.000000	63.773846 
1771.000000	63.785982 
1770.000000	63.795351 
1769.000000	63.799667 
1768.000000	63.797020 
1767.000000	63.786602 
1766.000000	63.768887 
1765.000000	63.745498 
1764.000000	63.718748 
1763.000000	63.690924 
1762.000000	63.663768 
1761.000000	63.638043 
1760.000000	63.613367 
1759.000000	63.588285 
1758.000000	63.560724 
1757.000000	63.529324 
1756.000000	63.493442 
1755.000000	63.453292 
1754.000000	63.410067 
1753.000000	63.366055 
1752.000000	63.323259 
1751.000000	63.282728 
1750.000000	63.244056 
1749.000000	63.205981 
1748.000000	63.165831 
1747.000000	63.120365 
1746.000000	63.066792 
1745.000000	63.003730 
1744.000000	62.931346 
1743.000000	62.851500 
1742.000000	62.767672 
1741.000000	62.684369 
1740.000000	62.606048 
1739.000000	62.536573 
1738.000000	62.478756 
1737.000000	62.434363 
1736.000000	62.403798 
1735.000000	62.387061 
1734.000000	62.383389 
1733.000000	62.392425 
1732.000000	62.413167 
1731.000000	62.445139 
1730.000000	62.487077 
1729.000000	62.538003 
1728.000000	62.595868 
1727.000000	62.658929 
1726.000000	62.725138 
1725.000000	62.792801 
1724.000000	62.860250 
1723.000000	62.926530 
1722.000000	62.991142 
1721.000000	63.054156 
1720.000000	63.115453 
1719.000000	63.175082 
1718.000000	63.233017 
1717.000000	63.288927 
1716.000000	63.342142 
1715.000000	63.391923 
1714.000000	63.437747 
1713.000000	63.478899 
1712.000000	63.514637 
1711.000000	63.544678 
1710.000000	63.568973 
1709.000000	63.587594 
1708.000000	63.600587 
1707.000000	63.608598 
1706.000000	63.612294 
1705.000000	63.612604 
1704.000000	63.610291 
1703.000000	63.606333 
1702.000000	63.601660 
1701.000000	63.597393 
1700.000000	63.594532 
1699.000000	63.593864 
1698.000000	63.595676 
1697.000000	63.600206 
1696.000000	63.606762 
1695.000000	63.614082 
1694.000000	63.620495 
1693.000000	63.624405 
1692.000000	63.624429 
1691.000000	63.619661 
1690.000000	63.610267 
1689.000000	63.597559 
1688.000000	63.583660 
1687.000000	63.570976 
1686.000000	63.562107 
1685.000000	63.559031 
1684.000000	63.562631 
1683.000000	63.572549 
1682.000000	63.587546 
1681.000000	63.605618 
1680.000000	63.624405 
1679.000000	63.641786 
1678.000000	63.656067 
1677.000000	63.666319 
1676.000000	63.672137 
1675.000000	63.673925 
1674.000000	63.672494 
1673.000000	63.669061 
1672.000000	63.664865 
1671.000000	63.660931 
1670.000000	63.658189 
1669.000000	63.657116 
1668.000000	63.657808 
1667.000000	63.660168 
1666.000000	63.664007 
1665.000000	63.669252 
1664.000000	63.675713 
1663.000000	63.683557 
1662.000000	63.692998 
1661.000000	63.704299 
1660.000000	63.717436 
1659.000000	63.732028 
1658.000000	63.747525 
1657.000000	63.763046 
1656.000000	63.777565 
1655.000000	63.790202 
1654.000000	63.800454 
1653.000000	63.808417 
1652.000000	63.814282 
1651.000000	63.818597 
1650.000000	63.821697 
1649.000000	63.823604 
1648.000000	63.824081 
1647.000000	63.822603 
1646.000000	63.818573 
1645.000000	63.811826 
1644.000000	63.802456 
1643.000000	63.791084 
1642.000000	63.778543 
1641.000000	63.765883 
1640.000000	63.753724 
1639.000000	63.742184 
1638.000000	63.730788 
1637.000000	63.718700 
1636.000000	63.704967 
1635.000000	63.689041 
1634.000000	63.670969 
1633.000000	63.651561 
1632.000000	63.632416 
1631.000000	63.615679 
1630.000000	63.603401 
1629.000000	63.597130 
1628.000000	63.597774 
1627.000000	63.605380 
1626.000000	63.619232 
1625.000000	63.637900 
1624.000000	63.659739 
1623.000000	63.682985 
1622.000000	63.706016 
1621.000000	63.727331 
1620.000000	63.745522 
1619.000000	63.759636 
1618.000000	63.768815 
1617.000000	63.772821 
1616.000000	63.771843 
1615.000000	63.766670 
1614.000000	63.758778 
1613.000000	63.750028 
1612.000000	63.742446 
1611.000000	63.737654 
1610.000000	63.736653 
1609.000000	63.739418 
1608.000000	63.745093 
1607.000000	63.751983 
1606.000000	63.757967 
1605.000000	63.760924 
1604.000000	63.759136 
1603.000000	63.751649 
1602.000000	63.738489 
1601.000000	63.720464 
1600.000000	63.699293 
1599.000000	63.676953 
1598.000000	63.655638 
1597.000000	63.637232 
1596.000000	63.623285 
1595.000000	63.614654 
1594.000000	63.611483 
1593.000000	63.613724 
1592.000000	63.620662 
1591.000000	63.631224 
1590.000000	63.644027 
1589.000000	63.657498 
1588.000000	63.669776 
1587.000000	63.678979 
1586.000000	63.683509 
1585.000000	63.682198 
1584.000000	63.674664 
1583.000000	63.661146 
1582.000000	63.642621 
1581.000000	63.620519 
1580.000000	63.596558 
1579.000000	63.572597 
1578.000000	63.550305 
1577.000000	63.530993 
1576.000000	63.515758 
1575.000000	63.505148 
1574.000000	63.499426 
1573.000000	63.498115 
1572.000000	63.500332 
1571.000000	63.504672 
1570.000000	63.509631 
1569.000000	63.513731 
1568.000000	63.515949 
1567.000000	63.515782 
1566.000000	63.513064 
1565.000000	63.508343 
1564.000000	63.502502 
1563.000000	63.496661 
1562.000000	63.491868 
1561.000000	63.488674 
1560.000000	63.487410 
1559.000000	63.487744 
1558.000000	63.488864 
1557.000000	63.489675 
1556.000000	63.489103 
1555.000000	63.486385 
1554.000000	63.481307 
1553.000000	63.474321 
1552.000000	63.466334 
1551.000000	63.458323 
1550.000000	63.451194 
1549.000000	63.445210 
1548.000000	63.440179 
1547.000000	63.435435 
1546.000000	63.430070 
1545.000000	63.423371 
1544.000000	63.415217 
1543.000000	63.406133 
1542.000000	63.397502 
1541.000000	63.390874 
1540.000000	63.388085 
1539.000000	63.390421 
1538.000000	63.398528 
1537.000000	63.411974 
1536.000000	63.429570 
1535.000000	63.449597 
1534.000000	63.470005 
1533.000000	63.489103 
1532.000000	63.505840 
1531.000000	63.519668 
1530.000000	63.530826 
1529.000000	63.539981 
1528.000000	63.547658 
1527.000000	63.554120 
1526.000000	63.559317 
1525.000000	63.562941 
1524.000000	63.564443 
1523.000000	63.563299 
1522.000000	63.559508 
1521.000000	63.553333 
1520.000000	63.545465 
1519.000000	63.536548 
1518.000000	63.527154 
1517.000000	63.517475 
1516.000000	63.507318 
1515.000000	63.496351 
1514.000000	63.484215 
1513.000000	63.470864 
1512.000000	63.456940 
1511.000000	63.443732 
1510.000000	63.432955 
1509.000000	63.426351 
1508.000000	63.425350 
1507.000000	63.430809 
1506.000000	63.442492 
1505.000000	63.459396 
1504.000000	63.480114 
1503.000000	63.503026 
1502.000000	63.526701 
1501.000000	63.550257 
1500.000000	63.573312 
1499.000000	63.595986 
1498.000000	63.618206 
1497.000000	63.639903 
1496.000000	63.660597 
1495.000000	63.679361 
1494.000000	63.694858 
1493.000000	63.705825 
1492.000000	63.710927 
1491.000000	63.709402 
1490.000000	63.700866 
1489.000000	63.685512 
1488.000000	63.663840 
1487.000000	63.636875 
1486.000000	63.605856 
1485.000000	63.572430 
1484.000000	63.538289 
1483.000000	63.505506 
1482.000000	63.475799 
1481.000000	63.450813 
1480.000000	63.431525 
1479.000000	63.418221 
1478.000000	63.410520 
1477.000000	63.407254 
1476.000000	63.406801 
1475.000000	63.407254 
1474.000000	63.406968 
1473.000000	63.404488 
1472.000000	63.398742 
1471.000000	63.389301 
1470.000000	63.376235 
1469.000000	63.360166 
1468.000000	63.342189 
1467.000000	63.323545 
1466.000000	63.305592 
1465.000000	63.289427 
1464.000000	63.275933 
1463.000000	63.265442 
1462.000000	63.257813 
1461.000000	63.252305 
1460.000000	63.247871 
1459.000000	63.243389 
1458.000000	63.237905 
1457.000000	63.231015 
1456.000000	63.223028 
1455.000000	63.215017 
1454.000000	63.208365 
1453.000000	63.204646 
1452.000000	63.205218 
1451.000000	63.210678 
1450.000000	63.220596 
1449.000000	63.233685 
1448.000000	63.247942 
1447.000000	63.261175 
1446.000000	63.271546 
1445.000000	63.278031 
1444.000000	63.280749 
1443.000000	63.280797 
1442.000000	63.280081 
1441.000000	63.280773 
1440.000000	63.284659 
1439.000000	63.292503 
1438.000000	63.303995 
1437.000000	63.317632 
1436.000000	63.331055 
1435.000000	63.341808 
1434.000000	63.347601 
1433.000000	63.347387 
1432.000000	63.341212 
1431.000000	63.330507 
1430.000000	63.317680 
1429.000000	63.305401 
1428.000000	63.296246 
1427.000000	63.292050 
1426.000000	63.293409 
1425.000000	63.299679 
1424.000000	63.309168 
1423.000000	63.319659 
1422.000000	63.328766 
1421.000000	63.334584 
1420.000000	63.336229 
1419.000000	63.333845 
1418.000000	63.328576 
1417.000000	63.322019 
1416.000000	63.315963 
1415.000000	63.311791 
1414.000000	63.310217 
1413.000000	63.310933 
1412.000000	63.313031 
1411.000000	63.315010 
1410.000000	63.315510 
1409.000000	63.313484 
1408.000000	63.308620 
1407.000000	63.301253 
1406.000000	63.292121 
1405.000000	63.282060 
1404.000000	63.271594 
1403.000000	63.260626 
1402.000000	63.248515 
1401.000000	63.234424 
1400.000000	63.217687 
1399.000000	63.198232 
1398.000000	63.176798 
1397.000000	63.154888 
1396.000000	63.134241 
1395.000000	63.116574 
1394.000000	63.102912 
1393.000000	63.093447 
1392.000000	63.087463 
1391.000000	63.083720 
1390.000000	63.080811 
1389.000000	63.077712 
1388.000000	63.074159 
1387.000000	63.070487 
1386.000000	63.067650 
1385.000000	63.066625 
1384.000000	63.068294 
1383.000000	63.072848 
1382.000000	63.079905 
1381.000000	63.088512 
1380.000000	63.097476 
1379.000000	63.105964 
1378.000000	63.113498 
1377.000000	63.120245 
1376.000000	63.126516 
1375.000000	63.132810 
1374.000000	63.139414 
1373.000000	63.145923 
1372.000000	63.151621 
1371.000000	63.155364 
1370.000000	63.156318 
1369.000000	63.153958 
1368.000000	63.148641 
1367.000000	63.141441 
1366.000000	63.134050 
1365.000000	63.128232 
1364.000000	63.125276 
1363.000000	63.125729 
1362.000000	63.129091 
1361.000000	63.133978 
1360.000000	63.138580 
1359.000000	63.141465 
1358.000000	63.141751 
1357.000000	63.139677 
1356.000000	63.136458 
1355.000000	63.134050 
1354.000000	63.134407 
1353.000000	63.138961 
1352.000000	63.148117 
1351.000000	63.161039 
1350.000000	63.175964 
1349.000000	63.190245 
1348.000000	63.201546 
1347.000000	63.207745 
1346.000000	63.207650 
1345.000000	63.201093 
1344.000000	63.188695 
1343.000000	63.171601 
1342.000000	63.151311 
1341.000000	63.129353 
1340.000000	63.107132 
1339.000000	63.086032 
1338.000000	63.067555 
1337.000000	63.053274 
1336.000000	63.044595 
1335.000000	63.042759 
1334.000000	63.048458 
1333.000000	63.061404 
1332.000000	63.080334 
1331.000000	63.103103 
1330.000000	63.126969 
1329.000000	63.149094 
1328.000000	63.167190 
1327.000000	63.179874 
1326.000000	63.186907 
1325.000000	63.189220 
1324.000000	63.188362 
1323.000000	63.186144 
1322.000000	63.184022 
1321.000000	63.182902 
1320.000000	63.182759 
1319.000000	63.182973 
1318.000000	63.182425 
1317.000000	63.179945 
1316.000000	63.174629 
1315.000000	63.165926 
1314.000000	63.153719 
1313.000000	63.138341 
1312.000000	63.120222 
1311.000000	63.099813 
1310.000000	63.077640 
1309.000000	63.054418 
1308.000000	63.030815 
1307.000000	63.007640 
1306.000000	62.985944 
1305.000000	62.966895 
1304.000000	62.951612 
1303.000000	62.941026 
1302.000000	62.935757 
1301.000000	62.935900 
1300.000000	62.941145 
1299.000000	62.950778 
1298.000000	62.963390 
1297.000000	62.977337 
1296.000000	62.990808 
1295.000000	63.002014 
1294.000000	63.008999 
1293.000000	63.010144 
1292.000000	63.004446 
1291.000000	62.991571 
1290.000000	62.972211 
1289.000000	62.947988 
1288.000000	62.921357 
1287.000000	62.895298 
1286.000000	62.872767 
1285.000000	62.856221 
1284.000000	62.847185 
1283.000000	62.845945 
1282.000000	62.851595 
1281.000000	62.862277 
1280.000000	62.875580 
1279.000000	62.889289 
1278.000000	62.901568 
1277.000000	62.911248 
1276.000000	62.917804 
1275.000000	62.921142 
1274.000000	62.921333 
1273.000000	62.918233 
1272.000000	62.911343 
1271.000000	62.899971 
1270.000000	62.883567 
1269.000000	62.861919 
1268.000000	62.835383 
1267.000000	62.805223 
1266.000000	62.773227 
1265.000000	62.741494 
1264.000000	62.711906 
1263.000000	62.685894 
1262.000000	62.663936 
1261.000000	62.645697 
1260.000000	62.630367 
1259.000000	62.617063 
1258.000000	62.605190 
1257.000000	62.594842 
1256.000000	62.586712 
1255.000000	62.581944 
1254.000000	62.581467 
1253.000000	62.585425 
1252.000000	62.592911 
1251.000000	62.602114 
1250.000000	62.610673 
1249.000000	62.616252 
1248.000000	62.617230 
1247.000000	62.613058 
1246.000000	62.604475 
1245.000000	62.593007 
1244.000000	62.580728 
1243.000000	62.569475 
1242.000000	62.560582 
1241.000000	62.554430 
1240.000000	62.550806 
1239.000000	62.549042 
1238.000000	62.548279 
1237.000000	62.548208 
1236.000000	62.549042 
1235.000000	62.551641 
1234.000000	62.557220 
1233.000000	62.567019 
1232.000000	62.582063 
1231.000000	62.602519 
1230.000000	62.627649 
1229.000000	62.655997 
1228.000000	62.685632 
1227.000000	62.714219 
1226.000000	62.739372 
1225.000000	62.758994 
1224.000000	62.771749 
1223.000000	62.777090 
1222.000000	62.775254 
1221.000000	62.767291 
1220.000000	62.754940 
1219.000000	62.740349 
1218.000000	62.725615 
1217.000000	62.712550 
1216.000000	62.702178 
1215.000000	62.694835 
1214.000000	62.689924 
1213.000000	62.686276 
1212.000000	62.682223 
1211.000000	62.676525 
1210.000000	62.668442 
1209.000000	62.657999 
1208.000000	62.646293 
1207.000000	62.635135 
1206.000000	62.626862 
1205.000000	62.623286 
1204.000000	62.625956 
1203.000000	62.635540 
1202.000000	62.651586 
1201.000000	62.672662 
1200.000000	62.696671 
1199.000000	62.721252 
1198.000000	62.743997 
1197.000000	62.762737 
1196.000000	62.776017 
1195.000000	62.782931 
1194.000000	62.783169 
1193.000000	62.776827 
1192.000000	62.764263 
1191.000000	62.746119 
1190.000000	62.723326 
1189.000000	62.696933 
1188.000000	62.668251 
1187.000000	62.638616 
1186.000000	62.609696 
1185.000000	62.583017 
1184.000000	62.559652 
1183.000000	62.540078 
1182.000000	62.524294 
1181.000000	62.511420 
1180.000000	62.500095 
1179.000000	62.488603 
1178.000000	62.475395 
1177.000000	62.459158 
1176.000000	62.438917 
1175.000000	62.414383 
1174.000000	62.386083 
1173.000000	62.354898 
1172.000000	62.322092 
1171.000000	62.289237 
1170.000000	62.258124 
1169.000000	62.230253 
1168.000000	62.207102 
1167.000000	62.189602 
1166.000000	62.178492 
1165.000000	62.174010 
1164.000000	62.176132 
1163.000000	62.184166 
1162.000000	62.197351 
1161.000000	62.214636 
1160.000000	62.235116 
1159.000000	62.257790 
1158.000000	62.281966 
1157.000000	62.306976 
1156.000000	62.332487 
1155.000000	62.358236 
1154.000000	62.384176 
1153.000000	62.410187 
1152.000000	62.436294 
1151.000000	62.462639 
1150.000000	62.489604 
1149.000000	62.517428 
1148.000000	62.546706 
1147.000000	62.578010 
1146.000000	62.611889 
1145.000000	62.648534 
1144.000000	62.687897 
1143.000000	62.729120 
1142.000000	62.770438 
1141.000000	62.809157 
1140.000000	62.842106 
1139.000000	62.865948 
1138.000000	62.878155 
1137.000000	62.877249 
1136.000000	62.863683 
1135.000000	62.839627 
1134.000000	62.808847 
1133.000000	62.775683 
1132.000000	62.744832 
1131.000000	62.720155 
1130.000000	62.704181 
1129.000000	62.697696 
1128.000000	62.699747 
1127.000000	62.707972 
1126.000000	62.719273 
1125.000000	62.730383 
1124.000000	62.738513 
1123.000000	62.741899 
1122.000000	62.740278 
1121.000000	62.734460 
1120.000000	62.725925 
1119.000000	62.716627 
1118.000000	62.708353 
1117.000000	62.702035 
1116.000000	62.697529 
1115.000000	62.693834 
1114.000000	62.689328 
1113.000000	62.681937 
1112.000000	62.670421 
1111.000000	62.654709 
1110.000000	62.636375 
1109.000000	62.618064 
1108.000000	62.603545 
1107.000000	62.596535 
1106.000000	62.600159 
1105.000000	62.615823 
1104.000000	62.643098 
1103.000000	62.679648 
1102.000000	62.721705 
1101.000000	62.764787 
1100.000000	62.804245 
1099.000000	62.835788 
1098.000000	62.856149 
1097.000000	62.863326 
1096.000000	62.856864 
1095.000000	62.837576 
1094.000000	62.807559 
1093.000000	62.769961 
1092.000000	62.728238 
1091.000000	62.685823 
1090.000000	62.645840 
1089.000000	62.610507 
1088.000000	62.580943 
1087.000000	62.557291 
1086.000000	62.538576 
1085.000000	62.523484 
1084.000000	62.510466 
1083.000000	62.498641 
1082.000000	62.487316 
1081.000000	62.476754 
1080.000000	62.467455 
1079.000000	62.460494 
1078.000000	62.456703 
1077.000000	62.456607 
1076.000000	62.459945 
1075.000000	62.465977 
1074.000000	62.473559 
1073.000000	62.481260 
1072.000000	62.487745 
1071.000000	62.491917 
1070.000000	62.493109 
1069.000000	62.491345 
1068.000000	62.487483 
1067.000000	62.482810 
1066.000000	62.478780 
1065.000000	62.476849 
1064.000000	62.477970 
1063.000000	62.482595 
1062.000000	62.490081 
1061.000000	62.498974 
1060.000000	62.507128 
1059.000000	62.512063 
1058.000000	62.511825 
1057.000000	62.504839 
1056.000000	62.491083 
1055.000000	62.471771 
1054.000000	62.449908 
1053.000000	62.429618 
1052.000000	62.415671 
1051.000000	62.412667 
1050.000000	62.423729 
1049.000000	62.450027 
1048.000000	62.489914 
1047.000000	62.539458 
1046.000000	62.592697 
1045.000000	62.642717 
1044.000000	62.683081 
1043.000000	62.709093 
1042.000000	62.718200 
1041.000000	62.710547 
1040.000000	62.688779 
1039.000000	62.657141 
1038.000000	62.620854 
1037.000000	62.584853 
1036.000000	62.553215 
1035.000000	62.528324 
1034.000000	62.510871 
1033.000000	62.499976 
1032.000000	62.493491 
1031.000000	62.488985 
1030.000000	62.483906 
1029.000000	62.476778 
1028.000000	62.466692 
1027.000000	62.454175 
1026.000000	62.440204 
1025.000000	62.426710 
1024.000000	62.415671 
1023.000000	62.409210 
1022.000000	62.408876 
1021.000000	62.415862 
1020.000000	62.430620 
1019.000000	62.453031 
1018.000000	62.482166 
1017.000000	62.516283 
1016.000000	62.553071 
1015.000000	62.589550 
1014.000000	62.622523 
1013.000000	62.648820 
1012.000000	62.665724 
1011.000000	62.671327 
1010.000000	62.664914 
1009.000000	62.646937 
1008.000000	62.619209 
1007.000000	62.584424 
1006.000000	62.545847 
1005.000000	62.507009 
1004.000000	62.471508 
1003.000000	62.442350 
1002.000000	62.422084 
1001.000000	62.412571 
1000.000000	62.414956 
999.000000	 62.429642 
998.000000	 62.456083 
997.000000	 62.492537 
996.000000	 62.536168 
995.000000	 62.583112 
994.000000	 62.629103 
993.000000	 62.669587 
992.000000	 62.701129 
991.000000	 62.721920 
990.000000	 62.732195 
989.000000	 62.734222 
988.000000	 62.731695 
987.000000	 62.728834 
986.000000	 62.729263 
985.000000	 62.735080 
984.000000	 62.746381 
983.000000	 62.761282 
982.000000	 62.776565 
981.000000	 62.788438 
980.000000	 62.793827 
979.000000	 62.790989 
978.000000	 62.779998 
977.000000	 62.762737 
976.000000	 62.742018 
975.000000	 62.720942 
974.000000	 62.702059 
973.000000	 62.686872 
972.000000	 62.675714 
971.000000	 62.667369 
970.000000	 62.660408 
969.000000	 62.652969 
968.000000	 62.643527 
967.000000	 62.631249 
966.000000	 62.615823 
965.000000	 62.597870 
964.000000	 62.578582 
963.000000	 62.559580 
962.000000	 62.542319 
961.000000	 62.528109 
960.000000	 62.517976 
959.000000	 62.512111 
958.000000	 62.510228 
957.000000	 62.511301 
956.000000	 62.514042 
955.000000	 62.517023 
954.000000	 62.519001 
953.000000	 62.519192 
952.000000	 62.517476 
951.000000	 62.514257 
950.000000	 62.510538 
949.000000	 62.507319 
948.000000	 62.505602 
947.000000	 62.505888 
946.000000	 62.508273 
945.000000	 62.512660 
944.000000	 62.518930 
943.000000	 62.527108 
942.000000	 62.537360 
941.000000	 62.549996 
940.000000	 62.565064 
939.000000	 62.582302 
938.000000	 62.600994 
937.000000	 62.620019 
936.000000	 62.637948 
935.000000	 62.653326 
934.000000	 62.664961 
933.000000	 62.672352 
932.000000	 62.675738 
931.000000	 62.676215 
930.000000	 62.675142 
929.000000	 62.674093 
928.000000	 62.674450 
927.000000	 62.677001 
926.000000	 62.682127 
925.000000	 62.689495 
924.000000	 62.698364 
923.000000	 62.707710 
922.000000	 62.716364 
921.000000	 62.723255 
920.000000	 62.727618 
919.000000	 62.729167 
918.000000	 62.728142 
917.000000	 62.725043 
916.000000	 62.720894 
915.000000	 62.716197 
914.000000	 62.711167 
913.000000	 62.705087 
912.000000	 62.696528 
911.000000	 62.683868 
910.000000	 62.665724 
909.000000	 62.641620 
908.000000	 62.612414 
907.000000	 62.580418 
906.000000	 62.549090 
905.000000	 62.522411 
904.000000	 62.503910 
903.000000	 62.495660 
902.000000	 62.497711 
901.000000	 62.507843 
900.000000	 62.522339 
899.000000	 62.536764 
898.000000	 62.547230 
897.000000	 62.551212 
896.000000	 62.548208 
895.000000	 62.539458 
894.000000	 62.527632 
893.000000	 62.515592 
892.000000	 62.505912 
891.000000	 62.500262 
890.000000	 62.498784 
889.000000	 62.500572 
888.000000	 62.503623 
887.000000	 62.505841 
886.000000	 62.505292 
885.000000	 62.500882 
884.000000	 62.492895 
883.000000	 62.482714 
882.000000	 62.472939 
881.000000	 62.466502 
880.000000	 62.466311 
879.000000	 62.474560 
878.000000	 62.491989 
877.000000	 62.517738 
876.000000	 62.549257 
875.000000	 62.582755 
874.000000	 62.614107 
873.000000	 62.639689 
872.000000	 62.657237 
871.000000	 62.666130 
870.000000	 62.667727 
869.000000	 62.664413 
868.000000	 62.659049 
867.000000	 62.653636 
866.000000	 62.648940 
865.000000	 62.644243 
864.000000	 62.637686 
863.000000	 62.627100 
862.000000	 62.611174 
861.000000	 62.589955 
860.000000	 62.565112 
859.000000	 62.539577 
858.000000	 62.517046 
857.000000	 62.500643 
856.000000	 62.491846 
855.000000	 62.490200 
854.000000	 62.493228 
853.000000	 62.497162 
852.000000	 62.498044 
851.000000	 62.492966 
850.000000	 62.480783 
849.000000	 62.462425 
848.000000	 62.440514 
847.000000	 62.418460 
846.000000	 62.399530 
845.000000	 62.385988 
844.000000	 62.378597 
843.000000	 62.376475 
842.000000	 62.377572 
841.000000	 62.379503 
840.000000	 62.380266 
839.000000	 62.378811 
838.000000	 62.375450 
837.000000	 62.371659 
836.000000	 62.369823 
835.000000	 62.371873 
834.000000	 62.379360 
833.000000	 62.392759 
832.000000	 62.411260 
831.000000	 62.432932 
830.000000	 62.455177 
829.000000	 62.475609 
828.000000	 62.492465 
827.000000	 62.505030 
826.000000	 62.513709 
825.000000	 62.519741 
824.000000	 62.524867 
823.000000	 62.530851 
822.000000	 62.538599 
821.000000	 62.547993 
820.000000	 62.558031 
819.000000	 62.567090 
818.000000	 62.573552 
817.000000	 62.576246 
816.000000	 62.575244 
815.000000	 62.571477 
814.000000	 62.566709 
813.000000	 62.562656 
812.000000	 62.560534 
811.000000	 62.560081 
810.000000	 62.559723 
809.000000	 62.556457 
808.000000	 62.546658 
807.000000	 62.527132 
806.000000	 62.496280 
805.000000	 62.454724 
804.000000	 62.405419 
803.000000	 62.353444 
802.000000	 62.304949 
801.000000	 62.266182 
800.000000	 62.241840 
799.000000	 62.234663 
798.000000	 62.244939 
797.000000	 62.270689 
796.000000	 62.308263 
795.000000	 62.353610 
794.000000	 62.402820 
793.000000	 62.452745 
792.000000	 62.501025 
791.000000	 62.545895 
790.000000	 62.585806 
789.000000	 62.619113 
788.000000	 62.643647 
787.000000	 62.657475 
786.000000	 62.658429 
785.000000	 62.645721 
784.000000	 62.619376 
783.000000	 62.580871 
782.000000	 62.532567 
781.000000	 62.478065 
780.000000	 62.421154 
779.000000	 62.365722 
778.000000	 62.315106 
777.000000	 62.272095 
776.000000	 62.238621 
775.000000	 62.215828 
774.000000	 62.204051 
773.000000	 62.203025 
772.000000	 62.211775 
771.000000	 62.228488 
770.000000	 62.250781 
769.000000	 62.275934 
768.000000	 62.300825 
767.000000	 62.322497 
766.000000	 62.338209 
765.000000	 62.345933 
764.000000	 62.344884 
763.000000	 62.335610 
762.000000	 62.319803 
761.000000	 62.300181 
760.000000	 62.280416 
759.000000	 62.264466 
758.000000	 62.255811 
757.000000	 62.256813 
756.000000	 62.268424 
755.000000	 62.289762 
754.000000	 62.318277 
753.000000	 62.350273 
752.000000	 62.381505 
751.000000	 62.408280 
750.000000	 62.427997 
749.000000	 62.439870 
748.000000	 62.444901 
747.000000	 62.445640 
746.000000	 62.445306 
745.000000	 62.446761 
744.000000	 62.451887 
743.000000	 62.460613 
742.000000	 62.471127 
741.000000	 62.480187 
740.000000	 62.484049 
739.000000	 62.479352 
738.000000	 62.464165 
737.000000	 62.438607 
736.000000	 62.404870 
735.000000	 62.366724 
734.000000	 62.328600 
733.000000	 62.294387 
732.000000	 62.266683 
731.000000	 62.246584 
730.000000	 62.233209 
729.000000	 62.224531 
728.000000	 62.217640 
727.000000	 62.210106 
726.000000	 62.199926 
725.000000	 62.186026 
724.000000	 62.167739 
723.000000	 62.144899 
722.000000	 62.117147 
721.000000	 62.083983 
720.000000	 62.044668 
719.000000	 61.998748 
718.000000	 61.946463 
717.000000	 61.889338 
716.000000	 61.830210 
715.000000	 61.772847 
714.000000	 61.721491 
713.000000	 61.680150 
712.000000	 61.651444 
711.000000	 61.636829 
710.000000	 61.636233 
709.000000	 61.648845 
708.000000	 61.672997 
707.000000	 61.706924 
706.000000	 61.748647 
705.000000	 61.796402 
704.000000	 61.847925 
703.000000	 61.901211 
702.000000	 61.953401 
701.000000	 62.002015 
700.000000	 62.045001 
699.000000	 62.081003 
698.000000	 62.109518 
697.000000	 62.130880 
696.000000	 62.146449 
695.000000	 62.157917 
694.000000	 62.167000 
693.000000	 62.174916 
692.000000	 62.182354 
691.000000	 62.188839 
690.000000	 62.193489 
689.000000	 62.194871 
688.000000	 62.191796 
687.000000	 62.183594 
686.000000	 62.170505 
685.000000	 62.153649 
684.000000	 62.134790 
683.000000	 62.115883 
682.000000	 62.098789 
681.000000	 62.084817 
680.000000	 62.075209 
679.000000	 62.071371 
678.000000	 62.074708 
677.000000	 62.086296 
676.000000	 62.106847 
675.000000	 62.136292 
674.000000	 62.173414 
673.000000	 62.215161 
672.000000	 62.257528 
671.000000	 62.296319 
670.000000	 62.327623 
669.000000	 62.348699 
668.000000	 62.357950 
667.000000	 62.355446 
666.000000	 62.341928 
665.000000	 62.318491 
664.000000	 62.286233 
663.000000	 62.246108 
662.000000	 62.199091 
661.000000	 62.146520 
660.000000	 62.090587 
659.000000	 62.034392 
658.000000	 61.982083 
657.000000	 61.937737 
656.000000	 61.903762 
655.000000	 61.880278 
654.000000	 61.864876 
653.000000	 61.853218 
652.000000	 61.839509 
651.000000	 61.818647 
650.000000	 61.787104 
649.000000	 61.744689 
648.000000	 61.694145 
647.000000	 61.641025 
646.000000	 61.591362 
645.000000	 61.551213 
644.000000	 61.524844 
643.000000	 61.513781 
642.000000	 61.516737 
641.000000	 61.529803 
640.000000	 61.547708 
639.000000	 61.564636 
638.000000	 61.575388 
637.000000	 61.576700 
636.000000	 61.567807 
635.000000	 61.550617 
634.000000	 61.529159 
633.000000	 61.510491 
632.000000	 61.503195 
631.000000	 61.516523 
630.000000	 61.557865 
629.000000	 61.631083 
628.000000	 61.734294 
627.000000	 61.860466 
626.000000	 61.997056 
625.000000	 62.127232 
624.000000	 62.233090 
623.000000	 62.299990 
622.000000	 62.319016 
621.000000	 62.287831 
620.000000	 62.212133 
619.000000	 62.105011 
618.000000	 61.983895 
617.000000	 61.867713 
616.000000	 61.772394 
615.000000	 61.709332 
614.000000	 61.681938 
613.000000	 61.686849 
612.000000	 61.713576 
611.000000	 61.748027 
610.000000	 61.774539 
609.000000	 61.779642 
608.000000	 61.754012 
607.000000	 61.694431 
606.000000	 61.604881 
605.000000	 61.496019 
604.000000	 61.383056 
603.000000	 61.283564 
602.000000	 61.214041 
601.000000	 61.188244 
600.000000	 61.214518 
599.000000	 61.295533 
598.000000	 61.428523 
597.000000	 61.605834 
596.000000	 61.816525 
595.000000	 62.046313 
594.000000	 62.279438 
593.000000	 62.498593 
592.000000	 62.686204 
591.000000	 62.826371 
590.000000	 62.907409 
589.000000	 62.922954 
588.000000	 62.874221 
587.000000	 62.768769 
586.000000	 62.620282 
585.000000	 62.446236 
584.000000	 62.266707 
583.000000	 62.099575 
582.000000	 61.958789 
581.000000	 61.853051 
580.000000	 61.786007 
579.000000	 61.755514 
578.000000	 61.755752 
577.000000	 61.778163 
576.000000	 61.814522 
575.000000	 61.858439 
574.000000	 61.907291 
573.000000	 61.960864 
572.000000	 62.021136 
571.000000	 62.090253 
570.000000	 62.169003 
569.000000	 62.255215 
568.000000	 62.342882 
567.000000	 62.424302 
566.000000	 62.489414 
565.000000	 62.528467 
564.000000	 62.533354 
563.000000	 62.500524 
562.000000	 62.431955 
561.000000	 62.333583 
560.000000	 62.218546 
559.000000	 62.106013 
558.000000	 62.017846 
557.000000	 61.974549 
556.000000	 61.991071 
555.000000	 62.073206 
554.000000	 62.215065 
553.000000	 62.399816 
552.000000	 62.601113 
551.000000	 62.788176 
550.000000	 62.933087 
549.000000	 63.016223 
548.000000	 63.028192 
547.000000	 62.971901 
546.000000	 62.861800 
545.000000	 62.719464 
544.000000	 62.568902 
543.000000	 62.430262 
542.000000	 62.319040 
541.000000	 62.240099 
540.000000	 62.190389 
539.000000	 62.157392 
538.000000	 62.125992 
537.000000	 62.078928 
536.000000	 62.002992 
535.000000	 61.889410 
534.000000	 61.734437 
533.000000	 61.541724 
532.000000	 61.320972 
531.000000	 61.087346 
530.000000	 60.857105 
529.000000	 60.649657 
528.000000	 60.484409 
527.000000	 60.379052 
526.000000	 60.346984 
525.000000	 60.395884 
524.000000	 60.526323 
523.000000	 60.730600 
522.000000	 60.994386 
521.000000	 61.296844 
520.000000	 61.615777 
519.000000	 61.929154 
518.000000	 62.220168 
517.000000	 62.479305 
516.000000	 62.703537 
515.000000	 62.896776 
514.000000	 63.062810 
513.000000	 63.205265 
512.000000	 63.319587 
511.000000	 63.398432 
510.000000	 63.425683 
509.000000	 63.384819 
508.000000	 63.259434 
507.000000	 63.044333 
506.000000	 62.742948 
505.000000	 62.371110 
504.000000	 61.954092 
503.000000	 61.523914 
502.000000	 61.114358 
501.000000	 60.756349 
500.000000	 60.474419 
499.000000	 60.284447 
498.000000	 60.195016 
497.000000	 60.207843 
496.000000	 60.318684 
495.000000	 60.517764 
494.000000	 60.790252 
493.000000	 61.115741 
492.000000	 61.466336 
491.000000	 61.809158 
490.000000	 62.108039 
489.000000	 62.329888 
488.000000	 62.447357 
487.000000	 62.447118 
486.000000	 62.333774 
485.000000	 62.130355 
484.000000	 61.875247 
483.000000	 61.614918 
482.000000	 61.397528 
481.000000	 61.259937 
480.000000	 61.223530 
479.000000	 61.286091 
478.000000	 61.425971 
477.000000	 61.603927 
476.000000	 61.774349 
475.000000	 61.893200 
474.000000	 61.927890 
473.000000	 61.863732 
472.000000	 61.706304 
471.000000	 61.477351 
470.000000	 61.209487 
469.000000	 60.939860 
468.000000	 60.702753 
467.000000	 60.524272 
466.000000	 60.418534 
465.000000	 60.389637 
464.000000	 60.431075 
463.000000	 60.528159 
462.000000	 60.661220 
461.000000	 60.808134 
460.000000	 60.948920 
459.000000	 61.067533 
458.000000	 61.153697 
457.000000	 61.202907 
456.000000	 61.214280 
455.000000	 61.187338 
454.000000	 61.122655 
453.000000	 61.022949 
452.000000	 60.891938 
451.000000	 60.734081 
450.000000	 60.558676 
449.000000	 60.382080 
448.000000	 60.220980 
447.000000	 60.090184 
446.000000	 59.998774 
445.000000	 59.948754 
444.000000	 59.937620 
443.000000	 59.960937 
442.000000	 60.011816 
441.000000	 60.084986 
440.000000	 60.179495 
439.000000	 60.299921 
438.000000	 60.450911 
437.000000	 60.637521 
436.000000	 60.860514 
435.000000	 61.116552 
434.000000	 61.396741 
433.000000	 61.689162 
432.000000	 61.975598 
431.000000	 62.242865 
430.000000	 62.480950 
429.000000	 62.694978 
428.000000	 62.903547 
427.000000	 63.137531 
426.000000	 63.431382 
425.000000	 63.813757 
424.000000	 64.299130 
423.000000	 64.877676 
422.000000	 65.518045 
421.000000	 66.158962 
420.000000	 66.720175 
419.000000	 67.119908 
418.000000	 67.293930 
417.000000	 67.199683 
416.000000	 66.826367 
415.000000	 66.203045 
414.000000	 65.393042 
413.000000	 64.477443 
412.000000	 63.547706 
411.000000	 62.682008 
410.000000	 61.947274 
409.000000	 61.416149 
408.000000	 61.146140 
407.000000	 61.166143 
406.000000	 61.468052 
405.000000	 62.015771 
404.000000	 62.732934 
403.000000	 63.493919 
402.000000	 64.165186 
401.000000	 64.622044 
400.000000	 64.790248 
399.000000	 64.653134 
398.000000	 64.272642 
397.000000	 63.760852 
396.000000	 63.282942 
395.000000	 63.021159 
394.000000	 63.126707 
393.000000	 63.678526 
392.000000	 64.694333 
391.000000	 66.123938 
390.000000	 67.876935 
389.000000	 69.822168 
388.000000	 71.816992 
387.000000	 73.686575 
386.000000	 75.216913 
385.000000	 76.152849 
384.000000	 76.228833 
383.000000	 75.209665 
382.000000	 72.966289 
381.000000	 69.507002 
380.000000	 65.033316 
379.000000	 59.893918 
378.000000	 54.542851 
377.000000	 49.464154 
376.000000	 45.047712 
375.000000	 41.609740 
374.000000	 39.328503 
373.000000	 38.312816 
372.000000	 38.564276 
371.000000	 40.083289 
370.000000	 42.849874 

