PE IR       SPECTRUM    SPECTRUM    ASCII       PEDS        1.60        
  -1
BZ3CF5~1.ASC
17/04/07
22:25:15.00
17/04/07
22:25:15.00
tln
$BZ1503107-1_t0111$<tbV0>[13.0,13.0,8.0,0.0,27,1,0]
370.000000
64









2002,4.07    
MIRTGS : RIGHTBACK : INTERNAL 2
MIR : ON : INTERNAL 2
OPTKBR

0.200000
8
8.000000
FILLER
RATIO
SPECTRUM
UNLOCKED 256

DOUBLE
64
COMBINED
1
0
0


1.000000
RATIO


1
0
TRUE
51149
0
LEFT NOT FITTED RIGHT NOT FITTED 0
NONE
NONE
15600
12.000000
4.427000
51148
TRUE
1 0 8 72 0 0 0 0 

15798.010000






#HDR
-1
-1
#GR
CM-1
%T
0.00002384185791015625
0.0
5000.000000
-1.000000
4631
8
74.513721
53.244566
#DATA
5000.000000	64.358997 
4999.000000	63.854074 
4998.000000	63.177847 
4997.000000	62.409639 
4996.000000	61.650061 
4995.000000	60.998821 
4994.000000	60.541486 
4993.000000	60.332655 
4992.000000	60.390543 
4991.000000	60.697984 
4990.000000	61.205267 
4989.000000	61.841750 
4988.000000	62.525701 
4987.000000	63.176798 
4986.000000	63.724803 
4985.000000	64.116191 
4984.000000	64.319539 
4983.000000	64.325952 
4982.000000	64.151358 
4981.000000	63.831686 
4980.000000	63.418579 
4979.000000	62.969565 
4978.000000	62.545275 
4977.000000	62.196421 
4976.000000	61.958026 
4975.000000	61.843252 
4974.000000	61.844444 
4973.000000	61.937856 
4972.000000	62.089943 
4971.000000	62.268471 
4970.000000	62.446022 
4969.000000	62.608981 
4968.000000	62.753844 
4967.000000	62.887883 
4966.000000	63.021349 
4965.000000	63.162183 
4964.000000	63.308262 
4963.000000	63.448858 
4962.000000	63.568258 
4961.000000	63.647723 
4960.000000	63.672375 
4959.000000	63.635826 
4958.000000	63.543677 
4957.000000	63.413429 
4956.000000	63.271427 
4955.000000	63.144350 
4954.000000	63.053035 
4953.000000	63.009428 
4952.000000	63.013577 
4951.000000	63.054990 
4950.000000	63.115477 
4949.000000	63.173604 
4948.000000	63.210725 
4947.000000	63.215541 
4946.000000	63.187026 
4945.000000	63.131475 
4944.000000	63.063097 
4943.000000	62.998342 
4942.000000	62.953853 
4941.000000	62.941598 
4940.000000	62.967586 
4939.000000	63.030433 
4938.000000	63.123226 
4937.000000	63.236761 
4936.000000	63.359928 
4935.000000	63.482260 
4934.000000	63.594222 
4933.000000	63.688254 
4932.000000	63.758063 
4931.000000	63.798499 
4930.000000	63.806700 
4929.000000	63.782691 
4928.000000	63.730359 
4927.000000	63.657236 
4926.000000	63.574266 
4925.000000	63.493943 
4924.000000	63.429045 
4923.000000	63.389873 
4922.000000	63.382315 
4921.000000	63.406252 
4920.000000	63.456106 
4919.000000	63.521385 
4918.000000	63.589406 
4917.000000	63.647890 
4916.000000	63.686442 
4915.000000	63.699650 
4914.000000	63.687443 
4913.000000	63.654994 
4912.000000	63.610744 
4911.000000	63.564229 
4910.000000	63.523602 
4909.000000	63.493514 
4908.000000	63.474822 
4907.000000	63.464426 
4906.000000	63.457131 
4905.000000	63.447308 
4904.000000	63.431119 
4903.000000	63.408136 
4902.000000	63.381576 
4901.000000	63.357329 
4900.000000	63.341927 
4899.000000	63.340282 
4898.000000	63.353586 
4897.000000	63.378334 
4896.000000	63.406467 
4895.000000	63.427376 
4894.000000	63.430309 
4893.000000	63.407707 
4892.000000	63.357067 
4891.000000	63.281226 
4890.000000	63.188219 
4889.000000	63.089275 
4888.000000	62.996387 
4887.000000	62.919831 
4886.000000	62.866067 
4885.000000	62.836742 
4884.000000	62.829279 
4883.000000	62.838101 
4882.000000	62.857151 
4881.000000	62.881135 
4880.000000	62.908172 
4879.000000	62.939524 
4878.000000	62.979269 
4877.000000	63.031744 
4876.000000	63.099598 
4875.000000	63.181495 
4874.000000	63.271617 
4873.000000	63.360071 
4872.000000	63.434839 
4871.000000	63.484668 
4870.000000	63.502192 
4869.000000	63.486051 
4868.000000	63.441276 
4867.000000	63.378310 
4866.000000	63.310718 
4865.000000	63.251757 
4864.000000	63.211011 
4863.000000	63.192510 
4862.000000	63.194775 
4861.000000	63.211655 
4860.000000	63.235330 
4859.000000	63.258099 
4858.000000	63.275313 
4857.000000	63.284802 
4856.000000	63.286471 
4855.000000	63.281321 
4854.000000	63.269639 
4853.000000	63.251376 
4852.000000	63.225483 
4851.000000	63.191437 
4850.000000	63.149976 
4849.000000	63.104033 
4848.000000	63.058757 
4847.000000	63.020253 
4846.000000	62.994313 
4845.000000	62.984848 
4844.000000	62.993168 
4843.000000	63.016676 
4842.000000	63.050270 
4841.000000	63.088202 
4840.000000	63.125467 
4839.000000	63.159322 
4838.000000	63.189148 
4837.000000	63.215708 
4836.000000	63.240432 
4835.000000	63.263845 
4834.000000	63.285231 
4833.000000	63.302350 
4832.000000	63.311862 
4831.000000	63.311624 
4830.000000	63.300132 
4829.000000	63.277769 
4828.000000	63.246440 
4827.000000	63.209438 
4826.000000	63.170909 
4825.000000	63.135194 
4824.000000	63.105916 
4823.000000	63.085460 
4822.000000	63.074159 
4821.000000	63.070273 
4820.000000	63.069820 
4819.000000	63.067698 
4818.000000	63.058280 
4817.000000	63.037276 
4816.000000	63.002228 
4815.000000	62.954211 
4814.000000	62.897729 
4813.000000	62.840819 
4812.000000	62.793374 
4811.000000	62.765359 
4810.000000	62.764334 
4809.000000	62.793612 
4808.000000	62.850975 
4807.000000	62.929248 
4806.000000	63.017678 
4805.000000	63.104176 
4804.000000	63.177728 
4803.000000	63.230562 
4802.000000	63.259148 
4801.000000	63.264656 
4800.000000	63.251638 
4799.000000	63.226532 
4798.000000	63.196063 
4797.000000	63.165211 
4796.000000	63.136768 
4795.000000	63.110303 
4794.000000	63.082933 
4793.000000	63.050580 
4792.000000	63.009953 
4791.000000	62.959575 
4790.000000	62.901234 
4789.000000	62.839508 
4788.000000	62.781453 
4787.000000	62.734627 
4786.000000	62.705755 
4785.000000	62.698745 
4784.000000	62.714314 
4783.000000	62.749862 
4782.000000	62.800025 
4781.000000	62.858009 
4780.000000	62.916445 
4779.000000	62.968492 
4778.000000	63.008904 
4777.000000	63.034081 
4776.000000	63.043069 
4775.000000	63.036918 
4774.000000	63.018918 
4773.000000	62.993478 
4772.000000	62.965822 
4771.000000	62.941169 
4770.000000	62.923574 
4769.000000	62.915802 
4768.000000	62.917995 
4767.000000	62.927913 
4766.000000	62.941789 
4765.000000	62.955355 
4764.000000	62.964892 
4763.000000	62.968015 
4762.000000	62.964820 
4761.000000	62.957096 
4760.000000	62.947225 
4759.000000	62.937474 
4758.000000	62.928748 
4757.000000	62.920904 
4756.000000	62.913250 
4755.000000	62.905049 
4754.000000	62.896513 
4753.000000	62.888431 
4752.000000	62.882375 
4751.000000	62.879920 
4750.000000	62.881612 
4749.000000	62.887549 
4748.000000	62.897205 
4747.000000	62.910103 
4746.000000	62.925767 
4745.000000	62.944650 
4744.000000	62.967896 
4743.000000	62.997078 
4742.000000	63.033580 
4741.000000	63.077855 
4740.000000	63.129258 
4739.000000	63.185834 
4738.000000	63.244509 
4737.000000	63.302421 
4736.000000	63.356828 
4735.000000	63.405895 
4734.000000	63.447833 
4733.000000	63.480710 
4732.000000	63.501572 
4731.000000	63.506722 
4730.000000	63.492035 
4729.000000	63.454627 
4728.000000	63.393616 
4727.000000	63.312458 
4726.000000	63.217878 
4725.000000	63.119649 
4724.000000	63.028526 
4723.000000	62.954306 
4722.000000	62.903833 
4721.000000	62.879824 
4720.000000	62.880373 
4719.000000	62.899780 
4718.000000	62.929844 
4717.000000	62.961721 
4716.000000	62.987828 
4715.000000	63.002872 
4714.000000	63.004493 
4713.000000	62.992858 
4712.000000	62.969803 
4711.000000	62.937855 
4710.000000	62.899374 
4709.000000	62.856292 
4708.000000	62.810063 
4707.000000	62.762236 
4706.000000	62.714886 
4705.000000	62.671136 
4704.000000	62.635087 
4703.000000	62.611532 
4702.000000	62.604689 
4701.000000	62.617349 
4700.000000	62.649989 
4699.000000	62.700080 
4698.000000	62.761664 
4697.000000	62.826871 
4696.000000	62.886857 
4695.000000	62.934207 
4694.000000	62.963938 
4693.000000	62.975358 
4692.000000	62.971949 
4691.000000	62.960481 
4690.000000	62.949085 
4689.000000	62.945246 
4688.000000	62.954044 
4687.000000	62.976837 
4686.000000	63.011527 
4685.000000	63.052868 
4684.000000	63.094401 
4683.000000	63.130116 
4682.000000	63.156318 
4681.000000	63.172745 
4680.000000	63.182616 
4679.000000	63.191485 
4678.000000	63.206005 
4677.000000	63.231945 
4676.000000	63.272380 
4675.000000	63.326692 
4674.000000	63.390421 
4673.000000	63.456416 
4672.000000	63.516306 
4671.000000	63.562488 
4670.000000	63.589644 
4669.000000	63.596248 
4668.000000	63.584089 
4667.000000	63.558030 
4666.000000	63.523602 
4665.000000	63.486027 
4664.000000	63.447952 
4663.000000	63.409709 
4662.000000	63.369035 
4661.000000	63.322687 
4660.000000	63.268423 
4659.000000	63.206934 
4658.000000	63.142395 
4657.000000	63.082289 
4656.000000	63.035702 
4655.000000	63.011217 
4654.000000	63.014173 
4653.000000	63.045334 
4652.000000	63.100242 
4651.000000	63.170242 
4650.000000	63.244247 
4649.000000	63.311576 
4648.000000	63.364243 
4647.000000	63.398718 
4646.000000	63.415813 
4645.000000	63.420200 
4644.000000	63.418602 
4643.000000	63.417673 
4642.000000	63.421964 
4641.000000	63.432931 
4640.000000	63.449668 
4639.000000	63.468408 
4638.000000	63.484787 
4637.000000	63.494324 
4636.000000	63.494443 
4635.000000	63.484358 
4634.000000	63.465261 
4633.000000	63.440108 
4632.000000	63.412952 
4631.000000	63.388586 
4630.000000	63.371872 
4629.000000	63.366794 
4628.000000	63.375902 
4627.000000	63.400602 
4626.000000	63.440465 
4625.000000	63.492846 
4624.000000	63.553237 
4623.000000	63.615703 
4622.000000	63.673925 
4621.000000	63.721609 
4620.000000	63.753914 
4619.000000	63.768267 
4618.000000	63.764309 
4617.000000	63.744592 
4616.000000	63.712906 
4615.000000	63.674020 
4614.000000	63.631391 
4613.000000	63.587641 
4612.000000	63.542842 
4611.000000	63.495755 
4610.000000	63.444256 
4609.000000	63.386845 
4608.000000	63.324284 
4607.000000	63.259816 
4606.000000	63.200163 
4605.000000	63.154292 
4604.000000	63.131976 
4603.000000	63.141417 
4602.000000	63.187003 
4601.000000	63.267898 
4600.000000	63.377594 
4599.000000	63.505291 
4598.000000	63.637256 
4597.000000	63.759970 
4596.000000	63.862538 
4595.000000	63.938522 
4594.000000	63.986325 
4593.000000	64.008688 
4592.000000	64.011502 
4591.000000	64.001131 
4590.000000	63.983654 
4589.000000	63.962197 
4588.000000	63.938164 
4587.000000	63.910007 
4586.000000	63.875770 
4585.000000	63.833355 
4584.000000	63.782572 
4583.000000	63.725495 
4582.000000	63.666939 
4581.000000	63.613629 
4580.000000	63.572692 
4579.000000	63.550758 
4578.000000	63.552308 
4577.000000	63.578939 
4576.000000	63.628840 
4575.000000	63.697266 
4574.000000	63.777494 
4573.000000	63.861775 
4572.000000	63.943004 
4571.000000	64.015603 
4570.000000	64.076471 
4569.000000	64.124488 
4568.000000	64.160370 
4567.000000	64.186620 
4566.000000	64.205932 
4565.000000	64.220762 
4564.000000	64.231991 
4563.000000	64.240288 
4562.000000	64.244103 
4561.000000	64.242029 
4560.000000	64.230966 
4559.000000	64.208197 
4558.000000	64.170646 
4557.000000	64.116740 
4556.000000	64.046144 
4555.000000	63.960528 
4554.000000	63.864016 
4553.000000	63.763141 
4552.000000	63.666367 
4551.000000	63.582921 
4550.000000	63.521504 
4549.000000	63.488554 
4548.000000	63.486766 
4547.000000	63.514351 
4546.000000	63.564610 
4545.000000	63.627266 
4544.000000	63.690209 
4543.000000	63.742256 
4542.000000	63.774275 
4541.000000	63.781714 
4540.000000	63.765263 
4539.000000	63.730454 
4538.000000	63.685584 
4537.000000	63.640189 
4536.000000	63.602828 
4535.000000	63.579130 
4534.000000	63.571476 
4533.000000	63.578104 
4532.000000	63.594675 
4531.000000	63.615226 
4530.000000	63.634371 
4529.000000	63.648343 
4528.000000	63.655877 
4527.000000	63.658094 
4526.000000	63.657641 
4525.000000	63.657569 
4524.000000	63.659882 
4523.000000	63.665199 
4522.000000	63.672351 
4521.000000	63.678812 
4520.000000	63.681435 
4519.000000	63.677859 
4518.000000	63.666772 
4517.000000	63.648128 
4516.000000	63.623189 
4515.000000	63.593959 
4514.000000	63.563561 
4513.000000	63.534593 
4512.000000	63.510417 
4511.000000	63.494014 
4510.000000	63.488650 
4509.000000	63.496971 
4508.000000	63.520717 
4507.000000	63.560342 
4506.000000	63.613891 
4505.000000	63.676738 
4504.000000	63.741970 
4503.000000	63.801527 
4502.000000	63.847589 
4501.000000	63.873982 
4500.000000	63.877701 
4499.000000	63.859629 
4498.000000	63.823866 
4497.000000	63.776826 
4496.000000	63.725304 
4495.000000	63.675117 
4494.000000	63.629817 
4493.000000	63.591027 
4492.000000	63.559007 
4491.000000	63.534045 
4490.000000	63.516521 
4489.000000	63.508486 
4488.000000	63.513755 
4487.000000	63.537359 
4486.000000	63.583397 
4485.000000	63.654184 
4484.000000	63.748121 
4483.000000	63.859987 
4482.000000	63.980650 
4481.000000	64.099454 
4480.000000	64.206099 
4479.000000	64.292931 
4478.000000	64.356708 
4477.000000	64.398264 
4476.000000	64.421010 
4475.000000	64.431238 
4474.000000	64.438223 
4473.000000	64.446640 
4472.000000	64.454555 
4471.000000	64.458155 
4470.000000	64.454650 
4469.000000	64.438915 
4468.000000	64.406943 
4467.000000	64.363527 
4466.000000	64.321970 
4465.000000	64.300107 
4464.000000	64.315986 
4463.000000	64.383602 
4462.000000	64.507675 
4461.000000	64.679527 
4460.000000	64.879441 
4459.000000	65.080380 
4458.000000	65.255498 
4457.000000	65.384507 
4456.000000	65.458655 
4455.000000	65.485167 
4454.000000	65.479326 
4453.000000	65.466547 
4452.000000	65.459895 
4451.000000	65.458703 
4450.000000	65.435409 
4449.000000	65.350031 
4448.000000	65.141558 
4447.000000	64.747714 
4446.000000	64.116358 
4445.000000	63.226485 
4444.000000	62.087774 
4443.000000	60.746073 
4442.000000	59.280061 
4441.000000	57.791996 
4440.000000	56.390833 
4439.000000	55.177402 
4438.000000	54.229831 
4437.000000	53.593683 
4436.000000	53.275012 
4435.000000	53.244566 
4434.000000	53.437256 
4433.000000	53.773975 
4432.000000	54.163074 
4431.000000	54.533743 
4430.000000	54.825615 
4429.000000	55.023550 
4428.000000	55.140781 
4427.000000	55.230998 
4426.000000	55.360293 
4425.000000	55.601239 
4424.000000	56.006479 
4423.000000	56.601500 
4422.000000	57.374644 
4421.000000	58.283996 
4420.000000	59.266638 
4419.000000	60.255670 
4418.000000	61.195588 
4417.000000	62.046217 
4416.000000	62.785625 
4415.000000	63.409233 
4414.000000	63.923048 
4413.000000	64.334058 
4412.000000	64.643669 
4411.000000	64.855933 
4410.000000	64.972496 
4409.000000	64.996337 
4408.000000	64.931249 
4407.000000	64.796686 
4406.000000	64.617252 
4405.000000	64.422011 
4404.000000	64.236879 
4403.000000	64.083361 
4402.000000	63.973498 
4401.000000	63.911724 
4400.000000	63.894128 
4399.000000	63.910722 
4398.000000	63.950014 
4397.000000	64.003491 
4396.000000	64.065504 
4395.000000	64.130163 
4394.000000	64.196395 
4393.000000	64.265704 
4392.000000	64.340519 
4391.000000	64.420890 
4390.000000	64.506840 
4389.000000	64.597702 
4388.000000	64.688467 
4387.000000	64.770293 
4386.000000	64.836359 
4385.000000	64.882445 
4384.000000	64.905190 
4383.000000	64.903044 
4382.000000	64.878606 
4381.000000	64.836978 
4380.000000	64.783716 
4379.000000	64.724445 
4378.000000	64.665246 
4377.000000	64.610791 
4376.000000	64.565110 
4375.000000	64.529776 
4374.000000	64.504647 
4373.000000	64.487338 
4372.000000	64.474534 
4371.000000	64.462041 
4370.000000	64.445424 
4369.000000	64.421415 
4368.000000	64.388322 
4367.000000	64.346957 
4366.000000	64.300251 
4365.000000	64.252996 
4364.000000	64.210367 
4363.000000	64.177608 
4362.000000	64.158868 
4361.000000	64.156126 
4360.000000	64.168620 
4359.000000	64.193558 
4358.000000	64.226317 
4357.000000	64.261007 
4356.000000	64.291357 
4355.000000	64.311599 
4354.000000	64.317250 
4353.000000	64.305448 
4352.000000	64.275646 
4351.000000	64.229798 
4350.000000	64.172148 
4349.000000	64.108800 
4348.000000	64.046239 
4347.000000	63.990497 
4346.000000	63.946032 
4345.000000	63.915014 
4344.000000	63.897657 
4343.000000	63.892602 
4342.000000	63.897562 
4341.000000	63.909840 
4340.000000	63.927102 
4339.000000	63.947343 
4338.000000	63.968777 
4337.000000	63.989591 
4336.000000	64.007711 
4335.000000	64.020681 
4334.000000	64.026570 
4333.000000	64.024305 
4332.000000	64.014387 
4331.000000	63.998770 
4330.000000	63.981294 
4329.000000	63.966417 
4328.000000	63.958191 
4327.000000	63.958954 
4326.000000	63.968729 
4325.000000	63.984584 
4324.000000	64.002251 
4323.000000	64.016199 
4322.000000	64.021778 
4321.000000	64.015126 
4320.000000	63.994479 
4319.000000	63.959336 
4318.000000	63.910937 
4317.000000	63.851308 
4316.000000	63.782715 
4315.000000	63.707876 
4314.000000	63.629913 
4313.000000	63.553047 
4312.000000	63.482189 
4311.000000	63.423180 
4310.000000	63.381886 
4309.000000	63.363122 
4308.000000	63.369560 
4307.000000	63.400506 
4306.000000	63.451743 
4305.000000	63.515901 
4304.000000	63.583588 
4303.000000	63.644981 
4302.000000	63.691687 
4301.000000	63.717722 
4300.000000	63.721060 
4299.000000	63.703155 
4298.000000	63.668942 
4297.000000	63.625502 
4296.000000	63.580584 
4295.000000	63.541746 
4294.000000	63.513994 
4293.000000	63.500022 
4292.000000	63.498830 
4291.000000	63.507032 
4290.000000	63.519310 
4289.000000	63.529896 
4288.000000	63.534092 
4287.000000	63.529133 
4286.000000	63.515067 
4285.000000	63.494300 
4284.000000	63.471579 
4283.000000	63.452506 
4282.000000	63.442325 
4281.000000	63.444447 
4280.000000	63.459897 
4279.000000	63.486933 
4278.000000	63.521599 
4277.000000	63.558626 
4276.000000	63.592410 
4275.000000	63.618230 
4274.000000	63.633155 
4273.000000	63.636612 
4272.000000	63.629746 
4271.000000	63.615226 
4270.000000	63.596630 
4269.000000	63.577222 
4268.000000	63.559651 
4267.000000	63.544917 
4266.000000	63.532519 
4265.000000	63.520765 
4264.000000	63.507723 
4263.000000	63.491654 
4262.000000	63.471722 
4261.000000	63.448500 
4260.000000	63.423919 
4259.000000	63.400816 
4258.000000	63.382005 
4257.000000	63.369297 
4256.000000	63.362860 
4255.000000	63.360810 
4254.000000	63.359785 
4253.000000	63.355445 
4252.000000	63.343739 
4251.000000	63.322114 
4250.000000	63.290214 
4249.000000	63.250303 
4248.000000	63.206815 
4247.000000	63.165283 
4246.000000	63.131308 
4245.000000	63.108897 
4244.000000	63.100266 
4243.000000	63.105273 
4242.000000	63.122177 
4241.000000	63.147902 
4240.000000	63.179183 
4239.000000	63.213038 
4238.000000	63.247299 
4237.000000	63.280391 
4236.000000	63.311505 
4235.000000	63.340020 
4234.000000	63.365364 
4233.000000	63.386678 
4232.000000	63.402915 
4231.000000	63.412952 
4230.000000	63.416075 
4229.000000	63.412475 
4228.000000	63.402748 
4227.000000	63.388347 
4226.000000	63.370919 
4225.000000	63.352346 
4224.000000	63.334083 
4223.000000	63.317131 
4222.000000	63.302040 
4221.000000	63.288998 
4220.000000	63.278293 
4219.000000	63.270497 
4218.000000	63.266468 
4217.000000	63.267302 
4216.000000	63.274145 
4215.000000	63.287329 
4214.000000	63.306498 
4213.000000	63.329315 
4212.000000	63.351845 
4211.000000	63.368988 
4210.000000	63.375401 
4209.000000	63.367033 
4208.000000	63.342118 
4207.000000	63.302278 
4206.000000	63.252377 
4205.000000	63.199710 
4204.000000	63.152384 
4203.000000	63.117551 
4202.000000	63.099884 
4201.000000	63.100647 
4200.000000	63.117408 
4199.000000	63.144850 
4198.000000	63.175845 
4197.000000	63.203287 
4196.000000	63.221454 
4195.000000	63.226914 
4194.000000	63.218832 
4193.000000	63.198614 
4192.000000	63.169288 
4191.000000	63.134455 
4190.000000	63.097667 
4189.000000	63.062071 
4188.000000	63.030147 
4187.000000	63.003587 
4186.000000	62.983679 
4185.000000	62.971329 
4184.000000	62.967538 
4183.000000	62.973022 
4182.000000	62.988901 
4181.000000	63.016152 
4180.000000	63.055729 
4179.000000	63.107705 
4178.000000	63.170647 
4177.000000	63.241124 
4176.000000	63.313484 
4175.000000	63.380646 
4174.000000	63.434600 
4173.000000	63.467860 
4172.000000	63.475275 
4171.000000	63.455176 
4170.000000	63.410162 
4169.000000	63.346338 
4168.000000	63.272690 
4167.000000	63.198804 
4166.000000	63.132905 
4165.000000	63.080096 
4164.000000	63.041734 
4163.000000	63.015651 
4162.000000	62.997508 
4161.000000	62.982535 
4160.000000	62.967324 
4159.000000	62.950968 
4158.000000	62.934613 
4157.000000	62.921881 
4156.000000	62.916326 
4155.000000	62.921571 
4154.000000	62.939310 
4153.000000	62.969422 
4152.000000	63.009619 
4151.000000	63.056445 
4150.000000	63.105940 
4149.000000	63.154149 
4148.000000	63.197708 
4147.000000	63.233923 
4146.000000	63.260817 
4145.000000	63.276910 
4144.000000	63.281178 
4143.000000	63.273644 
4142.000000	63.255405 
4141.000000	63.228988 
4140.000000	63.198232 
4139.000000	63.167858 
4138.000000	63.142657 
4137.000000	63.126993 
4136.000000	63.123893 
4135.000000	63.134169 
4134.000000	63.156437 
4133.000000	63.188195 
4132.000000	63.225507 
4131.000000	63.263964 
4130.000000	63.299226 
4129.000000	63.327622 
4128.000000	63.346552 
4127.000000	63.354468 
4126.000000	63.351202 
4125.000000	63.337516 
4124.000000	63.315534 
4123.000000	63.288307 
4122.000000	63.259768 
4121.000000	63.234114 
4120.000000	63.215303 
4119.000000	63.206315 
4118.000000	63.208413 
4117.000000	63.220787 
4116.000000	63.240671 
4115.000000	63.264155 
4114.000000	63.286757 
4113.000000	63.304710 
4112.000000	63.315773 
4111.000000	63.320159 
4110.000000	63.320159 
4109.000000	63.320112 
4108.000000	63.324928 
4107.000000	63.338851 
4106.000000	63.364720 
4105.000000	63.402438 
4104.000000	63.449382 
4103.000000	63.500308 
4102.000000	63.548684 
4101.000000	63.587856 
4100.000000	63.612794 
4099.000000	63.620877 
4098.000000	63.612127 
4097.000000	63.589358 
4096.000000	63.557410 
4095.000000	63.521885 
4094.000000	63.487958 
4093.000000	63.459300 
4092.000000	63.437676 
4091.000000	63.422846 
4090.000000	63.413310 
4089.000000	63.407063 
4088.000000	63.402628 
4087.000000	63.399457 
4086.000000	63.398408 
4085.000000	63.401198 
4084.000000	63.410115 
4083.000000	63.426709 
4082.000000	63.451409 
4081.000000	63.483238 
4080.000000	63.519430 
4079.000000	63.556122 
4078.000000	63.588571 
4077.000000	63.612127 
4076.000000	63.622784 
4075.000000	63.617968 
4074.000000	63.596987 
4073.000000	63.561344 
4072.000000	63.514566 
4071.000000	63.461399 
4070.000000	63.407325 
4069.000000	63.357925 
4068.000000	63.317704 
4067.000000	63.289594 
4066.000000	63.274502 
4065.000000	63.271522 
4064.000000	63.278007 
4063.000000	63.290452 
4062.000000	63.304924 
4061.000000	63.317918 
4060.000000	63.326811 
4059.000000	63.330459 
4058.000000	63.328599 
4057.000000	63.322615 
4056.000000	63.314151 
4055.000000	63.305664 
4054.000000	63.299727 
4053.000000	63.298654 
4052.000000	63.304114 
4051.000000	63.316750 
4050.000000	63.335847 
4049.000000	63.359045 
4048.000000	63.383221 
4047.000000	63.404464 
4046.000000	63.419103 
4045.000000	63.424444 
4044.000000	63.419532 
4043.000000	63.405251 
4042.000000	63.384127 
4041.000000	63.359642 
4040.000000	63.335633 
4039.000000	63.315296 
4038.000000	63.300633 
4037.000000	63.292145 
4036.000000	63.289046 
4035.000000	63.289713 
4034.000000	63.292241 
4033.000000	63.294959 
4032.000000	63.296842 
4031.000000	63.297605 
4030.000000	63.297700 
4029.000000	63.297414 
4028.000000	63.297486 
4027.000000	63.298487 
4026.000000	63.301444 
4025.000000	63.307499 
4024.000000	63.318371 
4023.000000	63.335871 
4022.000000	63.362121 
4021.000000	63.398528 
4020.000000	63.445472 
4019.000000	63.501882 
4018.000000	63.564491 
4017.000000	63.628411 
4016.000000	63.687229 
4015.000000	63.734292 
4014.000000	63.763427 
4013.000000	63.770365 
4012.000000	63.753223 
4011.000000	63.713145 
4010.000000	63.654088 
4009.000000	63.581943 
4008.000000	63.503789 
4007.000000	63.426518 
4006.000000	63.355946 
4005.000000	63.296222 
4004.000000	63.249492 
4003.000000	63.216257 
4002.000000	63.195633 
4001.000000	63.186407 
4000.000000	63.187170 
3999.000000	63.196992 
3998.000000	63.214778 
3997.000000	63.239598 
3996.000000	63.269686 
3995.000000	63.302707 
3994.000000	63.335418 
3993.000000	63.363981 
3992.000000	63.384675 
3991.000000	63.394284 
3990.000000	63.391113 
3989.000000	63.374829 
3988.000000	63.346791 
3987.000000	63.309502 
3986.000000	63.266181 
3985.000000	63.219904 
3984.000000	63.173437 
3983.000000	63.128685 
3982.000000	63.086915 
3981.000000	63.049244 
3980.000000	63.016700 
3979.000000	62.990593 
3978.000000	62.972474 
3977.000000	62.963271 
3976.000000	62.963533 
3975.000000	62.972450 
3974.000000	62.988853 
3973.000000	63.010191 
3972.000000	63.034129 
3971.000000	63.058304 
3970.000000	63.081598 
3969.000000	63.103604 
3968.000000	63.124942 
3967.000000	63.146448 
3966.000000	63.168907 
3965.000000	63.192486 
3964.000000	63.216686 
3963.000000	63.240265 
3962.000000	63.261818 
3961.000000	63.280320 
3960.000000	63.295459 
3959.000000	63.307785 
3958.000000	63.318228 
3957.000000	63.327789 
3956.000000	63.337063 
3955.000000	63.345885 
3954.000000	63.353180 
3953.000000	63.357496 
3952.000000	63.357734 
3951.000000	63.353705 
3950.000000	63.346338 
3949.000000	63.337659 
3948.000000	63.330602 
3947.000000	63.327884 
3946.000000	63.331532 
3945.000000	63.341927 
3944.000000	63.357830 
3943.000000	63.376474 
3942.000000	63.394498 
3941.000000	63.408756 
3940.000000	63.416981 
3939.000000	63.418531 
3938.000000	63.414263 
3937.000000	63.406181 
3936.000000	63.396716 
3935.000000	63.388276 
3934.000000	63.382482 
3933.000000	63.380026 
3932.000000	63.380622 
3931.000000	63.383746 
3930.000000	63.388872 
3929.000000	63.395643 
3928.000000	63.404083 
3927.000000	63.414430 
3926.000000	63.426995 
3925.000000	63.441634 
3924.000000	63.457417 
3923.000000	63.473010 
3922.000000	63.486695 
3921.000000	63.496971 
3920.000000	63.502883 
3919.000000	63.503861 
3918.000000	63.500237 
3917.000000	63.493084 
3916.000000	63.484430 
3915.000000	63.476419 
3914.000000	63.471579 
3913.000000	63.472175 
3912.000000	63.479733 
3911.000000	63.494586 
3910.000000	63.515710 
3909.000000	63.540911 
3908.000000	63.566613 
3907.000000	63.588500 
3906.000000	63.602161 
3905.000000	63.603758 
3904.000000	63.590574 
3903.000000	63.561749 
3902.000000	63.517904 
3901.000000	63.461375 
3900.000000	63.395881 
3899.000000	63.326501 
3898.000000	63.258576 
3897.000000	63.197684 
3896.000000	63.149857 
3895.000000	63.120746 
3894.000000	63.114857 
3893.000000	63.134765 
3892.000000	63.180160 
3891.000000	63.247609 
3890.000000	63.330173 
3889.000000	63.419365 
3888.000000	63.505601 
3887.000000	63.581109 
3886.000000	63.640642 
3885.000000	63.682961 
3884.000000	63.710474 
3883.000000	63.728308 
3882.000000	63.742780 
3881.000000	63.758850 
3880.000000	63.778781 
3879.000000	63.801074 
3878.000000	63.821220 
3877.000000	63.832283 
3876.000000	63.827204 
3875.000000	63.800406 
3874.000000	63.749694 
3873.000000	63.676357 
3872.000000	63.585114 
3871.000000	63.483166 
3870.000000	63.379144 
3869.000000	63.281726 
3868.000000	63.198924 
3867.000000	63.137125 
3866.000000	63.100600 
3865.000000	63.091063 
3864.000000	63.107728 
3863.000000	63.147211 
3862.000000	63.204312 
3861.000000	63.272190 
3860.000000	63.343882 
3859.000000	63.412022 
3858.000000	63.471078 
3857.000000	63.517594 
3856.000000	63.550710 
3855.000000	63.571286 
3854.000000	63.582015 
3853.000000	63.586544 
3852.000000	63.588452 
3851.000000	63.590312 
3850.000000	63.593602 
3849.000000	63.598442 
3848.000000	63.604187 
3847.000000	63.609576 
3846.000000	63.612914 
3845.000000	63.612341 
3844.000000	63.606190 
3843.000000	63.593482 
3842.000000	63.573718 
3841.000000	63.547515 
3840.000000	63.516926 
3839.000000	63.485050 
3838.000000	63.455486 
3837.000000	63.431572 
3836.000000	63.416433 
3835.000000	63.411450 
3834.000000	63.416028 
3833.000000	63.427519 
3832.000000	63.441634 
3831.000000	63.453507 
3830.000000	63.458704 
3829.000000	63.454198 
3828.000000	63.438844 
3827.000000	63.413810 
3826.000000	63.382363 
3825.000000	63.348770 
3824.000000	63.317131 
3823.000000	63.290953 
3822.000000	63.272261 
3821.000000	63.261556 
3820.000000	63.258099 
3819.000000	63.260436 
3818.000000	63.267207 
3817.000000	63.277316 
3816.000000	63.290357 
3815.000000	63.306498 
3814.000000	63.326358 
3813.000000	63.350152 
3812.000000	63.377761 
3811.000000	63.408207 
3810.000000	63.439846 
3809.000000	63.470721 
3808.000000	63.498830 
3807.000000	63.522386 
3806.000000	63.539981 
3805.000000	63.551115 
3804.000000	63.555788 
3803.000000	63.554382 
3802.000000	63.547515 
3801.000000	63.536143 
3800.000000	63.521289 
3799.000000	63.504171 
3798.000000	63.485980 
3797.000000	63.467884 
3796.000000	63.450694 
3795.000000	63.434791 
3794.000000	63.419890 
3793.000000	63.405251 
3792.000000	63.389563 
3791.000000	63.371682 
3790.000000	63.350963 
3789.000000	63.327813 
3788.000000	63.303732 
3787.000000	63.281679 
3786.000000	63.264918 
3785.000000	63.257026 
3784.000000	63.260507 
3783.000000	63.276696 
3782.000000	63.304710 
3781.000000	63.341951 
3780.000000	63.384532 
3779.000000	63.428020 
3778.000000	63.468122 
3777.000000	63.501429 
3776.000000	63.525867 
3775.000000	63.540649 
3774.000000	63.546133 
3773.000000	63.543295 
3772.000000	63.533449 
3771.000000	63.517832 
3770.000000	63.497686 
3769.000000	63.473868 
3768.000000	63.447499 
3767.000000	63.419795 
3766.000000	63.392448 
3765.000000	63.367509 
3764.000000	63.347053 
3763.000000	63.333082 
3762.000000	63.326692 
3761.000000	63.327884 
3760.000000	63.335490 
3759.000000	63.347077 
3758.000000	63.359832 
3757.000000	63.370728 
3756.000000	63.377690 
3755.000000	63.379406 
3754.000000	63.376498 
3753.000000	63.370609 
3752.000000	63.364481 
3751.000000	63.360786 
3750.000000	63.361811 
3749.000000	63.368701 
3748.000000	63.381075 
3747.000000	63.397192 
3746.000000	63.414263 
3745.000000	63.429379 
3744.000000	63.439702 
3743.000000	63.443136 
3742.000000	63.438487 
3741.000000	63.425683 
3740.000000	63.405370 
3739.000000	63.379001 
3738.000000	63.348531 
3737.000000	63.316369 
3736.000000	63.285279 
3735.000000	63.257932 
3734.000000	63.236808 
3733.000000	63.223624 
3732.000000	63.219094 
3731.000000	63.222575 
3730.000000	63.232278 
3729.000000	63.245415 
3728.000000	63.258552 
3727.000000	63.268637 
3726.000000	63.273358 
3725.000000	63.272070 
3724.000000	63.265514 
3723.000000	63.255739 
3722.000000	63.245153 
3721.000000	63.236117 
3720.000000	63.230252 
3719.000000	63.227915 
3718.000000	63.228178 
3717.000000	63.229131 
3716.000000	63.228511 
3715.000000	63.224244 
3714.000000	63.215231 
3713.000000	63.201308 
3712.000000	63.183450 
3711.000000	63.163423 
3710.000000	63.143539 
3709.000000	63.125896 
3708.000000	63.112187 
3707.000000	63.103151 
3706.000000	63.098573 
3705.000000	63.097500 
3704.000000	63.098573 
3703.000000	63.099765 
3702.000000	63.099718 
3701.000000	63.097429 
3700.000000	63.093471 
3699.000000	63.089466 
3698.000000	63.088393 
3697.000000	63.093662 
3696.000000	63.108253 
3695.000000	63.134002 
3694.000000	63.170385 
3693.000000	63.214612 
3692.000000	63.261485 
3691.000000	63.304543 
3690.000000	63.337349 
3689.000000	63.354921 
3688.000000	63.354778 
3687.000000	63.337588 
3686.000000	63.306975 
3685.000000	63.268613 
3684.000000	63.229084 
3683.000000	63.194680 
3682.000000	63.169908 
3681.000000	63.157105 
3680.000000	63.156890 
3679.000000	63.168263 
3678.000000	63.189578 
3677.000000	63.218688 
3676.000000	63.253688 
3675.000000	63.292574 
3674.000000	63.333058 
3673.000000	63.372540 
3672.000000	63.407969 
3671.000000	63.436341 
3670.000000	63.455080 
3669.000000	63.462781 
3668.000000	63.459682 
3667.000000	63.447833 
3666.000000	63.430929 
3665.000000	63.413357 
3664.000000	63.399338 
3663.000000	63.391804 
3662.000000	63.391947 
3661.000000	63.398575 
3660.000000	63.408708 
3659.000000	63.418102 
3658.000000	63.422369 
3657.000000	63.417983 
3656.000000	63.403081 
3655.000000	63.377594 
3654.000000	63.343214 
3653.000000	63.302731 
3652.000000	63.259649 
3651.000000	63.217377 
3650.000000	63.179016 
3649.000000	63.146972 
3648.000000	63.123154 
3647.000000	63.108611 
3646.000000	63.103914 
3645.000000	63.108897 
3644.000000	63.123059 
3643.000000	63.144636 
3642.000000	63.171982 
3641.000000	63.202857 
3640.000000	63.235592 
3639.000000	63.268661 
3638.000000	63.301610 
3637.000000	63.334751 
3636.000000	63.368964 
3635.000000	63.404822 
3634.000000	63.442063 
3633.000000	63.479280 
3632.000000	63.513755 
3631.000000	63.541889 
3630.000000	63.560104 
3629.000000	63.565659 
3628.000000	63.557863 
3627.000000	63.538217 
3626.000000	63.509988 
3625.000000	63.477754 
3624.000000	63.446235 
3623.000000	63.419365 
3622.000000	63.399624 
3621.000000	63.387894 
3620.000000	63.383698 
3619.000000	63.385820 
3618.000000	63.392877 
3617.000000	63.403749 
3616.000000	63.417863 
3615.000000	63.434672 
3614.000000	63.453459 
3613.000000	63.472747 
3612.000000	63.489890 
3611.000000	63.501572 
3610.000000	63.504266 
3609.000000	63.495230 
3608.000000	63.473200 
3607.000000	63.439297 
3606.000000	63.397240 
3605.000000	63.352656 
3604.000000	63.312029 
3603.000000	63.281702 
3602.000000	63.266587 
3601.000000	63.268947 
3600.000000	63.288235 
3599.000000	63.321089 
3598.000000	63.362097 
3597.000000	63.404941 
3596.000000	63.443589 
3595.000000	63.473033 
3594.000000	63.490414 
3593.000000	63.494682 
3592.000000	63.487005 
3591.000000	63.469552 
3590.000000	63.445496 
3589.000000	63.418316 
3588.000000	63.391232 
3587.000000	63.367366 
3586.000000	63.349056 
3585.000000	63.338088 
3584.000000	63.335204 
3583.000000	63.340306 
3582.000000	63.352060 
3581.000000	63.368272 
3580.000000	63.386154 
3579.000000	63.402915 
3578.000000	63.416194 
3577.000000	63.424587 
3576.000000	63.427901 
3575.000000	63.427352 
3574.000000	63.424992 
3573.000000	63.423132 
3572.000000	63.423752 
3571.000000	63.427782 
3570.000000	63.435220 
3569.000000	63.445091 
3568.000000	63.456082 
3567.000000	63.466644 
3566.000000	63.475942 
3565.000000	63.483548 
3564.000000	63.489723 
3563.000000	63.494896 
3562.000000	63.499307 
3561.000000	63.502645 
3560.000000	63.504409 
3559.000000	63.503694 
3558.000000	63.499784 
3557.000000	63.492274 
3556.000000	63.481402 
3555.000000	63.467884 
3554.000000	63.452768 
3553.000000	63.437104 
3552.000000	63.421726 
3551.000000	63.406801 
3550.000000	63.392066 
3549.000000	63.377046 
3548.000000	63.361573 
3547.000000	63.346004 
3546.000000	63.331246 
3545.000000	63.318777 
3544.000000	63.310170 
3543.000000	63.306522 
3542.000000	63.308310 
3541.000000	63.314914 
3540.000000	63.324832 
3539.000000	63.335990 
3538.000000	63.346195 
3537.000000	63.353610 
3536.000000	63.357090 
3535.000000	63.356351 
3534.000000	63.351869 
3533.000000	63.344860 
3532.000000	63.336491 
3531.000000	63.327717 
3530.000000	63.318777 
3529.000000	63.309407 
3528.000000	63.298606 
3527.000000	63.285470 
3526.000000	63.269138 
3525.000000	63.249373 
3524.000000	63.226890 
3523.000000	63.203501 
3522.000000	63.181543 
3521.000000	63.163590 
3520.000000	63.152194 
3519.000000	63.149166 
3518.000000	63.155245 
3517.000000	63.169717 
3516.000000	63.190674 
3515.000000	63.215446 
3514.000000	63.240981 
3513.000000	63.264393 
3512.000000	63.283443 
3511.000000	63.296651 
3510.000000	63.303184 
3509.000000	63.302874 
3508.000000	63.296079 
3507.000000	63.283276 
3506.000000	63.265347 
3505.000000	63.243269 
3504.000000	63.218331 
3503.000000	63.192129 
3502.000000	63.166427 
3501.000000	63.143301 
3500.000000	63.124918 
3499.000000	63.113546 
3498.000000	63.111233 
3497.000000	63.119363 
3496.000000	63.138318 
3495.000000	63.167166 
3494.000000	63.203692 
3493.000000	63.244152 
3492.000000	63.284063 
3491.000000	63.318514 
3490.000000	63.343524 
3489.000000	63.356518 
3488.000000	63.357162 
3487.000000	63.347554 
3486.000000	63.331890 
3485.000000	63.315796 
3484.000000	63.304591 
3483.000000	63.302612 
3482.000000	63.311839 
3481.000000	63.331794 
3480.000000	63.359594 
3479.000000	63.391065 
3478.000000	63.421630 
3477.000000	63.447523 
3476.000000	63.465905 
3475.000000	63.475537 
3474.000000	63.476204 
3473.000000	63.468432 
3472.000000	63.452887 
3471.000000	63.430333 
3470.000000	63.401579 
3469.000000	63.367724 
3468.000000	63.330411 
3467.000000	63.291716 
3466.000000	63.254213 
3465.000000	63.220715 
3464.000000	63.193535 
3463.000000	63.174057 
3462.000000	63.162207 
3461.000000	63.156867 
3460.000000	63.156008 
3459.000000	63.157582 
3458.000000	63.159942 
3457.000000	63.162183 
3456.000000	63.164305 
3455.000000	63.166904 
3454.000000	63.170528 
3453.000000	63.175559 
3452.000000	63.181567 
3451.000000	63.187384 
3450.000000	63.191413 
3449.000000	63.192081 
3448.000000	63.188242 
3447.000000	63.179779 
3446.000000	63.167643 
3445.000000	63.153910 
3444.000000	63.141226 
3443.000000	63.132309 
3442.000000	63.129401 
3441.000000	63.133668 
3440.000000	63.145136 
3439.000000	63.162684 
3438.000000	63.184571 
3437.000000	63.208484 
3436.000000	63.232445 
3435.000000	63.254904 
3434.000000	63.275241 
3433.000000	63.293218 
3432.000000	63.309144 
3431.000000	63.323712 
3430.000000	63.337397 
3429.000000	63.350319 
3428.000000	63.362121 
3427.000000	63.372349 
3426.000000	63.380455 
3425.000000	63.386106 
3424.000000	63.389420 
3423.000000	63.391137 
3422.000000	63.392376 
3421.000000	63.394498 
3420.000000	63.398528 
3419.000000	63.404798 
3418.000000	63.412976 
3417.000000	63.421940 
3416.000000	63.430047 
3415.000000	63.435459 
3414.000000	63.436913 
3413.000000	63.434267 
3412.000000	63.428401 
3411.000000	63.421392 
3410.000000	63.416075 
3409.000000	63.415551 
3408.000000	63.422203 
3407.000000	63.437390 
3406.000000	63.461089 
3405.000000	63.491964 
3404.000000	63.527536 
3403.000000	63.565135 
3402.000000	63.602209 
3401.000000	63.636922 
3400.000000	63.668322 
3399.000000	63.695931 
3398.000000	63.719677 
3397.000000	63.739228 
3396.000000	63.753890 
3395.000000	63.761997 
3394.000000	63.761615 
3393.000000	63.750839 
3392.000000	63.728523 
3391.000000	63.694739 
3390.000000	63.650989 
3389.000000	63.600349 
3388.000000	63.546967 
3387.000000	63.495278 
3386.000000	63.449382 
3385.000000	63.412284 
3384.000000	63.385844 
3383.000000	63.370656 
3382.000000	63.366508 
3381.000000	63.372421 
3380.000000	63.387131 
3379.000000	63.409137 
3378.000000	63.436865 
3377.000000	63.468074 
3376.000000	63.500165 
3375.000000	63.530230 
3374.000000	63.555407 
3373.000000	63.573002 
3372.000000	63.581323 
3371.000000	63.580322 
3370.000000	63.571429 
3369.000000	63.557314 
3368.000000	63.541221 
3367.000000	63.526582 
3366.000000	63.515877 
3365.000000	63.510441 
3364.000000	63.510084 
3363.000000	63.513731 
3362.000000	63.519811 
3361.000000	63.526916 
3360.000000	63.534069 
3359.000000	63.540887 
3358.000000	63.547635 
3357.000000	63.555026 
3356.000000	63.563346 
3355.000000	63.572502 
3354.000000	63.582015 
3353.000000	63.590669 
3352.000000	63.597035 
3351.000000	63.599276 
3350.000000	63.596081 
3349.000000	63.586306 
3348.000000	63.569641 
3347.000000	63.546133 
3346.000000	63.516497 
3345.000000	63.481831 
3344.000000	63.443899 
3343.000000	63.404774 
3342.000000	63.366770 
3341.000000	63.332176 
3340.000000	63.303112 
3339.000000	63.281250 
3338.000000	63.267517 
3337.000000	63.262033 
3336.000000	63.264226 
3335.000000	63.272953 
3334.000000	63.286638 
3333.000000	63.303613 
3332.000000	63.322186 
3331.000000	63.340783 
3330.000000	63.358092 
3329.000000	63.372945 
3328.000000	63.384413 
3327.000000	63.391757 
3326.000000	63.394355 
3325.000000	63.392043 
3324.000000	63.384795 
3323.000000	63.373303 
3322.000000	63.358640 
3321.000000	63.342118 
3320.000000	63.325071 
3319.000000	63.308954 
3318.000000	63.294649 
3317.000000	63.282537 
3316.000000	63.272476 
3315.000000	63.264107 
3314.000000	63.256955 
3313.000000	63.250494 
3312.000000	63.244652 
3311.000000	63.239645 
3310.000000	63.235902 
3309.000000	63.233804 
3308.000000	63.233494 
3307.000000	63.234639 
3306.000000	63.236522 
3305.000000	63.238358 
3304.000000	63.239288 
3303.000000	63.238692 
3302.000000	63.236546 
3301.000000	63.233351 
3300.000000	63.229942 
3299.000000	63.227391 
3298.000000	63.226604 
3297.000000	63.228344 
3296.000000	63.232636 
3295.000000	63.239097 
3294.000000	63.247036 
3293.000000	63.255739 
3292.000000	63.264513 
3291.000000	63.273072 
3290.000000	63.281464 
3289.000000	63.289833 
3288.000000	63.298606 
3287.000000	63.307714 
3286.000000	63.316535 
3285.000000	63.323998 
3284.000000	63.328552 
3283.000000	63.328409 
3282.000000	63.321852 
3281.000000	63.307905 
3280.000000	63.286471 
3279.000000	63.258647 
3278.000000	63.226461 
3277.000000	63.192749 
3276.000000	63.160562 
3275.000000	63.132810 
3274.000000	63.111543 
3273.000000	63.097834 
3272.000000	63.091301 
3271.000000	63.090467 
3270.000000	63.093328 
3269.000000	63.097238 
3268.000000	63.100290 
3267.000000	63.101243 
3266.000000	63.100051 
3265.000000	63.097763 
3264.000000	63.096261 
3263.000000	63.097500 
3262.000000	63.103485 
3261.000000	63.115143 
3260.000000	63.132476 
3259.000000	63.154578 
3258.000000	63.179564 
3257.000000	63.205218 
3256.000000	63.229370 
3255.000000	63.250422 
3254.000000	63.267374 
3253.000000	63.279962 
3252.000000	63.288474 
3251.000000	63.293290 
3250.000000	63.295078 
3249.000000	63.293957 
3248.000000	63.289594 
3247.000000	63.281130 
3246.000000	63.267803 
3245.000000	63.248872 
3244.000000	63.224124 
3243.000000	63.194155 
3242.000000	63.160586 
3241.000000	63.125967 
3240.000000	63.093376 
3239.000000	63.065886 
3238.000000	63.046145 
3237.000000	63.035798 
3236.000000	63.035130 
3235.000000	63.042926 
3234.000000	63.056564 
3233.000000	63.072633 
3232.000000	63.087391 
3231.000000	63.097667 
3230.000000	63.101220 
3229.000000	63.097095 
3228.000000	63.085770 
3227.000000	63.068938 
3226.000000	63.048958 
3225.000000	63.028526 
3224.000000	63.010120 
3223.000000	62.995576 
3222.000000	62.985873 
3221.000000	62.981009 
3220.000000	62.980294 
3219.000000	62.982702 
3218.000000	62.987160 
3217.000000	62.992596 
3216.000000	62.998390 
3215.000000	63.004207 
3214.000000	63.010048 
3213.000000	63.015675 
3212.000000	63.020849 
3211.000000	63.025140 
3210.000000	63.028001 
3209.000000	63.028907 
3208.000000	63.027620 
3207.000000	63.024568 
3206.000000	63.020825 
3205.000000	63.017797 
3204.000000	63.017129 
3203.000000	63.020181 
3202.000000	63.027596 
3201.000000	63.039016 
3200.000000	63.053035 
3199.000000	63.067555 
3198.000000	63.080430 
3197.000000	63.090109 
3196.000000	63.096046 
3195.000000	63.098978 
3194.000000	63.100767 
3193.000000	63.103890 
3192.000000	63.110876 
3191.000000	63.123536 
3190.000000	63.142466 
3189.000000	63.166880 
3188.000000	63.194894 
3187.000000	63.223767 
3186.000000	63.250684 
3185.000000	63.273048 
3184.000000	63.289093 
3183.000000	63.298010 
3182.000000	63.300013 
3181.000000	63.295984 
3180.000000	63.287353 
3179.000000	63.275575 
3178.000000	63.262200 
3177.000000	63.248538 
3176.000000	63.235712 
3175.000000	63.224387 
3174.000000	63.215017 
3173.000000	63.207674 
3172.000000	63.202190 
3171.000000	63.197922 
3170.000000	63.194155 
3169.000000	63.190078 
3168.000000	63.184976 
3167.000000	63.178467 
3166.000000	63.170790 
3165.000000	63.162541 
3164.000000	63.154911 
3163.000000	63.149285 
3162.000000	63.147044 
3161.000000	63.149118 
3160.000000	63.155865 
3159.000000	63.166880 
3158.000000	63.180994 
3157.000000	63.196468 
3156.000000	63.211154 
3155.000000	63.222932 
3154.000000	63.230061 
3153.000000	63.231325 
3152.000000	63.226366 
3151.000000	63.215756 
3150.000000	63.200831 
3149.000000	63.183450 
3148.000000	63.165616 
3147.000000	63.149333 
3146.000000	63.136148 
3145.000000	63.127183 
3144.000000	63.123035 
3143.000000	63.123846 
3142.000000	63.129281 
3141.000000	63.138818 
3140.000000	63.151693 
3139.000000	63.167095 
3138.000000	63.183760 
3137.000000	63.200449 
3136.000000	63.215541 
3135.000000	63.227844 
3134.000000	63.236284 
3133.000000	63.240861 
3132.000000	63.242340 
3131.000000	63.242435 
3130.000000	63.243627 
3129.000000	63.248205 
3128.000000	63.257861 
3127.000000	63.272809 
3126.000000	63.291859 
3125.000000	63.312339 
3124.000000	63.330626 
3123.000000	63.343191 
3122.000000	63.347482 
3121.000000	63.342761 
3120.000000	63.330221 
3119.000000	63.312864 
3118.000000	63.294720 
3117.000000	63.279509 
3116.000000	63.269758 
3115.000000	63.266277 
3114.000000	63.267779 
3113.000000	63.271856 
3112.000000	63.275575 
3111.000000	63.276553 
3110.000000	63.274002 
3109.000000	63.268923 
3108.000000	63.263964 
3107.000000	63.262319 
3106.000000	63.267087 
3105.000000	63.280200 
3104.000000	63.301968 
3103.000000	63.330602 
3102.000000	63.362860 
3101.000000	63.394880 
3100.000000	63.423085 
3099.000000	63.444805 
3098.000000	63.458967 
3097.000000	63.466167 
3096.000000	63.468003 
3095.000000	63.466596 
3094.000000	63.463950 
3093.000000	63.461422 
3092.000000	63.459467 
3091.000000	63.457679 
3090.000000	63.455295 
3089.000000	63.451313 
3088.000000	63.445186 
3087.000000	63.436770 
3086.000000	63.426494 
3085.000000	63.415169 
3084.000000	63.403534 
3083.000000	63.392233 
3082.000000	63.381481 
3081.000000	63.371014 
3080.000000	63.360381 
3079.000000	63.349032 
3078.000000	63.336586 
3077.000000	63.323044 
3076.000000	63.308811 
3075.000000	63.294482 
3074.000000	63.280797 
3073.000000	63.268351 
3072.000000	63.257431 
3071.000000	63.247966 
3070.000000	63.239526 
3069.000000	63.231515 
3068.000000	63.223338 
3067.000000	63.214850 
3066.000000	63.206195 
3065.000000	63.198113 
3064.000000	63.191509 
3063.000000	63.187265 
3062.000000	63.185906 
3061.000000	63.187289 
3060.000000	63.190698 
3059.000000	63.194799 
3058.000000	63.197994 
3057.000000	63.198542 
3056.000000	63.195347 
3055.000000	63.187980 
3054.000000	63.176941 
3053.000000	63.163495 
3052.000000	63.149666 
3051.000000	63.137507 
3050.000000	63.129115 
3049.000000	63.125991 
3048.000000	63.128972 
3047.000000	63.138008 
3046.000000	63.152241 
3045.000000	63.170099 
3044.000000	63.189673 
3043.000000	63.208723 
3042.000000	63.225173 
3041.000000	63.237380 
3040.000000	63.244438 
3039.000000	63.246273 
3038.000000	63.243818 
3037.000000	63.238739 
3036.000000	63.233208 
3035.000000	63.229298 
3034.000000	63.228654 
3033.000000	63.231945 
3032.000000	63.238620 
3031.000000	63.246893 
3030.000000	63.254332 
3029.000000	63.258218 
3028.000000	63.256287 
3027.000000	63.247370 
3026.000000	63.231611 
3025.000000	63.210630 
3024.000000	63.187193 
3023.000000	63.164496 
3022.000000	63.145446 
3021.000000	63.131999 
3020.000000	63.124799 
3019.000000	63.122987 
3018.000000	63.124537 
3017.000000	63.127017 
3016.000000	63.128423 
3015.000000	63.127565 
3014.000000	63.124299 
3013.000000	63.119602 
3012.000000	63.115167 
3011.000000	63.112568 
3010.000000	63.112878 
3009.000000	63.116359 
3008.000000	63.122367 
3007.000000	63.129687 
3006.000000	63.136911 
3005.000000	63.142848 
3004.000000	63.146781 
3003.000000	63.148665 
3002.000000	63.149118 
3001.000000	63.148880 
3000.000000	63.148641 
2999.000000	63.148856 
2998.000000	63.149452 
2997.000000	63.150405 
2996.000000	63.150954 
2995.000000	63.150644 
2994.000000	63.148593 
2993.000000	63.144063 
2992.000000	63.135981 
2991.000000	63.123345 
2990.000000	63.105273 
2989.000000	63.081359 
2988.000000	63.051915 
2987.000000	63.018226 
2986.000000	62.982583 
2985.000000	62.947845 
2984.000000	62.917089 
2983.000000	62.893199 
2982.000000	62.878179 
2981.000000	62.872910 
2980.000000	62.876939 
2979.000000	62.888741 
2978.000000	62.906122 
2977.000000	62.926626 
2976.000000	62.947940 
2975.000000	62.968111 
2974.000000	62.985801 
2973.000000	63.000011 
2972.000000	63.009858 
2971.000000	63.014578 
2970.000000	63.013505 
2969.000000	63.006019 
2968.000000	62.992000 
2967.000000	62.971782 
2966.000000	62.946295 
2965.000000	62.917280 
2964.000000	62.887144 
2963.000000	62.858772 
2962.000000	62.835144 
2961.000000	62.818932 
2960.000000	62.812232 
2959.000000	62.815904 
2958.000000	62.829470 
2957.000000	62.851095 
2956.000000	62.878012 
2955.000000	62.906813 
2954.000000	62.934064 
2953.000000	62.957000 
2952.000000	62.973761 
2951.000000	62.983679 
2950.000000	62.987089 
2949.000000	62.985205 
2948.000000	62.979435 
2947.000000	62.971115 
2946.000000	62.961196 
2945.000000	62.950181 
2944.000000	62.938284 
2943.000000	62.925910 
2942.000000	62.913894 
2941.000000	62.903475 
2940.000000	62.896180 
2939.000000	62.893676 
2938.000000	62.897133 
2937.000000	62.906765 
2936.000000	62.921762 
2935.000000	62.940216 
2934.000000	62.959504 
2933.000000	62.976908 
2932.000000	62.990117 
2931.000000	62.997627 
2930.000000	62.998986 
2929.000000	62.994909 
2928.000000	62.986707 
2927.000000	62.976074 
2926.000000	62.964653 
2925.000000	62.953710 
2924.000000	62.944102 
2923.000000	62.936210 
2922.000000	62.930345 
2921.000000	62.926554 
2920.000000	62.924790 
2919.000000	62.924909 
2918.000000	62.926506 
2917.000000	62.928915 
2916.000000	62.931036 
2915.000000	62.931823 
2914.000000	62.930130 
2913.000000	62.925410 
2912.000000	62.917590 
2911.000000	62.907552 
2910.000000	62.896656 
2909.000000	62.886619 
2908.000000	62.879014 
2907.000000	62.874770 
2906.000000	62.874031 
2905.000000	62.876009 
2904.000000	62.879157 
2903.000000	62.881684 
2902.000000	62.882208 
2901.000000	62.880182 
2900.000000	62.876296 
2899.000000	62.872290 
2898.000000	62.870550 
2897.000000	62.873506 
2896.000000	62.882900 
2895.000000	62.899279 
2894.000000	62.921762 
2893.000000	62.948107 
2892.000000	62.975168 
2891.000000	62.999701 
2890.000000	63.018751 
2889.000000	63.030242 
2888.000000	63.033246 
2887.000000	63.027954 
2886.000000	63.015818 
2885.000000	62.999033 
2884.000000	62.980532 
2883.000000	62.963247 
2882.000000	62.949967 
2881.000000	62.943053 
2880.000000	62.944054 
2879.000000	62.953591 
2878.000000	62.971186 
2877.000000	62.995409 
2876.000000	63.023972 
2875.000000	63.054180 
2874.000000	63.082909 
2873.000000	63.107419 
2872.000000	63.125681 
2871.000000	63.136768 
2870.000000	63.140821 
2869.000000	63.139176 
2868.000000	63.134074 
2867.000000	63.128042 
2866.000000	63.123607 
2865.000000	63.122534 
2864.000000	63.125801 
2863.000000	63.133049 
2862.000000	63.143038 
2861.000000	63.153624 
2860.000000	63.162255 
2859.000000	63.166761 
2858.000000	63.165616 
2857.000000	63.158440 
2856.000000	63.145971 
2855.000000	63.129758 
2854.000000	63.112068 
2853.000000	63.095355 
2852.000000	63.081860 
2851.000000	63.073301 
2850.000000	63.070797 
2849.000000	63.074827 
2848.000000	63.085079 
2847.000000	63.100743 
2846.000000	63.120627 
2845.000000	63.143086 
2844.000000	63.166332 
2843.000000	63.188791 
2842.000000	63.209080 
2841.000000	63.226175 
2840.000000	63.239169 
2839.000000	63.247537 
2838.000000	63.250756 
2837.000000	63.248419 
2836.000000	63.240313 
2835.000000	63.226532 
2834.000000	63.207530 
2833.000000	63.184523 
2832.000000	63.159322 
2831.000000	63.134431 
2830.000000	63.112521 
2829.000000	63.096046 
2828.000000	63.086795 
2827.000000	63.085341 
2826.000000	63.090991 
2825.000000	63.101768 
2824.000000	63.115000 
2823.000000	63.127875 
2822.000000	63.137960 
2821.000000	63.143730 
2820.000000	63.144683 
2819.000000	63.141202 
2818.000000	63.134288 
2817.000000	63.125157 
2816.000000	63.115215 
2815.000000	63.105487 
2814.000000	63.097000 
2813.000000	63.090205 
2812.000000	63.085389 
2811.000000	63.082480 
2810.000000	63.081121 
2809.000000	63.080549 
2808.000000	63.079738 
2807.000000	63.077569 
2806.000000	63.072896 
2805.000000	63.065028 
2804.000000	63.053798 
2803.000000	63.039851 
2802.000000	63.024592 
2801.000000	63.009929 
2800.000000	62.997889 
2799.000000	62.990140 
2798.000000	62.987685 
2797.000000	62.990546 
2796.000000	62.997746 
2795.000000	63.007473 
2794.000000	63.017702 
2793.000000	63.026356 
2792.000000	63.031959 
2791.000000	63.033628 
2790.000000	63.031458 
2789.000000	63.026309 
2788.000000	63.019704 
2787.000000	63.013410 
2786.000000	63.009095 
2785.000000	63.008022 
2784.000000	63.010859 
2783.000000	63.017725 
2782.000000	63.028192 
2781.000000	63.041353 
2780.000000	63.055992 
2779.000000	63.070988 
2778.000000	63.085150 
2777.000000	63.097548 
2776.000000	63.107514 
2775.000000	63.114523 
2774.000000	63.118553 
2773.000000	63.119769 
2772.000000	63.118720 
2771.000000	63.116002 
2770.000000	63.112258 
2769.000000	63.108038 
2768.000000	63.103556 
2767.000000	63.098812 
2766.000000	63.093400 
2765.000000	63.086819 
2764.000000	63.078594 
2763.000000	63.068413 
2762.000000	63.056421 
2761.000000	63.043212 
2760.000000	63.029837 
2759.000000	63.017416 
2758.000000	63.007140 
2757.000000	62.999725 
2756.000000	62.995409 
2755.000000	62.993717 
2754.000000	62.993669 
2753.000000	62.993907 
2752.000000	62.992954 
2751.000000	62.989735 
2750.000000	62.983870 
2749.000000	62.975573 
2748.000000	62.965703 
2747.000000	62.955617 
2746.000000	62.946915 
2745.000000	62.941002 
2744.000000	62.938857 
2743.000000	62.940669 
2742.000000	62.946033 
2741.000000	62.953996 
2740.000000	62.963247 
2739.000000	62.972688 
2738.000000	62.981557 
2737.000000	62.989759 
2736.000000	62.997603 
2735.000000	63.005709 
2734.000000	63.014602 
2733.000000	63.024449 
2732.000000	63.034892 
2731.000000	63.045001 
2730.000000	63.053345 
2729.000000	63.058495 
2728.000000	63.059353 
2727.000000	63.055300 
2726.000000	63.046574 
2725.000000	63.034105 
2724.000000	63.019585 
2723.000000	63.004755 
2722.000000	62.991499 
2721.000000	62.981319 
2720.000000	62.975072 
2719.000000	62.973070 
2718.000000	62.974834 
2717.000000	62.979412 
2716.000000	62.985301 
2715.000000	62.990808 
2714.000000	62.994289 
2713.000000	62.994551 
2712.000000	62.991046 
2711.000000	62.984108 
2710.000000	62.974977 
2709.000000	62.965559 
2708.000000	62.958121 
2707.000000	62.954521 
2706.000000	62.955927 
2705.000000	62.962269 
2704.000000	62.972211 
2703.000000	62.983345 
2702.000000	62.992787 
2701.000000	62.997961 
2700.000000	62.997031 
2699.000000	62.989711 
2698.000000	62.977051 
2697.000000	62.961554 
2696.000000	62.946248 
2695.000000	62.934184 
2694.000000	62.927508 
2693.000000	62.927389 
2692.000000	62.933468 
2691.000000	62.944316 
2690.000000	62.957930 
2689.000000	62.972235 
2688.000000	62.985610 
2687.000000	62.997126 
2686.000000	63.006520 
2685.000000	63.014006 
2684.000000	63.019895 
2683.000000	63.024353 
2682.000000	63.027095 
2681.000000	63.027834 
2680.000000	63.026070 
2679.000000	63.021755 
2678.000000	63.015103 
2677.000000	63.006901 
2676.000000	62.998342 
2675.000000	62.990736 
2674.000000	62.985324 
2673.000000	62.982916 
2672.000000	62.983822 
2671.000000	62.987923 
2670.000000	62.994647 
2669.000000	63.003444 
2668.000000	63.013601 
2667.000000	63.024449 
2666.000000	63.035273 
2665.000000	63.045215 
2664.000000	63.053321 
2663.000000	63.058567 
2662.000000	63.060283 
2661.000000	63.058090 
2660.000000	63.052415 
2659.000000	63.044381 
2658.000000	63.035488 
2657.000000	63.027262 
2656.000000	63.020825 
2655.000000	63.016653 
2654.000000	63.014316 
2653.000000	63.012933 
2652.000000	63.011264 
2651.000000	63.008356 
2650.000000	63.003945 
2649.000000	62.998771 
2648.000000	62.994170 
2647.000000	62.991952 
2646.000000	62.993884 
2645.000000	63.001036 
2644.000000	63.013410 
2643.000000	63.029909 
2642.000000	63.048553 
2641.000000	63.066744 
2640.000000	63.082265 
2639.000000	63.093233 
2638.000000	63.098645 
2637.000000	63.098430 
2636.000000	63.093447 
2635.000000	63.085198 
2634.000000	63.075590 
2633.000000	63.066601 
2632.000000	63.059830 
2631.000000	63.056397 
2630.000000	63.056612 
2629.000000	63.059997 
2628.000000	63.065457 
2627.000000	63.071656 
2626.000000	63.077211 
2625.000000	63.081097 
2624.000000	63.082671 
2623.000000	63.081932 
2622.000000	63.079261 
2621.000000	63.075399 
2620.000000	63.071084 
2619.000000	63.067007 
2618.000000	63.063669 
2617.000000	63.061332 
2616.000000	63.060235 
2615.000000	63.060593 
2614.000000	63.062977 
2613.000000	63.068008 
2612.000000	63.076329 
2611.000000	63.088297 
2610.000000	63.103938 
2609.000000	63.122558 
2608.000000	63.143181 
2607.000000	63.164472 
2606.000000	63.185000 
2605.000000	63.203334 
2604.000000	63.218212 
2603.000000	63.228607 
2602.000000	63.233494 
2601.000000	63.232374 
2600.000000	63.225197 
2599.000000	63.212466 
2598.000000	63.195443 
2597.000000	63.175702 
2596.000000	63.155269 
2595.000000	63.135981 
2594.000000	63.119339 
2593.000000	63.106107 
2592.000000	63.096261 
2591.000000	63.089275 
2590.000000	63.084125 
2589.000000	63.080024 
2588.000000	63.076663 
2587.000000	63.074445 
2586.000000	63.074469 
2585.000000	63.077878 
2584.000000	63.085627 
2583.000000	63.097691 
2582.000000	63.112926 
2581.000000	63.129162 
2580.000000	63.143515 
2579.000000	63.153123 
2578.000000	63.155674 
2577.000000	63.149952 
2576.000000	63.136053 
2575.000000	63.115143 
2574.000000	63.089442 
2573.000000	63.061642 
2572.000000	63.034439 
2571.000000	63.010072 
2570.000000	62.990140 
2569.000000	62.975406 
2568.000000	62.965965 
2567.000000	62.961363 
2566.000000	62.961101 
2565.000000	62.964439 
2564.000000	62.970757 
2563.000000	62.979412 
2562.000000	62.989759 
2561.000000	63.000893 
2560.000000	63.011741 
2559.000000	63.021063 
2558.000000	63.027715 
2557.000000	63.030791 
2556.000000	63.030147 
2555.000000	63.026332 
2554.000000	63.020706 
2553.000000	63.015365 
2552.000000	63.012456 
2551.000000	63.013768 
2550.000000	63.020157 
2549.000000	63.031077 
2548.000000	63.044762 
2547.000000	63.058233 
2546.000000	63.068461 
2545.000000	63.072705 
2544.000000	63.069629 
2543.000000	63.059353 
2542.000000	63.043475 
2541.000000	63.024735 
2540.000000	63.006472 
2539.000000	62.991690 
2538.000000	62.982678 
2537.000000	62.980341 
2536.000000	62.984418 
2535.000000	62.993597 
2534.000000	63.005971 
2533.000000	63.019466 
2532.000000	63.032150 
2531.000000	63.042593 
2530.000000	63.050079 
2529.000000	63.054203 
2528.000000	63.054871 
2527.000000	63.052105 
2526.000000	63.045883 
2525.000000	63.036084 
2524.000000	63.022685 
2523.000000	63.005757 
2522.000000	62.985682 
2521.000000	62.963223 
2520.000000	62.939715 
2519.000000	62.916874 
2518.000000	62.896656 
2517.000000	62.880897 
2516.000000	62.871074 
2515.000000	62.868094 
2514.000000	62.872147 
2513.000000	62.882471 
2512.000000	62.897586 
2511.000000	62.915325 
2510.000000	62.933397 
2509.000000	62.949442 
2508.000000	62.961530 
2507.000000	62.968111 
2506.000000	62.968516 
2505.000000	62.962722 
2504.000000	62.951445 
2503.000000	62.935853 
2502.000000	62.917423 
2501.000000	62.897706 
2500.000000	62.878084 
2499.000000	62.859725 
2498.000000	62.843394 
2497.000000	62.829542 
2496.000000	62.818622 
2495.000000	62.811136 
2494.000000	62.807464 
2493.000000	62.808084 
2492.000000	62.813258 
2491.000000	62.822842 
2490.000000	62.836313 
2489.000000	62.852716 
2488.000000	62.870502 
2487.000000	62.888145 
2486.000000	62.904024 
2485.000000	62.916922 
2484.000000	62.926030 
2483.000000	62.931036 
2482.000000	62.932157 
2481.000000	62.929987 
2480.000000	62.925386 
2479.000000	62.919354 
2478.000000	62.912845 
2477.000000	62.906551 
2476.000000	62.900900 
2475.000000	62.895965 
2474.000000	62.891507 
2473.000000	62.886524 
2472.000000	62.879776 
2471.000000	62.869739 
2470.000000	62.855291 
2469.000000	62.835931 
2468.000000	62.812185 
2467.000000	62.785840 
2466.000000	62.759804 
2465.000000	62.737512 
2464.000000	62.722492 
2463.000000	62.717413 
2462.000000	62.723779 
2461.000000	62.741422 
2460.000000	62.768626 
2459.000000	62.802267 
2458.000000	62.838411 
2457.000000	62.873148 
2456.000000	62.903141 
2455.000000	62.925791 
2454.000000	62.939763 
2453.000000	62.945151 
2452.000000	62.943148 
2451.000000	62.935757 
2450.000000	62.925314 
2449.000000	62.914323 
2448.000000	62.904739 
2447.000000	62.898087 
2446.000000	62.894749 
2445.000000	62.894272 
2444.000000	62.895345 
2443.000000	62.896418 
2442.000000	62.895870 
2441.000000	62.892627 
2440.000000	62.886595 
2439.000000	62.878608 
2438.000000	62.870430 
2437.000000	62.864184 
2436.000000	62.861919 
2435.000000	62.864613 
2434.000000	62.872028 
2433.000000	62.882137 
2432.000000	62.891960 
2431.000000	62.897634 
2430.000000	62.895822 
2429.000000	62.884211 
2428.000000	62.862253 
2427.000000	62.831711 
2426.000000	62.796282 
2425.000000	62.760949 
2424.000000	62.730741 
2423.000000	62.710046 
2422.000000	62.701630 
2421.000000	62.706160 
2420.000000	62.722277 
2419.000000	62.746906 
2418.000000	62.776207 
2417.000000	62.806200 
2416.000000	62.833428 
2415.000000	62.855339 
2414.000000	62.870717 
2413.000000	62.879276 
2412.000000	62.881755 
2411.000000	62.879681 
2410.000000	62.874984 
2409.000000	62.870192 
2408.000000	62.867474 
2407.000000	62.868952 
2406.000000	62.875699 
2405.000000	62.888145 
2404.000000	62.905478 
2403.000000	62.925863 
2402.000000	62.946581 
2401.000000	62.964653 
2400.000000	62.977266 
2399.000000	62.982535 
2398.000000	62.979578 
2397.000000	62.969017 
2396.000000	62.952423 
2395.000000	62.932133 
2394.000000	62.910628 
2393.000000	62.890195 
2392.000000	62.872266 
2391.000000	62.857484 
2390.000000	62.845730 
2389.000000	62.836360 
2388.000000	62.828779 
2387.000000	62.822604 
2386.000000	62.817645 
2385.000000	62.814140 
2384.000000	62.812590 
2383.000000	62.813663 
2382.000000	62.817668 
2381.000000	62.824726 
2380.000000	62.834525 
2379.000000	62.846517 
2378.000000	62.859964 
2377.000000	62.873959 
2376.000000	62.887811 
2375.000000	62.900876 
2374.000000	62.912631 
2373.000000	62.922739 
2372.000000	62.931060 
2371.000000	62.937474 
2370.000000	62.942028 
2369.000000	62.944746 
2368.000000	62.945914 
2367.000000	62.945699 
2366.000000	62.944364 
2365.000000	62.941980 
2364.000000	62.938475 
2363.000000	62.933683 
2362.000000	62.927460 
2361.000000	62.919712 
2360.000000	62.910532 
2359.000000	62.900328 
2358.000000	62.889909 
2357.000000	62.880516 
2356.000000	62.873411 
2355.000000	62.869858 
2354.000000	62.870645 
2353.000000	62.876033 
2352.000000	62.885689 
2351.000000	62.898397 
2350.000000	62.912678 
2349.000000	62.926673 
2348.000000	62.938833 
2347.000000	62.947654 
2346.000000	62.952399 
2345.000000	62.952899 
2344.000000	62.949895 
2343.000000	62.944221 
2342.000000	62.937307 
2341.000000	62.930655 
2340.000000	62.925577 
2339.000000	62.923288 
2338.000000	62.924504 
2337.000000	62.929391 
2336.000000	62.937569 
2335.000000	62.948060 
2334.000000	62.959289 
2333.000000	62.969374 
2332.000000	62.976455 
2331.000000	62.979078 
2330.000000	62.976264 
2329.000000	62.967991 
2328.000000	62.955284 
2327.000000	62.939834 
2326.000000	62.923741 
2325.000000	62.908864 
2324.000000	62.896609 
2323.000000	62.887191 
2322.000000	62.880110 
2321.000000	62.873816 
2320.000000	62.866473 
2319.000000	62.856292 
2318.000000	62.842249 
2317.000000	62.824249 
2316.000000	62.803268 
2315.000000	62.781262 
2314.000000	62.760615 
2313.000000	62.743806 
2312.000000	62.732720 
2311.000000	62.728333 
2310.000000	62.730693 
2309.000000	62.739038 
2308.000000	62.751984 
2307.000000	62.768030 
2306.000000	62.785935 
2305.000000	62.804770 
2304.000000	62.823843 
2303.000000	62.842774 
2302.000000	62.861132 
2301.000000	62.878179 
2300.000000	62.892842 
2299.000000	62.903690 
2298.000000	62.909245 
2297.000000	62.908363 
2296.000000	62.900424 
2295.000000	62.885928 
2294.000000	62.866210 
2293.000000	62.843680 
2292.000000	62.821102 
2291.000000	62.801170 
2290.000000	62.786102 
2289.000000	62.777161 
2288.000000	62.774491 
2287.000000	62.777256 
2286.000000	62.783813 
2285.000000	62.792181 
2284.000000	62.800240 
2283.000000	62.806105 
2282.000000	62.808203 
2281.000000	62.805604 
2280.000000	62.797999 
2279.000000	62.785649 
2278.000000	62.769341 
2277.000000	62.750387 
2276.000000	62.730503 
2275.000000	62.711548 
2274.000000	62.695240 
2273.000000	62.682867 
2272.000000	62.675356 
2271.000000	62.672710 
2270.000000	62.674283 
2269.000000	62.678742 
2268.000000	62.684607 
2267.000000	62.690353 
2266.000000	62.694621 
2265.000000	62.696719 
2264.000000	62.696433 
2263.000000	62.694072 
2262.000000	62.690281 
2261.000000	62.685918 
2260.000000	62.681603 
2259.000000	62.677860 
2258.000000	62.675046 
2257.000000	62.673282 
2256.000000	62.672328 
2255.000000	62.671947 
2254.000000	62.671947 
2253.000000	62.672138 
2252.000000	62.672305 
2251.000000	62.672448 
2250.000000	62.672591 
2249.000000	62.672734 
2248.000000	62.672853 
2247.000000	62.672901 
2246.000000	62.672758 
2245.000000	62.672233 
2244.000000	62.671113 
2243.000000	62.669157 
2242.000000	62.666201 
2241.000000	62.662005 
2240.000000	62.656378 
2239.000000	62.649345 
2238.000000	62.641143 
2237.000000	62.632250 
2236.000000	62.623310 
2235.000000	62.615132 
2234.000000	62.608551 
2233.000000	62.604284 
2232.000000	62.602877 
2231.000000	62.604475 
2230.000000	62.609028 
2229.000000	62.616348 
2228.000000	62.626123 
2227.000000	62.638092 
2226.000000	62.651968 
2225.000000	62.667560 
2224.000000	62.684583 
2223.000000	62.702679 
2222.000000	62.721157 
2221.000000	62.739253 
2220.000000	62.756061 
2219.000000	62.770676 
2218.000000	62.782526 
2217.000000	62.791228 
2216.000000	62.797164 
2215.000000	62.801051 
2214.000000	62.803769 
2213.000000	62.806272 
2212.000000	62.809419 
2211.000000	62.813687 
2210.000000	62.819051 
2209.000000	62.825036 
2208.000000	62.830996 
2207.000000	62.836146 
2206.000000	62.839818 
2205.000000	62.841367 
2204.000000	62.840533 
2203.000000	62.837100 
2202.000000	62.830924 
2201.000000	62.821888 
2200.000000	62.809920 
2199.000000	62.795019 
2198.000000	62.777638 
2197.000000	62.758541 
2196.000000	62.738943 
2195.000000	62.720537 
2194.000000	62.705087 
2193.000000	62.694215 
2192.000000	62.688970 
2191.000000	62.689876 
2190.000000	62.696695 
2189.000000	62.708234 
2188.000000	62.722969 
2187.000000	62.739324 
2186.000000	62.755918 
2185.000000	62.771701 
2184.000000	62.786173 
2183.000000	62.799429 
2182.000000	62.811565 
2181.000000	62.822818 
2180.000000	62.832760 
2179.000000	62.840557 
2178.000000	62.844872 
2177.000000	62.844252 
2176.000000	62.837409 
2175.000000	62.823748 
2174.000000	62.803673 
2173.000000	62.778973 
2172.000000	62.752318 
2171.000000	62.727141 
2170.000000	62.707018 
2169.000000	62.695002 
2168.000000	62.692809 
2167.000000	62.700581 
2166.000000	62.716937 
2165.000000	62.739062 
2164.000000	62.763476 
2163.000000	62.786364 
2162.000000	62.804555 
2161.000000	62.815737 
2160.000000	62.818574 
2159.000000	62.813138 
2158.000000	62.800145 
2157.000000	62.781262 
2156.000000	62.758469 
2155.000000	62.734079 
2154.000000	62.710237 
2153.000000	62.688922 
2152.000000	62.671875 
2151.000000	62.660408 
2150.000000	62.655282 
2149.000000	62.656593 
2148.000000	62.664031 
2147.000000	62.676715 
2146.000000	62.693524 
2145.000000	62.713193 
2144.000000	62.734532 
2143.000000	62.756466 
2142.000000	62.778091 
2141.000000	62.798404 
2140.000000	62.816405 
2139.000000	62.830972 
2138.000000	62.841296 
2137.000000	62.846708 
2136.000000	62.847089 
2135.000000	62.843036 
2134.000000	62.835860 
2133.000000	62.827658 
2132.000000	62.820410 
2131.000000	62.815904 
2130.000000	62.814974 
2129.000000	62.817406 
2128.000000	62.821912 
2127.000000	62.826418 
2126.000000	62.828755 
2125.000000	62.827229 
2124.000000	62.821412 
2123.000000	62.812209 
2122.000000	62.801527 
2121.000000	62.791967 
2120.000000	62.785768 
2119.000000	62.784457 
2118.000000	62.788200 
2117.000000	62.795782 
2116.000000	62.805056 
2115.000000	62.813401 
2114.000000	62.818574 
2113.000000	62.819123 
2112.000000	62.814664 
2111.000000	62.805962 
2110.000000	62.794589 
2109.000000	62.782621 
2108.000000	62.771582 
2107.000000	62.762498 
2106.000000	62.755727 
2105.000000	62.750768 
2104.000000	62.746739 
2103.000000	62.742543 
2102.000000	62.737464 
2101.000000	62.731146 
2100.000000	62.723875 
2099.000000	62.716197 
2098.000000	62.708997 
2097.000000	62.703108 
2096.000000	62.698960 
2095.000000	62.696719 
2094.000000	62.696027 
2093.000000	62.696313 
2092.000000	62.696933 
2091.000000	62.697458 
2090.000000	62.697839 
2089.000000	62.698459 
2088.000000	62.699961 
2087.000000	62.703013 
2086.000000	62.707829 
2085.000000	62.714099 
2084.000000	62.720942 
2083.000000	62.726926 
2082.000000	62.730503 
2081.000000	62.730097 
2080.000000	62.724876 
2079.000000	62.714743 
2078.000000	62.700486 
2077.000000	62.683820 
2076.000000	62.666821 
2075.000000	62.651515 
2074.000000	62.639570 
2073.000000	62.631869 
2072.000000	62.628340 
2071.000000	62.628006 
2070.000000	62.629246 
2069.000000	62.630128 
2068.000000	62.629032 
2067.000000	62.624931 
2066.000000	62.617588 
2065.000000	62.607526 
2064.000000	62.595987 
2063.000000	62.584638 
2062.000000	62.575078 
2061.000000	62.568473 
2060.000000	62.565398 
2059.000000	62.565708 
2058.000000	62.568664 
2057.000000	62.572979 
2056.000000	62.577271 
2055.000000	62.580227 
2054.000000	62.580943 
2053.000000	62.579035 
2052.000000	62.574696 
2051.000000	62.568426 
2050.000000	62.561178 
2049.000000	62.553787 
2048.000000	62.547302 
2047.000000	62.542247 
2046.000000	62.538981 
2045.000000	62.537288 
2044.000000	62.536406 
2043.000000	62.535381 
2042.000000	62.533044 
2041.000000	62.528276 
2040.000000	62.520337 
2039.000000	62.509131 
2038.000000	62.495255 
2037.000000	62.479901 
2036.000000	62.464785 
2035.000000	62.451767 
2034.000000	62.442588 
2033.000000	62.438440 
2032.000000	62.439799 
2031.000000	62.446403 
2030.000000	62.457156 
2029.000000	62.470531 
2028.000000	62.484669 
2027.000000	62.497687 
2026.000000	62.508082 
2025.000000	62.514662 
2024.000000	62.516903 
2023.000000	62.514781 
2022.000000	62.508821 
2021.000000	62.500047 
2020.000000	62.489771 
2019.000000	62.479543 
2018.000000	62.470650 
2017.000000	62.464213 
2016.000000	62.460780 
2015.000000	62.460350 
2014.000000	62.462353 
2013.000000	62.465953 
2012.000000	62.470006 
2011.000000	62.473583 
2010.000000	62.476038 
2009.000000	62.477254 
2008.000000	62.477517 
2007.000000	62.477254 
2006.000000	62.476944 
2005.000000	62.476682 
2004.000000	62.476205 
2003.000000	62.474799 
2002.000000	62.471461 
2001.000000	62.465262 
2000.000000	62.455606 
1999.000000	62.442755 
1998.000000	62.427568 
1997.000000	62.411761 
1996.000000	62.397384 
1995.000000	62.386393 
1994.000000	62.380218 
1993.000000	62.379407 
1992.000000	62.383508 
1991.000000	62.391233 
1990.000000	62.400722 
1989.000000	62.409949 
1988.000000	62.417221 
1987.000000	62.421417 
1986.000000	62.421941 
1985.000000	62.418961 
1984.000000	62.413191 
1983.000000	62.405562 
1982.000000	62.397313 
1981.000000	62.389516 
1980.000000	62.383222 
1979.000000	62.379217 
1978.000000	62.377905 
1977.000000	62.379360 
1976.000000	62.383127 
1975.000000	62.388300 
1974.000000	62.393593 
1973.000000	62.397623 
1972.000000	62.399077 
1971.000000	62.397265 
1970.000000	62.392210 
1969.000000	62.384629 
1968.000000	62.375974 
1967.000000	62.367939 
1966.000000	62.362098 
1965.000000	62.359523 
1964.000000	62.360644 
1963.000000	62.365126 
1962.000000	62.372183 
1961.000000	62.380886 
1960.000000	62.390446 
1959.000000	62.400460 
1958.000000	62.410902 
1957.000000	62.422037 
1956.000000	62.434148 
1955.000000	62.447309 
1954.000000	62.461066 
1953.000000	62.474536 
1952.000000	62.486624 
1951.000000	62.496113 
1950.000000	62.502145 
1949.000000	62.504529 
1948.000000	62.503695 
1947.000000	62.500715 
1946.000000	62.497115 
1945.000000	62.494468 
1944.000000	62.494182 
1943.000000	62.497138 
1942.000000	62.503767 
1941.000000	62.513756 
1940.000000	62.526321 
1939.000000	62.540221 
1938.000000	62.554144 
1937.000000	62.566733 
1936.000000	62.576818 
1935.000000	62.583518 
1934.000000	62.586379 
1933.000000	62.585496 
1932.000000	62.581324 
1931.000000	62.574744 
1930.000000	62.567019 
1929.000000	62.559390 
1928.000000	62.553048 
1927.000000	62.548780 
1926.000000	62.546849 
1925.000000	62.547039 
1924.000000	62.548589 
1923.000000	62.550425 
1922.000000	62.551474 
1921.000000	62.550759 
1920.000000	62.547779 
1919.000000	62.542390 
1918.000000	62.535023 
1917.000000	62.526488 
1916.000000	62.517714 
1915.000000	62.509822 
1914.000000	62.503528 
1913.000000	62.499427 
1912.000000	62.497663 
1911.000000	62.498116 
1910.000000	62.500476 
1909.000000	62.504339 
1908.000000	62.509202 
1907.000000	62.514638 
1906.000000	62.520265 
1905.000000	62.525773 
1904.000000	62.530970 
1903.000000	62.535619 
1902.000000	62.539601 
1901.000000	62.542939 
1900.000000	62.545800 
1899.000000	62.548446 
1898.000000	62.551188 
1897.000000	62.554216 
1896.000000	62.557673 
1895.000000	62.561321 
1894.000000	62.564659 
1893.000000	62.567138 
1892.000000	62.568068 
1891.000000	62.566852 
1890.000000	62.563395 
1889.000000	62.557816 
1888.000000	62.550830 
1887.000000	62.543225 
1886.000000	62.535810 
1885.000000	62.529182 
1884.000000	62.523531 
1883.000000	62.518692 
1882.000000	62.514233 
1881.000000	62.509679 
1880.000000	62.504863 
1879.000000	62.499880 
1878.000000	62.495279 
1877.000000	62.491679 
1876.000000	62.489724 
1875.000000	62.489748 
1874.000000	62.491393 
1873.000000	62.493824 
1872.000000	62.495827 
1871.000000	62.495899 
1870.000000	62.492990 
1869.000000	62.486505 
1868.000000	62.476706 
1867.000000	62.464594 
1866.000000	62.451910 
1865.000000	62.440538 
1864.000000	62.432312 
1863.000000	62.428236 
1862.000000	62.428712 
1861.000000	62.433242 
1860.000000	62.440633 
1859.000000	62.449312 
1858.000000	62.457728 
1857.000000	62.464547 
1856.000000	62.468886 
1855.000000	62.470388 
1854.000000	62.469124 
1853.000000	62.465500 
1852.000000	62.460136 
1851.000000	62.453532 
1850.000000	62.446236 
1849.000000	62.438726 
1848.000000	62.431454 
1847.000000	62.424874 
1846.000000	62.419366 
1845.000000	62.415289 
1844.000000	62.412929 
1843.000000	62.412309 
1842.000000	62.413454 
1841.000000	62.415957 
1840.000000	62.419176 
1839.000000	62.422299 
1838.000000	62.424540 
1837.000000	62.425041 
1836.000000	62.423133 
1835.000000	62.418389 
1834.000000	62.410807 
1833.000000	62.400865 
1832.000000	62.389469 
1831.000000	62.377834 
1830.000000	62.367486 
1829.000000	62.359857 
1828.000000	62.356185 
1827.000000	62.357068 
1826.000000	62.362360 
1825.000000	62.371039 
1824.000000	62.381434 
1823.000000	62.391233 
1822.000000	62.398004 
1821.000000	62.399792 
1820.000000	62.395501 
1819.000000	62.385177 
1818.000000	62.370228 
1817.000000	62.353062 
1816.000000	62.336707 
1815.000000	62.324237 
1814.000000	62.318229 
1813.000000	62.319946 
1812.000000	62.329411 
1811.000000	62.345194 
1810.000000	62.364697 
1809.000000	62.384963 
1808.000000	62.402892 
1807.000000	62.416100 
1806.000000	62.423133 
1805.000000	62.423801 
1804.000000	62.419033 
1803.000000	62.410497 
1802.000000	62.400126 
1801.000000	62.389588 
1800.000000	62.379932 
1799.000000	62.371468 
1798.000000	62.363672 
1797.000000	62.355637 
1796.000000	62.346363 
1795.000000	62.335324 
1794.000000	62.322807 
1793.000000	62.310171 
1792.000000	62.299466 
1791.000000	62.293124 
1790.000000	62.293410 
1789.000000	62.301635 
1788.000000	62.317824 
1787.000000	62.340354 
1786.000000	62.366199 
1785.000000	62.391543 
1784.000000	62.412452 
1783.000000	62.425875 
1782.000000	62.430071 
1781.000000	62.424969 
1780.000000	62.412333 
1779.000000	62.394928 
1778.000000	62.376022 
1777.000000	62.358522 
1776.000000	62.344384 
1775.000000	62.334227 
1774.000000	62.327480 
1773.000000	62.322568 
1772.000000	62.317943 
1771.000000	62.312078 
1770.000000	62.304282 
1769.000000	62.294578 
1768.000000	62.283682 
1767.000000	62.272691 
1766.000000	62.262654 
1765.000000	62.254142 
1764.000000	62.247276 
1763.000000	62.241768 
1762.000000	62.237262 
1761.000000	62.233495 
1760.000000	62.230467 
1759.000000	62.228465 
1758.000000	62.227797 
1757.000000	62.228560 
1756.000000	62.230467 
1755.000000	62.232780 
1754.000000	62.234377 
1753.000000	62.233877 
1752.000000	62.230443 
1751.000000	62.223672 
1750.000000	62.213993 
1749.000000	62.202596 
1748.000000	62.190914 
1747.000000	62.180304 
1746.000000	62.171387 
1745.000000	62.164092 
1744.000000	62.157273 
1743.000000	62.148976 
1742.000000	62.137126 
1741.000000	62.120103 
1740.000000	62.097167 
1739.000000	62.068748 
1738.000000	62.036514 
1737.000000	62.003064 
1736.000000	61.971235 
1735.000000	61.943793 
1734.000000	61.922740 
1733.000000	61.909294 
1732.000000	61.903572 
1731.000000	61.905050 
1730.000000	61.912584 
1729.000000	61.924910 
1728.000000	61.940693 
1727.000000	61.958479 
1726.000000	61.976933 
1725.000000	61.994838 
1724.000000	62.010741 
1723.000000	62.023448 
1722.000000	62.031984 
1721.000000	62.036085 
1720.000000	62.035989 
1719.000000	62.032794 
1718.000000	62.028336 
1717.000000	62.024593 
1716.000000	62.023329 
1715.000000	62.025809 
1714.000000	62.032341 
1713.000000	62.042355 
1712.000000	62.054371 
1711.000000	62.066531 
1710.000000	62.077045 
1709.000000	62.084531 
1708.000000	62.088322 
1707.000000	62.088704 
1706.000000	62.086677 
1705.000000	62.083673 
1704.000000	62.081432 
1703.000000	62.081551 
1702.000000	62.085151 
1701.000000	62.093019 
1700.000000	62.105393 
1699.000000	62.121963 
1698.000000	62.141942 
1697.000000	62.164378 
1696.000000	62.188053 
1695.000000	62.211561 
1694.000000	62.233638 
1693.000000	62.253165 
1692.000000	62.269353 
1691.000000	62.281703 
1690.000000	62.290143 
1689.000000	62.295150 
1688.000000	62.297296 
1687.000000	62.297368 
1686.000000	62.296009 
1685.000000	62.293577 
1684.000000	62.290096 
1683.000000	62.285399 
1682.000000	62.279105 
1681.000000	62.270689 
1680.000000	62.259960 
1679.000000	62.246727 
1678.000000	62.231063 
1677.000000	62.213182 
1676.000000	62.193489 
1675.000000	62.172603 
1674.000000	62.151122 
1673.000000	62.129902 
1672.000000	62.110042 
1671.000000	62.092924 
1670.000000	62.079930 
1669.000000	62.072300 
1668.000000	62.070894 
1667.000000	62.075829 
1666.000000	62.086367 
1665.000000	62.100958 
1664.000000	62.117338 
1663.000000	62.133216 
1662.000000	62.146472 
1661.000000	62.155675 
1660.000000	62.160015 
1659.000000	62.159585 
1658.000000	62.154960 
1657.000000	62.146949 
1656.000000	62.136363 
1655.000000	62.123680 
1654.000000	62.109375 
1653.000000	62.093973 
1652.000000	62.078285 
1651.000000	62.063574 
1650.000000	62.051701 
1649.000000	62.044692 
1648.000000	62.044429 
1647.000000	62.052011 
1646.000000	62.067484 
1645.000000	62.089443 
1644.000000	62.115645 
1643.000000	62.142992 
1642.000000	62.168598 
1641.000000	62.190270 
1640.000000	62.206888 
1639.000000	62.218570 
1638.000000	62.226295 
1637.000000	62.231636 
1636.000000	62.235760 
1635.000000	62.239146 
1634.000000	62.241244 
1633.000000	62.240600 
1632.000000	62.235379 
1631.000000	62.223887 
1630.000000	62.205123 
1629.000000	62.179422 
1628.000000	62.148499 
1627.000000	62.115383 
1626.000000	62.083673 
1625.000000	62.056994 
1624.000000	62.038230 
1623.000000	62.029051 
1622.000000	62.029623 
1621.000000	62.038731 
1620.000000	62.054014 
1619.000000	62.072563 
1618.000000	62.091255 
1617.000000	62.107634 
1616.000000	62.119722 
1615.000000	62.126851 
1614.000000	62.129020 
1613.000000	62.127137 
1612.000000	62.122678 
1611.000000	62.117171 
1610.000000	62.112116 
1609.000000	62.108421 
1608.000000	62.106442 
1607.000000	62.105846 
1606.000000	62.105822 
1605.000000	62.105131 
1604.000000	62.102627 
1603.000000	62.097692 
1602.000000	62.090396 
1601.000000	62.081313 
1600.000000	62.071800 
1599.000000	62.063360 
1598.000000	62.057495 
1597.000000	62.055015 
1596.000000	62.056112 
1595.000000	62.060236 
1594.000000	62.066054 
1593.000000	62.071609 
1592.000000	62.075185 
1591.000000	62.075328 
1590.000000	62.071704 
1589.000000	62.064981 
1588.000000	62.056970 
1587.000000	62.049984 
1586.000000	62.046289 
1585.000000	62.047481 
1584.000000	62.053942 
1583.000000	62.064719 
1582.000000	62.077832 
1581.000000	62.090682 
1580.000000	62.100911 
1579.000000	62.106871 
1578.000000	62.107706 
1577.000000	62.103581 
1576.000000	62.095236 
1575.000000	62.083864 
1574.000000	62.070798 
1573.000000	62.057113 
1572.000000	62.043738 
1571.000000	62.031245 
1570.000000	62.019801 
1569.000000	62.009477 
1568.000000	62.000131 
1567.000000	61.991786 
1566.000000	61.984443 
1565.000000	61.978292 
1564.000000	61.973667 
1563.000000	61.971020 
1562.000000	61.970829 
1561.000000	61.973476 
1560.000000	61.979007 
1559.000000	61.987280 
1558.000000	61.997842 
1557.000000	62.009906 
1556.000000	62.022423 
1555.000000	62.034153 
1554.000000	62.043786 
1553.000000	62.050008 
1552.000000	62.051892 
1551.000000	62.048745 
1550.000000	62.040328 
1549.000000	62.027001 
1548.000000	62.009572 
1547.000000	61.989259 
1546.000000	61.967778 
1545.000000	61.946916 
1544.000000	61.928439 
1543.000000	61.914181 
1542.000000	61.905503 
1541.000000	61.903381 
1540.000000	61.908078 
1539.000000	61.919260 
1538.000000	61.935830 
1537.000000	61.956119 
1536.000000	61.978149 
1535.000000	61.999630 
1534.000000	62.018728 
1533.000000	62.033987 
1532.000000	62.044811 
1531.000000	62.051177 
1530.000000	62.053847 
1529.000000	62.054157 
1528.000000	62.053537 
1527.000000	62.053370 
1526.000000	62.054562 
1525.000000	62.057471 
1524.000000	62.061977 
1523.000000	62.067341 
1522.000000	62.072420 
1521.000000	62.075877 
1520.000000	62.076735 
1519.000000	62.074351 
1518.000000	62.068438 
1517.000000	62.059068 
1516.000000	62.046575 
1515.000000	62.031674 
1514.000000	62.015008 
1513.000000	61.997437 
1512.000000	61.979913 
1511.000000	61.963438 
1510.000000	61.949038 
1509.000000	61.937785 
1508.000000	61.930584 
1507.000000	61.928081 
1506.000000	61.930274 
1505.000000	61.936902 
1504.000000	61.947345 
1503.000000	61.960840 
1502.000000	61.976337 
1501.000000	61.993002 
1500.000000	62.010002 
1499.000000	62.026572 
1498.000000	62.041687 
1497.000000	62.053751 
1496.000000	62.060689 
1495.000000	62.060022 
1494.000000	62.049651 
1493.000000	62.028312 
1492.000000	61.996006 
1491.000000	61.954760 
1490.000000	61.908006 
1489.000000	61.860227 
1488.000000	61.815762 
1487.000000	61.778140 
1486.000000	61.749434 
1485.000000	61.729907 
1484.000000	61.718249 
1483.000000	61.712098 
1482.000000	61.708664 
1481.000000	61.705374 
1480.000000	61.700534 
1479.000000	61.693358 
1478.000000	61.684346 
1477.000000	61.674618 
1476.000000	61.666011 
1475.000000	61.660242 
1474.000000	61.658763 
1473.000000	61.662244 
1472.000000	61.670732 
1471.000000	61.683464 
1470.000000	61.699247 
1469.000000	61.716580 
1468.000000	61.734127 
1467.000000	61.750745 
1466.000000	61.765789 
1465.000000	61.779260 
1464.000000	61.791396 
1463.000000	61.802697 
1462.000000	61.813449 
1461.000000	61.823630 
1460.000000	61.832761 
1459.000000	61.839962 
1458.000000	61.843848 
1457.000000	61.842942 
1456.000000	61.836457 
1455.000000	61.824226 
1454.000000	61.806988 
1453.000000	61.786508 
1452.000000	61.765336 
1451.000000	61.746382 
1450.000000	61.732220 
1449.000000	61.724805 
1448.000000	61.724901 
1447.000000	61.732292 
1446.000000	61.745715 
1445.000000	61.763381 
1444.000000	61.783123 
1443.000000	61.802840 
1442.000000	61.820721 
1441.000000	61.835074 
1440.000000	61.844706 
1439.000000	61.848926 
1438.000000	61.847472 
1437.000000	61.840748 
1436.000000	61.829566 
1435.000000	61.815500 
1434.000000	61.800122 
1433.000000	61.785387 
1432.000000	61.772918 
1431.000000	61.764359 
1430.000000	61.760544 
1429.000000	61.761832 
1428.000000	61.767816 
1427.000000	61.777567 
1426.000000	61.789774 
1425.000000	61.802887 
1424.000000	61.815547 
1423.000000	61.826825 
1422.000000	61.836266 
1421.000000	61.843681 
1420.000000	61.849141 
1419.000000	61.852717 
1418.000000	61.854290 
1417.000000	61.853504 
1416.000000	61.849904 
1415.000000	61.843252 
1414.000000	61.833572 
1413.000000	61.821508 
1412.000000	61.808395 
1411.000000	61.796188 
1410.000000	61.786961 
1409.000000	61.782550 
1408.000000	61.784100 
1407.000000	61.791729 
1406.000000	61.804580 
1405.000000	61.820960 
1404.000000	61.838674 
1403.000000	61.855363 
1402.000000	61.869311 
1401.000000	61.879205 
1400.000000	61.884498 
1399.000000	61.884951 
1398.000000	61.880826 
1397.000000	61.872196 
1396.000000	61.859273 
1395.000000	61.842107 
1394.000000	61.820960 
1393.000000	61.796283 
1392.000000	61.768937 
1391.000000	61.740207 
1390.000000	61.711788 
1389.000000	61.685562 
1388.000000	61.663699 
1387.000000	61.648035 
1386.000000	61.639952 
1385.000000	61.640095 
1384.000000	61.648440 
1383.000000	61.664175 
1382.000000	61.686110 
1381.000000	61.712384 
1380.000000	61.741137 
1379.000000	61.770319 
1378.000000	61.798143 
1377.000000	61.822867 
1376.000000	61.843228 
1375.000000	61.858296 
1374.000000	61.867666 
1373.000000	61.871457 
1372.000000	61.870288 
1371.000000	61.865305 
1370.000000	61.857748 
1369.000000	61.849093 
1368.000000	61.840367 
1367.000000	61.832332 
1366.000000	61.824917 
1365.000000	61.817431 
1364.000000	61.808967 
1363.000000	61.798644 
1362.000000	61.786031 
1361.000000	61.771631 
1360.000000	61.756896 
1359.000000	61.744165 
1358.000000	61.735892 
1357.000000	61.734390 
1356.000000	61.740946 
1355.000000	61.755776 
1354.000000	61.777544 
1353.000000	61.803960 
1352.000000	61.832118 
1351.000000	61.859202 
1350.000000	61.883163 
1349.000000	61.902999 
1348.000000	61.918520 
1347.000000	61.930203 
1346.000000	61.938858 
1345.000000	61.945080 
1344.000000	61.949062 
1343.000000	61.950588 
1342.000000	61.949253 
1341.000000	61.944818 
1340.000000	61.937618 
1339.000000	61.928367 
1338.000000	61.918234 
1337.000000	61.908435 
1336.000000	61.900115 
1335.000000	61.894011 
1334.000000	61.890339 
1333.000000	61.888909 
1332.000000	61.889362 
1331.000000	61.891222 
1330.000000	61.894011 
1329.000000	61.897277 
1328.000000	61.900615 
1327.000000	61.903667 
1326.000000	61.905813 
1325.000000	61.906218 
1324.000000	61.904168 
1323.000000	61.899185 
1322.000000	61.891484 
1321.000000	61.881542 
1320.000000	61.870479 
1319.000000	61.859941 
1318.000000	61.851525 
1317.000000	61.846423 
1316.000000	61.845064 
1315.000000	61.847233 
1314.000000	61.851835 
1313.000000	61.857271 
1312.000000	61.861491 
1311.000000	61.862635 
1310.000000	61.859107 
1309.000000	61.850214 
1308.000000	61.836290 
1307.000000	61.818695 
1306.000000	61.799597 
1305.000000	61.781501 
1304.000000	61.766648 
1303.000000	61.756443 
1302.000000	61.751127 
1301.000000	61.749649 
1300.000000	61.749649 
1299.000000	61.748147 
1298.000000	61.742186 
1297.000000	61.729574 
1296.000000	61.709403 
1295.000000	61.682415 
1294.000000	61.650657 
1293.000000	61.617422 
1292.000000	61.586260 
1291.000000	61.560559 
1290.000000	61.542534 
1289.000000	61.532998 
1288.000000	61.531448 
1287.000000	61.536097 
1286.000000	61.544537 
1285.000000	61.554169 
1284.000000	61.562728 
1283.000000	61.568665 
1282.000000	61.571288 
1281.000000	61.570763 
1280.000000	61.567831 
1279.000000	61.563563 
1278.000000	61.559295 
1277.000000	61.556148 
1276.000000	61.554908 
1275.000000	61.556124 
1274.000000	61.559724 
1273.000000	61.565327 
1272.000000	61.571764 
1271.000000	61.577630 
1270.000000	61.581254 
1269.000000	61.581063 
1268.000000	61.575722 
1267.000000	61.564540 
1266.000000	61.547565 
1265.000000	61.525678 
1264.000000	61.500430 
1263.000000	61.473846 
1262.000000	61.448025 
1261.000000	61.424732 
1260.000000	61.405229 
1259.000000	61.390137 
1258.000000	61.379623 
1257.000000	61.373233 
1256.000000	61.370325 
1255.000000	61.370277 
1254.000000	61.372470 
1253.000000	61.376261 
1252.000000	61.380863 
1251.000000	61.385393 
1250.000000	61.388802 
1249.000000	61.389899 
1248.000000	61.387586 
1247.000000	61.380672 
1246.000000	61.368298 
1245.000000	61.349844 
1244.000000	61.325454 
1243.000000	61.295986 
1242.000000	61.262965 
1241.000000	61.228704 
1240.000000	61.195826 
1239.000000	61.166977 
1238.000000	61.144375 
1237.000000	61.129546 
1236.000000	61.122775 
1235.000000	61.123538 
1234.000000	61.130499 
1233.000000	61.142086 
1232.000000	61.156678 
1231.000000	61.172914 
1230.000000	61.189913 
1229.000000	61.207365 
1228.000000	61.225008 
1227.000000	61.242628 
1226.000000	61.259651 
1225.000000	61.275267 
1224.000000	61.288642 
1223.000000	61.298990 
1222.000000	61.306071 
1221.000000	61.310458 
1220.000000	61.313486 
1219.000000	61.317181 
1218.000000	61.323595 
1217.000000	61.334443 
1216.000000	61.350250 
1215.000000	61.370205 
1214.000000	61.391830 
1213.000000	61.411690 
1212.000000	61.425733 
1211.000000	61.430454 
1210.000000	61.423540 
1209.000000	61.404681 
1208.000000	61.375427 
1207.000000	61.338973 
1206.000000	61.299681 
1205.000000	61.262130 
1204.000000	61.230444 
1203.000000	61.207795 
1202.000000	61.195921 
1201.000000	61.195063 
1200.000000	61.204147 
1199.000000	61.221146 
1198.000000	61.243247 
1197.000000	61.267471 
1196.000000	61.291074 
1195.000000	61.311864 
1194.000000	61.328077 
1193.000000	61.338734 
1192.000000	61.343479 
1191.000000	61.342549 
1190.000000	61.336517 
1189.000000	61.326289 
1188.000000	61.313009 
1187.000000	61.297988 
1186.000000	61.282539 
1185.000000	61.267876 
1184.000000	61.255097 
1183.000000	61.244869 
1182.000000	61.237597 
1181.000000	61.233091 
1180.000000	61.230921 
1179.000000	61.230373 
1178.000000	61.230587 
1177.000000	61.230874 
1176.000000	61.230802 
1175.000000	61.230373 
1174.000000	61.229920 
1173.000000	61.230015 
1172.000000	61.231040 
1171.000000	61.233210 
1170.000000	61.236381 
1169.000000	61.240100 
1168.000000	61.243724 
1167.000000	61.246418 
1166.000000	61.247324 
1165.000000	61.245822 
1164.000000	61.241531 
1163.000000	61.234426 
1162.000000	61.224889 
1161.000000	61.213779 
1160.000000	61.202454 
1159.000000	61.192464 
1158.000000	61.185193 
1157.000000	61.181569 
1156.000000	61.181592 
1155.000000	61.184692 
1154.000000	61.189460 
1153.000000	61.193990 
1152.000000	61.196494 
1151.000000	61.195635 
1150.000000	61.191010 
1149.000000	61.183357 
1148.000000	61.174225 
1147.000000	61.165547 
1146.000000	61.158847 
1145.000000	61.154842 
1144.000000	61.153054 
1143.000000	61.152076 
1142.000000	61.150050 
1141.000000	61.145353 
1140.000000	61.137175 
1139.000000	61.125683 
1138.000000	61.111927 
1137.000000	61.097431 
1136.000000	61.083602 
1135.000000	61.071729 
1134.000000	61.062693 
1133.000000	61.057162 
1132.000000	61.055588 
1131.000000	61.058402 
1130.000000	61.065793 
1129.000000	61.077523 
1128.000000	61.092686 
1127.000000	61.109733 
1126.000000	61.126613 
1125.000000	61.140918 
1124.000000	61.150383 
1123.000000	61.153221 
1122.000000	61.148643 
1121.000000	61.137080 
1120.000000	61.120271 
1119.000000	61.101341 
1118.000000	61.084055 
1117.000000	61.072301 
1116.000000	61.068987 
1115.000000	61.075282 
1114.000000	61.090135 
1113.000000	61.110520 
1112.000000	61.132144 
1111.000000	61.150646 
1110.000000	61.162662 
1109.000000	61.166667 
1108.000000	61.163067 
1107.000000	61.153721 
1106.000000	61.141300 
1105.000000	61.128449 
1104.000000	61.116957 
1103.000000	61.107754 
1102.000000	61.100649 
1101.000000	61.095142 
1100.000000	61.090040 
1099.000000	61.084127 
1098.000000	61.076331 
1097.000000	61.065840 
1096.000000	61.052298 
1095.000000	61.035943 
1094.000000	61.017394 
1093.000000	60.997748 
1092.000000	60.978245 
1091.000000	60.960125 
1090.000000	60.944461 
1089.000000	60.931825 
1088.000000	60.922336 
1087.000000	60.915637 
1086.000000	60.910820 
1085.000000	60.906839 
1084.000000	60.902357 
1083.000000	60.896396 
1082.000000	60.888123 
1081.000000	60.877370 
1080.000000	60.864329 
1079.000000	60.850000 
1078.000000	60.835528 
1077.000000	60.822868 
1076.000000	60.813951 
1075.000000	60.810947 
1074.000000	60.815620 
1073.000000	60.829091 
1072.000000	60.851430 
1071.000000	60.881423 
1070.000000	60.916614 
1069.000000	60.953593 
1068.000000	60.988569 
1067.000000	61.017942 
1066.000000	61.038923 
1065.000000	61.050009 
1064.000000	61.051297 
1063.000000	61.044311 
1062.000000	61.031532 
1061.000000	61.015820 
1060.000000	60.999727 
1059.000000	60.985231 
1058.000000	60.973739 
1057.000000	60.965919 
1056.000000	60.962080 
1055.000000	60.962581 
1054.000000	60.967659 
1053.000000	60.977458 
1052.000000	60.991811 
1051.000000	61.009931 
1050.000000	61.030292 
1049.000000	61.050868 
1048.000000	61.069250 
1047.000000	61.083102 
1046.000000	61.090469 
1045.000000	61.090350 
1044.000000	61.082720 
1043.000000	61.068534 
1042.000000	61.049461 
1041.000000	61.027693 
1040.000000	61.005401 
1039.000000	60.984253 
1038.000000	60.965347 
1037.000000	60.949087 
1036.000000	60.935235 
1035.000000	60.923290 
1034.000000	60.912585 
1033.000000	60.902619 
1032.000000	60.893130 
1031.000000	60.884165 
1030.000000	60.875964 
1029.000000	60.868883 
1028.000000	60.863208 
1027.000000	60.859036 
1026.000000	60.856080 
1025.000000	60.853719 
1024.000000	60.850977 
1023.000000	60.846781 
1022.000000	60.840177 
1021.000000	60.830450 
1020.000000	60.817217 
1019.000000	60.800743 
1018.000000	60.781621 
1017.000000	60.761022 
1016.000000	60.740494 
1015.000000	60.721969 
1014.000000	60.707354 
1013.000000	60.698628 
1012.000000	60.697340 
1011.000000	60.704302 
1010.000000	60.719370 
1009.000000	60.741257 
1008.000000	60.767555 
1007.000000	60.795021 
1006.000000	60.820126 
1005.000000	60.839605 
1004.000000	60.851263 
1003.000000	60.854172 
1002.000000	60.848903 
1001.000000	60.837483 
1000.000000	60.822534 
999.000000	 60.806965 
998.000000	 60.792708 
997.000000	 60.780835 
996.000000	 60.771226 
995.000000	 60.762810 
994.000000	 60.754370 
993.000000	 60.745024 
992.000000	 60.735082 
991.000000	 60.726261 
990.000000	 60.721254 
989.000000	 60.723257 
988.000000	 60.734796 
987.000000	 60.756707 
986.000000	 60.787749 
985.000000	 60.824346 
984.000000	 60.861206 
983.000000	 60.892319 
982.000000	 60.912156 
981.000000	 60.917067 
980.000000	 60.905861 
979.000000	 60.880160 
978.000000	 60.843777 
977.000000	 60.801839 
976.000000	 60.759830 
975.000000	 60.722112 
974.000000	 60.691452 
973.000000	 60.668277 
972.000000	 60.651612 
971.000000	 60.639023 
970.000000	 60.627698 
969.000000	 60.615181 
968.000000	 60.599946 
967.000000	 60.581946 
966.000000	 60.562181 
965.000000	 60.542941 
964.000000	 60.526704 
963.000000	 60.516190 
962.000000	 60.513448 
961.000000	 60.519409 
960.000000	 60.533475 
959.000000	 60.553836 
958.000000	 60.577630 
957.000000	 60.601401 
956.000000	 60.621786 
955.000000	 60.636162 
954.000000	 60.643148 
953.000000	 60.642743 
952.000000	 60.636162 
951.000000	 60.625743 
950.000000	 60.613918 
949.000000	 60.602831 
948.000000	 60.593581 
947.000000	 60.586428 
946.000000	 60.580611 
945.000000	 60.574698 
944.000000	 60.567212 
943.000000	 60.557484 
942.000000	 60.545921 
941.000000	 60.533666 
940.000000	 60.522890 
939.000000	 60.515999 
938.000000	 60.515284 
937.000000	 60.522103 
936.000000	 60.536766 
935.000000	 60.558247 
934.000000	 60.584473 
933.000000	 60.612559 
932.000000	 60.639548 
931.000000	 60.663056 
930.000000	 60.681724 
929.000000	 60.695505 
928.000000	 60.705447 
927.000000	 60.713458 
926.000000	 60.721874 
925.000000	 60.732626 
924.000000	 60.746884 
923.000000	 60.764646 
922.000000	 60.785102 
921.000000	 60.806465 
920.000000	 60.826802 
919.000000	 60.843968 
918.000000	 60.856652 
917.000000	 60.864019 
916.000000	 60.865855 
915.000000	 60.862421 
914.000000	 60.854530 
913.000000	 60.843157 
912.000000	 60.829305 
911.000000	 60.814189 
910.000000	 60.799264 
909.000000	 60.786175 
908.000000	 60.776853 
907.000000	 60.772776 
906.000000	 60.774898 
905.000000	 60.783386 
904.000000	 60.797381 
903.000000	 60.815262 
902.000000	 60.834884 
901.000000	 60.854053 
900.000000	 60.870838 
899.000000	 60.884141 
898.000000	 60.893368 
897.000000	 60.898804 
896.000000	 60.900568 
895.000000	 60.898756 
894.000000	 60.892724 
893.000000	 60.881471 
892.000000	 60.863757 
891.000000	 60.838580 
890.000000	 60.805773 
889.000000	 60.766220 
888.000000	 60.722351 
887.000000	 60.677766 
886.000000	 60.636973 
885.000000	 60.604143 
884.000000	 60.582876 
883.000000	 60.575437 
882.000000	 60.582494 
881.000000	 60.602807 
880.000000	 60.633778 
879.000000	 60.671901 
878.000000	 60.713315 
877.000000	 60.754299 
876.000000	 60.791945 
875.000000	 60.824370 
874.000000	 60.850763 
873.000000	 60.871410 
872.000000	 60.887312 
871.000000	 60.899901 
870.000000	 60.910725 
869.000000	 60.920739 
868.000000	 60.930514 
867.000000	 60.939431 
866.000000	 60.946393 
865.000000	 60.949492 
864.000000	 60.947012 
863.000000	 60.937571 
862.000000	 60.920882 
861.000000	 60.897970 
860.000000	 60.870862 
859.000000	 60.842299 
858.000000	 60.815763 
857.000000	 60.793972 
856.000000	 60.778379 
855.000000	 60.769104 
854.000000	 60.764861 
853.000000	 60.763382 
852.000000	 60.761857 
851.000000	 60.757923 
850.000000	 60.750365 
849.000000	 60.739326 
848.000000	 60.726261 
847.000000	 60.713195 
846.000000	 60.702228 
845.000000	 60.694694 
844.000000	 60.690879 
843.000000	 60.689449 
842.000000	 60.688042 
841.000000	 60.684013 
840.000000	 60.675430 
839.000000	 60.661363 
838.000000	 60.642910 
837.000000	 60.622882 
836.000000	 60.605669 
835.000000	 60.595750 
834.000000	 60.597348 
833.000000	 60.612750 
832.000000	 60.642433 
831.000000	 60.684442 
830.000000	 60.735154 
829.000000	 60.789728 
828.000000	 60.843276 
827.000000	 60.891652 
826.000000	 60.931944 
825.000000	 60.962677 
824.000000	 60.983586 
823.000000	 60.995483 
822.000000	 60.999441 
821.000000	 60.996365 
820.000000	 60.987091 
819.000000	 60.972285 
818.000000	 60.952520 
817.000000	 60.928344 
816.000000	 60.900759 
815.000000	 60.870933 
814.000000	 60.839986 
813.000000	 60.809016 
812.000000	 60.778689 
811.000000	 60.749816 
810.000000	 60.723352 
809.000000	 60.700774 
808.000000	 60.683798 
807.000000	 60.674142 
806.000000	 60.672926 
805.000000	 60.680317 
804.000000	 60.694980 
803.000000	 60.714173 
802.000000	 60.734248 
801.000000	 60.751223 
800.000000	 60.761642 
799.000000	 60.763573 
798.000000	 60.757207 
797.000000	 60.744738 
796.000000	 60.729503 
795.000000	 60.715651 
794.000000	 60.707044 
793.000000	 60.706305 
792.000000	 60.714030 
791.000000	 60.728836 
790.000000	 60.747361 
789.000000	 60.765480 
788.000000	 60.778880 
787.000000	 60.783720 
786.000000	 60.777711 
785.000000	 60.760164 
784.000000	 60.732650 
783.000000	 60.698294 
782.000000	 60.661458 
781.000000	 60.627102 
780.000000	 60.599589 
779.000000	 60.581970 
778.000000	 60.575056 
777.000000	 60.577845 
776.000000	 60.587143 
775.000000	 60.598516 
774.000000	 60.607123 
773.000000	 60.608625 
772.000000	 60.600066 
771.000000	 60.580420 
770.000000	 60.550737 
769.000000	 60.513734 
768.000000	 60.473680 
767.000000	 60.435724 
766.000000	 60.404872 
765.000000	 60.385179 
764.000000	 60.379409 
763.000000	 60.388612 
762.000000	 60.411787 
761.000000	 60.446166 
760.000000	 60.487532 
759.000000	 60.531020 
758.000000	 60.571384 
757.000000	 60.604572 
756.000000	 60.628032 
755.000000	 60.641360 
754.000000	 60.645961 
753.000000	 60.644507 
752.000000	 60.640215 
751.000000	 60.635805 
750.000000	 60.633373 
749.000000	 60.633420 
748.000000	 60.635232 
747.000000	 60.637259 
746.000000	 60.638046 
745.000000	 60.636067 
744.000000	 60.630321 
743.000000	 60.620212 
742.000000	 60.605621 
741.000000	 60.586643 
740.000000	 60.563158 
739.000000	 60.535216 
738.000000	 60.502862 
737.000000	 60.466694 
736.000000	 60.427737 
735.000000	 60.387802 
734.000000	 60.348916 
733.000000	 60.312843 
732.000000	 60.280752 
731.000000	 60.252690 
730.000000	 60.227942 
729.000000	 60.205221 
728.000000	 60.183739 
727.000000	 60.162806 
726.000000	 60.143280 
725.000000	 60.126638 
724.000000	 60.115456 
723.000000	 60.112142 
722.000000	 60.118889 
721.000000	 60.136628 
720.000000	 60.165143 
719.000000	 60.202527 
718.000000	 60.245752 
717.000000	 60.290670 
716.000000	 60.332775 
715.000000	 60.367774 
714.000000	 60.392022 
713.000000	 60.403060 
712.000000	 60.400080 
711.000000	 60.383820 
710.000000	 60.356688 
709.000000	 60.322308 
708.000000	 60.284996 
707.000000	 60.248899 
706.000000	 60.217571 
705.000000	 60.193133 
704.000000	 60.176205 
703.000000	 60.166478 
702.000000	 60.162687 
701.000000	 60.163974 
700.000000	 60.169935 
699.000000	 60.181188 
698.000000	 60.198640 
697.000000	 60.223221 
696.000000	 60.255289 
695.000000	 60.293555 
694.000000	 60.334801 
693.000000	 60.374212 
692.000000	 60.406184 
691.000000	 60.426139 
690.000000	 60.431575 
689.000000	 60.422635 
688.000000	 60.402178 
687.000000	 60.374879 
686.000000	 60.346198 
685.000000	 60.320305 
684.000000	 60.298943 
683.000000	 60.281515 
682.000000	 60.265135 
681.000000	 60.246086 
680.000000	 60.220742 
679.000000	 60.186672 
678.000000	 60.143923 
677.000000	 60.094690 
676.000000	 60.043931 
675.000000	 59.997177 
674.000000	 59.961056 
673.000000	 59.941101 
672.000000	 59.941530 
671.000000	 59.964394 
670.000000	 60.008740 
669.000000	 60.071158 
668.000000	 60.145044 
667.000000	 60.221791 
666.000000	 60.291147 
665.000000	 60.342645 
664.000000	 60.367226 
663.000000	 60.359072 
662.000000	 60.316252 
661.000000	 60.241603 
660.000000	 60.142159 
659.000000	 60.028052 
658.000000	 59.910941 
657.000000	 59.802198 
656.000000	 59.711384 
655.000000	 59.645366 
654.000000	 59.607458 
653.000000	 59.597921 
652.000000	 59.614849 
651.000000	 59.654855 
650.000000	 59.712910 
649.000000	 59.783840 
648.000000	 59.861731 
647.000000	 59.941005 
646.000000	 60.015940 
645.000000	 60.081362 
644.000000	 60.132265 
643.000000	 60.164856 
642.000000	 60.177779 
641.000000	 60.171055 
640.000000	 60.146546 
639.000000	 60.107183 
638.000000	 60.057067 
637.000000	 60.001134 
636.000000	 59.945082 
635.000000	 59.894490 
634.000000	 59.854125 
633.000000	 59.827709 
632.000000	 59.816837 
631.000000	 59.821009 
630.000000	 59.836816 
629.000000	 59.857344 
628.000000	 59.873151 
627.000000	 59.873819 
626.000000	 59.850525 
625.000000	 59.797167 
624.000000	 59.713983 
623.000000	 59.606695 
622.000000	 59.488534 
621.000000	 59.376955 
620.000000	 59.292244 
619.000000	 59.252142 
618.000000	 59.269285 
617.000000	 59.349060 
616.000000	 59.486174 
615.000000	 59.666204 
614.000000	 59.865593 
613.000000	 60.056042 
612.000000	 60.208606 
611.000000	 60.298943 
610.000000	 60.313177 
609.000000	 60.250496 
608.000000	 60.124278 
607.000000	 59.958910 
606.000000	 59.786105 
605.000000	 59.637665 
604.000000	 59.539580 
603.000000	 59.506464 
602.000000	 59.539890 
601.000000	 59.627890 
600.000000	 59.750294 
599.000000	 59.881424 
598.000000	 59.995007 
597.000000	 60.069680 
596.000000	 60.091972 
595.000000	 60.059094 
594.000000	 59.976387 
593.000000	 59.857559 
592.000000	 59.720110 
591.000000	 59.583187 
590.000000	 59.463858 
589.000000	 59.374737 
588.000000	 59.323906 
587.000000	 59.312224 
586.000000	 59.334897 
585.000000	 59.381580 
584.000000	 59.439444 
583.000000	 59.493112 
582.000000	 59.527325 
581.000000	 59.528517 
580.000000	 59.487271 
579.000000	 59.399628 
578.000000	 59.269309 
577.000000	 59.107589 
576.000000	 58.933687 
575.000000	 58.772516 
574.000000	 58.651876 
573.000000	 58.598089 
572.000000	 58.630418 
571.000000	 58.756852 
570.000000	 58.970594 
569.000000	 59.250283 
568.000000	 59.562635 
567.000000	 59.867548 
566.000000	 60.126757 
565.000000	 60.308480 
564.000000	 60.397100 
563.000000	 60.394454 
562.000000	 60.321044 
561.000000	 60.209798 
560.000000	 60.099744 
559.000000	 60.027050 
558.000000	 60.017752 
557.000000	 60.083436 
556.000000	 60.220003 
555.000000	 60.411190 
554.000000	 60.632038 
553.000000	 60.855269 
552.000000	 61.055994 
551.000000	 61.216187 
550.000000	 61.324572 
549.000000	 61.377596 
548.000000	 61.377859 
547.000000	 61.332774 
546.000000	 61.253929 
545.000000	 61.154103 
544.000000	 61.047172 
543.000000	 60.944533 
542.000000	 60.857248 
541.000000	 60.791158 
540.000000	 60.748147 
539.000000	 60.724020 
538.000000	 60.710144 
537.000000	 60.695433 
536.000000	 60.670566 
535.000000	 60.628461 
534.000000	 60.565900 
533.000000	 60.483098 
532.000000	 60.383820 
531.000000	 60.271692 
530.000000	 60.148930 
529.000000	 60.014986 
528.000000	 59.867262 
527.000000	 59.703063 
526.000000	 59.522318 
525.000000	 59.329700 
524.000000	 59.135961 
523.000000	 58.956432 
522.000000	 58.809232 
521.000000	 58.711862 
520.000000	 58.677744 
519.000000	 58.711385 
518.000000	 58.807945 
517.000000	 58.953738 
516.000000	 59.128689 
515.000000	 59.309577 
514.000000	 59.473991 
513.000000	 59.603309 
512.000000	 59.685349 
511.000000	 59.714794 
510.000000	 59.693765 
509.000000	 59.629321 
508.000000	 59.533143 
507.000000	 59.419870 
506.000000	 59.304547 
505.000000	 59.201574 
504.000000	 59.122514 
503.000000	 59.076046 
502.000000	 59.064888 
501.000000	 59.086227 
500.000000	 59.132599 
499.000000	 59.194254 
498.000000	 59.260177 
497.000000	 59.320783 
496.000000	 59.370636 
495.000000	 59.409022 
494.000000	 59.438753 
493.000000	 59.464335 
492.000000	 59.489750 
491.000000	 59.516167 
490.000000	 59.540939 
489.000000	 59.557867 
488.000000	 59.559369 
487.000000	 59.538841 
486.000000	 59.494018 
485.000000	 59.427881 
484.000000	 59.348917 
483.000000	 59.268975 
482.000000	 59.200620 
481.000000	 59.154057 
480.000000	 59.133744 
479.000000	 59.139657 
478.000000	 59.167575 
477.000000	 59.212183 
476.000000	 59.268403 
475.000000	 59.335041 
474.000000	 59.414744 
473.000000	 59.511733 
472.000000	 59.628748 
471.000000	 59.765291 
470.000000	 59.914922 
469.000000	 60.064744 
468.000000	 60.196495 
467.000000	 60.290002 
466.000000	 60.327124 
465.000000	 60.297703 
464.000000	 60.201501 
463.000000	 60.048031 
462.000000	 59.855747 
461.000000	 59.649968 
460.000000	 59.457612 
459.000000	 59.301805 
458.000000	 59.198951 
457.000000	 59.157991 
456.000000	 59.178066 
455.000000	 59.251332 
454.000000	 59.362006 
453.000000	 59.491419 
452.000000	 59.616446 
451.000000	 59.713745 
450.000000	 59.759807 
449.000000	 59.733963 
448.000000	 59.621524 
447.000000	 59.417152 
446.000000	 59.126210 
445.000000	 58.765888 
444.000000	 58.366012 
443.000000	 57.966685 
442.000000	 57.611203 
441.000000	 57.341361 
440.000000	 57.191681 
439.000000	 57.185387 
438.000000	 57.328248 
437.000000	 57.610321 
436.000000	 58.007049 
435.000000	 58.484506 
434.000000	 59.000372 
433.000000	 59.513163 
432.000000	 59.985184 
431.000000	 60.387992 
430.000000	 60.704636 
429.000000	 60.927677 
428.000000	 61.055684 
427.000000	 61.092948 
426.000000	 61.053204 
425.000000	 60.949563 
424.000000	 60.796236 
423.000000	 60.604071 
422.000000	 60.386347 
421.000000	 60.149049 
420.000000	 59.893393 
419.000000	 59.620308 
418.000000	 59.335136 
417.000000	 59.042477 
416.000000	 58.748197 
415.000000	 58.467817 
414.000000	 58.222198 
413.000000	 58.028602 
412.000000	 57.896089 
411.000000	 57.821106 
410.000000	 57.788133 
409.000000	 57.768607 
408.000000	 57.735490 
407.000000	 57.656812 
406.000000	 57.524394 
405.000000	 57.361412 
404.000000	 57.222294 
403.000000	 57.168436 
402.000000	 57.266354 
401.000000	 57.569527 
400.000000	 58.099675 
399.000000	 58.834910 
398.000000	 59.713006 
397.000000	 60.634541 
396.000000	 61.503434 
395.000000	 62.243747 
394.000000	 62.840747 
393.000000	 63.343334 
392.000000	 63.853549 
391.000000	 64.494490 
390.000000	 65.372681 
389.000000	 66.537809 
388.000000	 67.978239 
387.000000	 69.603919 
386.000000	 71.261167 
385.000000	 72.748565 
384.000000	 73.880815 
383.000000	 74.496293 
382.000000	 74.513721 
381.000000	 73.902964 
380.000000	 72.701454 
379.000000	 70.974826 
378.000000	 68.788099 
377.000000	 66.238355 
376.000000	 63.399219 
375.000000	 60.440945 
374.000000	 57.681775 
373.000000	 55.502796 
372.000000	 54.321861 
371.000000	 54.399490 
370.000000	 55.754685 

