PE IR       SPECTRUM    SPECTRUM    ASCII       PEDS        1.60        
  -1
BZ69A5~1.ASC
17/04/07
20:46:00.00
17/04/07
20:46:00.00
tln
$BZ1503107-1_t0091$<tbV0>[7.8,7.8,8.0,0.0,27,1,0]
370.000000
64









2002,4.07    
MIRTGS : RIGHTBACK : INTERNAL 2
MIR : ON : INTERNAL 2
OPTKBR

0.200000
8
8.000000
FILLER
RATIO
SPECTRUM
UNLOCKED 256

DOUBLE
64
COMBINED
1
0
0


1.000000
RATIO


1
0
TRUE
51149
0
LEFT NOT FITTED RIGHT NOT FITTED 0
NONE
NONE
15600
12.000000
4.427000
51148
TRUE
1 0 8 72 0 0 0 0 

15798.010000






#HDR
-1
-1
#GR
CM-1
%T
0.00002384185791015625
0.0
5000.000000
-1.000000
4631
8
80.719494
51.493906
#DATA
5000.000000	64.249992 
4999.000000	64.248299 
4998.000000	64.237761 
4997.000000	64.222741 
4996.000000	64.210414 
4995.000000	64.206480 
4994.000000	64.214587 
4993.000000	64.233374 
4992.000000	64.258980 
4991.000000	64.285540 
4990.000000	64.309144 
4989.000000	64.329409 
4988.000000	64.350271 
4987.000000	64.378333 
4986.000000	64.422392 
4985.000000	64.490509 
4984.000000	64.584779 
4983.000000	64.698529 
4982.000000	64.819264 
4981.000000	64.929509 
4980.000000	65.007877 
4979.000000	65.033245 
4978.000000	64.989113 
4977.000000	64.868116 
4976.000000	64.674878 
4975.000000	64.426970 
4974.000000	64.149999 
4973.000000	63.875937 
4972.000000	63.639569 
4971.000000	63.470983 
4970.000000	63.390493 
4969.000000	63.403868 
4968.000000	63.502311 
4967.000000	63.663172 
4966.000000	63.852310 
4965.000000	64.035177 
4964.000000	64.180421 
4963.000000	64.273548 
4962.000000	64.314937 
4961.000000	64.327907 
4960.000000	64.349174 
4959.000000	64.426469 
4958.000000	64.604091 
4957.000000	64.915227 
4956.000000	65.369749 
4955.000000	65.950107 
4954.000000	66.608428 
4953.000000	67.270565 
4952.000000	67.846059 
4951.000000	68.244099 
4950.000000	68.390154 
4949.000000	68.242883 
4948.000000	67.802143 
4947.000000	67.113780 
4946.000000	66.258263 
4945.000000	65.336871 
4944.000000	64.451026 
4943.000000	63.687467 
4942.000000	63.103413 
4941.000000	62.723159 
4940.000000	62.539434 
4939.000000	62.523746 
4938.000000	62.636351 
4937.000000	62.834763 
4936.000000	63.085103 
4935.000000	63.358926 
4934.000000	63.642191 
4933.000000	63.926887 
4932.000000	64.209270 
4931.000000	64.481139 
4930.000000	64.730286 
4929.000000	64.938831 
4928.000000	65.087151 
4927.000000	65.157818 
4926.000000	65.142464 
4925.000000	65.044307 
4924.000000	64.880228 
4923.000000	64.676952 
4922.000000	64.466834 
4921.000000	64.280414 
4920.000000	64.139413 
4919.000000	64.054679 
4918.000000	64.026832 
4917.000000	64.048433 
4916.000000	64.109539 
4915.000000	64.199852 
4914.000000	64.309620 
4913.000000	64.432072 
4912.000000	64.563798 
4911.000000	64.700937 
4910.000000	64.834570 
4909.000000	64.953517 
4908.000000	65.044617 
4907.000000	65.096139 
4906.000000	65.100789 
4905.000000	65.059161 
4904.000000	64.980435 
4903.000000	64.882779 
4902.000000	64.789700 
4901.000000	64.724063 
4900.000000	64.702367 
4899.000000	64.731121 
4898.000000	64.804720 
4897.000000	64.906525 
4896.000000	65.013194 
4895.000000	65.100955 
4894.000000	65.151453 
4893.000000	65.155768 
4892.000000	65.116763 
4891.000000	65.046477 
4890.000000	64.963531 
4889.000000	64.887714 
4888.000000	64.834713 
4887.000000	64.812231 
4886.000000	64.818596 
4885.000000	64.845180 
4884.000000	64.878582 
4883.000000	64.906048 
4882.000000	64.918017 
4881.000000	64.910578 
4880.000000	64.886140 
4879.000000	64.851784 
4878.000000	64.817190 
4877.000000	64.790630 
4876.000000	64.779114 
4875.000000	64.786267 
4874.000000	64.812612 
4873.000000	64.855408 
4872.000000	64.909410 
4871.000000	64.967799 
4870.000000	65.022873 
4869.000000	65.067768 
4868.000000	65.097188 
4867.000000	65.108919 
4866.000000	65.103864 
4865.000000	65.086197 
4864.000000	65.062832 
4863.000000	65.041327 
4862.000000	65.028667 
4861.000000	65.029048 
4860.000000	65.043163 
4859.000000	65.067934 
4858.000000	65.098094 
4857.000000	65.127038 
4856.000000	65.148925 
4855.000000	65.159845 
4854.000000	65.159249 
4853.000000	65.148639 
4852.000000	65.130853 
4851.000000	65.108609 
4850.000000	65.083575 
4849.000000	65.056610 
4848.000000	65.027832 
4847.000000	64.997625 
4846.000000	64.966845 
4845.000000	64.936661 
4844.000000	64.907860 
4843.000000	64.880561 
4842.000000	64.853668 
4841.000000	64.824748 
4840.000000	64.791369 
4839.000000	64.751243 
4838.000000	64.704680 
4837.000000	64.654707 
4836.000000	64.607834 
4835.000000	64.572381 
4834.000000	64.556956 
4833.000000	64.567923 
4832.000000	64.607810 
4831.000000	64.673519 
4830.000000	64.757442 
4829.000000	64.848446 
4828.000000	64.934778 
4827.000000	65.006375 
4826.000000	65.057301 
4825.000000	65.086627 
4824.000000	65.097665 
4823.000000	65.096449 
4822.000000	65.090012 
4821.000000	65.084123 
4820.000000	65.082287 
4819.000000	65.085363 
4818.000000	65.092134 
4817.000000	65.100336 
4816.000000	65.108251 
4815.000000	65.115427 
4814.000000	65.122628 
4813.000000	65.131545 
4812.000000	65.144157 
4811.000000	65.161657 
4810.000000	65.183758 
4809.000000	65.208792 
4808.000000	65.234279 
4807.000000	65.257358 
4806.000000	65.275597 
4805.000000	65.287065 
4804.000000	65.291070 
4803.000000	65.287137 
4802.000000	65.275144 
4801.000000	65.254855 
4800.000000	65.225911 
4799.000000	65.188336 
4798.000000	65.143179 
4797.000000	65.092492 
4796.000000	65.039706 
4795.000000	64.988803 
4794.000000	64.943766 
4793.000000	64.907550 
4792.000000	64.881443 
4791.000000	64.864683 
4790.000000	64.855098 
4789.000000	64.849853 
4788.000000	64.846801 
4787.000000	64.845442 
4786.000000	64.847230 
4785.000000	64.854669 
4784.000000	64.870786 
4783.000000	64.897394 
4782.000000	64.934325 
4781.000000	64.978456 
4780.000000	65.024113 
4779.000000	65.064191 
4778.000000	65.091466 
4777.000000	65.100741 
4776.000000	65.089845 
4775.000000	65.060043 
4774.000000	65.016078 
4773.000000	64.964699 
4772.000000	64.914131 
4771.000000	64.872241 
4770.000000	64.846158 
4769.000000	64.841103 
4768.000000	64.860248 
4767.000000	64.904069 
4766.000000	64.970898 
4765.000000	65.056443 
4764.000000	65.153479 
4763.000000	65.252232 
4762.000000	65.341114 
4761.000000	65.408658 
4760.000000	65.445089 
4759.000000	65.444707 
4758.000000	65.407180 
4757.000000	65.338182 
4756.000000	65.249347 
4755.000000	65.155529 
4754.000000	65.072703 
4753.000000	65.013432 
4752.000000	64.985704 
4751.000000	64.990282 
4750.000000	65.021228 
4749.000000	65.067577 
4748.000000	65.116286 
4747.000000	65.155768 
4746.000000	65.177869 
4745.000000	65.180611 
4744.000000	65.167546 
4743.000000	65.147018 
4742.000000	65.129184 
4741.000000	65.123820 
4740.000000	65.137171 
4739.000000	65.171408 
4738.000000	65.223526 
4737.000000	65.286374 
4736.000000	65.349674 
4735.000000	65.402626 
4734.000000	65.435695 
4733.000000	65.442276 
4732.000000	65.420031 
4731.000000	65.370225 
4730.000000	65.297794 
4729.000000	65.210533 
4728.000000	65.117383 
4727.000000	65.027308 
4726.000000	64.947605 
4725.000000	64.883518 
4724.000000	64.837455 
4723.000000	64.809393 
4722.000000	64.797234 
4721.000000	64.797210 
4720.000000	64.805650 
4719.000000	64.819288 
4718.000000	64.836621 
4717.000000	64.857268 
4716.000000	64.882421 
4715.000000	64.913392 
4714.000000	64.951705 
4713.000000	64.997863 
4712.000000	65.050935 
4711.000000	65.108346 
4710.000000	65.165734 
4709.000000	65.217518 
4708.000000	65.258359 
4707.000000	65.283775 
4706.000000	65.291380 
4705.000000	65.280795 
4704.000000	65.254163 
4703.000000	65.215110 
4702.000000	65.167856 
4701.000000	65.116620 
4700.000000	65.064930 
4699.000000	65.015721 
4698.000000	64.971470 
4697.000000	64.934659 
4696.000000	64.908528 
4695.000000	64.896202 
4694.000000	64.900207 
4693.000000	64.921712 
4692.000000	64.959740 
4691.000000	65.011358 
4690.000000	65.071344 
4689.000000	65.133571 
4688.000000	65.191507 
4687.000000	65.240716 
4686.000000	65.279531 
4685.000000	65.309119 
4684.000000	65.332698 
4683.000000	65.354442 
4682.000000	65.377950 
4681.000000	65.404796 
4680.000000	65.433883 
4679.000000	65.462636 
4678.000000	65.487074 
4677.000000	65.503764 
4676.000000	65.510082 
4675.000000	65.505313 
4674.000000	65.490508 
4673.000000	65.467977 
4672.000000	65.441203 
4671.000000	65.413928 
4670.000000	65.389871 
4669.000000	65.372872 
4668.000000	65.365314 
4667.000000	65.367817 
4666.000000	65.378546 
4665.000000	65.394139 
4664.000000	65.408873 
4663.000000	65.415835 
4662.000000	65.408086 
4661.000000	65.380144 
4660.000000	65.329551 
4659.000000	65.258073 
4658.000000	65.171194 
4657.000000	65.077304 
4656.000000	64.986515 
4655.000000	64.908409 
4654.000000	64.849567 
4653.000000	64.812803 
4652.000000	64.796900 
4651.000000	64.797568 
4650.000000	64.808464 
4649.000000	64.823579 
4648.000000	64.837956 
4647.000000	64.849948 
4646.000000	64.859628 
4645.000000	64.870452 
4644.000000	64.886856 
4643.000000	64.914155 
4642.000000	64.956116 
4641.000000	65.014433 
4640.000000	65.088009 
4639.000000	65.172529 
4638.000000	65.261912 
4637.000000	65.348005 
4636.000000	65.422463 
4635.000000	65.477466 
4634.000000	65.507245 
4633.000000	65.508341 
4632.000000	65.480399 
4631.000000	65.425896 
4630.000000	65.350246 
4629.000000	65.260767 
4628.000000	65.165901 
4627.000000	65.074706 
4626.000000	64.995574 
4625.000000	64.934992 
4624.000000	64.896845 
4623.000000	64.882612 
4622.000000	64.890503 
4621.000000	64.915728 
4620.000000	64.951419 
4619.000000	64.989376 
4618.000000	65.022134 
4617.000000	65.043520 
4616.000000	65.050816 
4615.000000	65.043878 
4614.000000	65.026116 
4613.000000	65.003275 
4612.000000	64.982199 
4611.000000	64.968967 
4610.000000	64.967584 
4609.000000	64.979052 
4608.000000	65.000844 
4607.000000	65.027880 
4606.000000	65.053772 
4605.000000	65.072679 
4604.000000	65.080356 
4603.000000	65.075421 
4602.000000	65.059542 
4601.000000	65.036988 
4600.000000	65.013480 
4599.000000	64.994692 
4598.000000	64.984965 
4597.000000	64.986181 
4596.000000	64.998054 
4595.000000	65.017771 
4594.000000	65.040898 
4593.000000	65.062379 
4592.000000	65.077686 
4591.000000	65.083670 
4590.000000	65.079164 
4589.000000	65.065193 
4588.000000	65.044260 
4587.000000	65.020108 
4586.000000	64.997005 
4585.000000	64.978885 
4584.000000	64.968562 
4583.000000	64.967179 
4582.000000	64.974355 
4581.000000	64.988231 
4580.000000	65.005970 
4579.000000	65.024375 
4578.000000	65.040588 
4577.000000	65.052509 
4576.000000	65.059041 
4575.000000	65.060257 
4574.000000	65.056967 
4573.000000	65.050506 
4572.000000	65.041947 
4571.000000	65.031981 
4570.000000	65.020394 
4569.000000	65.006875 
4568.000000	64.990615 
4567.000000	64.970993 
4566.000000	64.947581 
4565.000000	64.920544 
4564.000000	64.890432 
4563.000000	64.858198 
4562.000000	64.824986 
4561.000000	64.791846 
4560.000000	64.759874 
4559.000000	64.730024 
4558.000000	64.703249 
4557.000000	64.680576 
4556.000000	64.662671 
4555.000000	64.649844 
4554.000000	64.641523 
4553.000000	64.636182 
4552.000000	64.631319 
4551.000000	64.624023 
4550.000000	64.611363 
4549.000000	64.591360 
4548.000000	64.564132 
4547.000000	64.532113 
4546.000000	64.499878 
4545.000000	64.472913 
4544.000000	64.455890 
4543.000000	64.451265 
4542.000000	64.458179 
4541.000000	64.472866 
4540.000000	64.489531 
4539.000000	64.502406 
4538.000000	64.506912 
4537.000000	64.501523 
4536.000000	64.487981 
4535.000000	64.471173 
4534.000000	64.457225 
4533.000000	64.452195 
4532.000000	64.460349 
4531.000000	64.482760 
4530.000000	64.517116 
4529.000000	64.557361 
4528.000000	64.595270 
4527.000000	64.621853 
4526.000000	64.629817 
4525.000000	64.615035 
4524.000000	64.577627 
4523.000000	64.522314 
4522.000000	64.457654 
4521.000000	64.394903 
4520.000000	64.345598 
4519.000000	64.319205 
4518.000000	64.320683 
4517.000000	64.349555 
4516.000000	64.399147 
4515.000000	64.458370 
4514.000000	64.513611 
4513.000000	64.551806 
4512.000000	64.563250 
4511.000000	64.543390 
4510.000000	64.493680 
4509.000000	64.420461 
4508.000000	64.333820 
4507.000000	64.244484 
4506.000000	64.162564 
4505.000000	64.095473 
4504.000000	64.047479 
4503.000000	64.020037 
4502.000000	64.011812 
4501.000000	64.019966 
4500.000000	64.040327 
4499.000000	64.068341 
4498.000000	64.098453 
4497.000000	64.124608 
4496.000000	64.140605 
4495.000000	64.141082 
4494.000000	64.121675 
4493.000000	64.080357 
4492.000000	64.019227 
4491.000000	63.944149 
4490.000000	63.862848 
4489.000000	63.783764 
4488.000000	63.716030 
4487.000000	63.666415 
4486.000000	63.637638 
4485.000000	63.628530 
4484.000000	63.631939 
4483.000000	63.640069 
4482.000000	63.648700 
4481.000000	63.656568 
4480.000000	63.664388 
4479.000000	63.675022 
4478.000000	63.689732 
4477.000000	63.710260 
4476.000000	63.740015 
4475.000000	63.778495 
4474.000000	63.817548 
4473.000000	63.854265 
4472.000000	63.894677 
4471.000000	63.942933 
4470.000000	64.000463 
4469.000000	64.067244 
4468.000000	64.143109 
4467.000000	64.233088 
4466.000000	64.347529 
4465.000000	64.501285 
4464.000000	64.707136 
4463.000000	64.976620 
4462.000000	65.306162 
4461.000000	65.674471 
4460.000000	66.035771 
4459.000000	66.336655 
4458.000000	66.512346 
4457.000000	66.502952 
4456.000000	66.264820 
4455.000000	65.770339 
4454.000000	65.043044 
4453.000000	64.135217 
4452.000000	63.174462 
4451.000000	62.335848 
4450.000000	61.838650 
4449.000000	61.896491 
4448.000000	62.677097 
4447.000000	64.255404 
4446.000000	66.577100 
4445.000000	69.453167 
4444.000000	72.581100 
4443.000000	75.595808 
4442.000000	78.133869 
4441.000000	79.899978 
4440.000000	80.719494 
4439.000000	80.560445 
4438.000000	79.534292 
4437.000000	77.854490 
4436.000000	75.786805 
4435.000000	73.589444 
4434.000000	71.482706 
4433.000000	69.612193 
4432.000000	68.073749 
4431.000000	66.895055 
4430.000000	66.085910 
4429.000000	65.617847 
4428.000000	65.439057 
4427.000000	65.479516 
4426.000000	65.631461 
4425.000000	65.800213 
4424.000000	65.900325 
4423.000000	65.890741 
4422.000000	65.770268 
4421.000000	65.574669 
4420.000000	65.354752 
4419.000000	65.158486 
4418.000000	65.009260 
4417.000000	64.912557 
4416.000000	64.855933 
4415.000000	64.822149 
4414.000000	64.796495 
4413.000000	64.774489 
4412.000000	64.762544 
4411.000000	64.761018 
4410.000000	64.766788 
4409.000000	64.777636 
4408.000000	64.790320 
4407.000000	64.801383 
4406.000000	64.807009 
4405.000000	64.800214 
4404.000000	64.774870 
4403.000000	64.733600 
4402.000000	64.681077 
4401.000000	64.618110 
4400.000000	64.545869 
4399.000000	64.469742 
4398.000000	64.393663 
4397.000000	64.317774 
4396.000000	64.242601 
4395.000000	64.169478 
4394.000000	64.102363 
4393.000000	64.047718 
4392.000000	64.013910 
4391.000000	64.008831 
4390.000000	64.038562 
4389.000000	64.104771 
4388.000000	64.204001 
4387.000000	64.327025 
4386.000000	64.458823 
4385.000000	64.581131 
4384.000000	64.676237 
4383.000000	64.730691 
4382.000000	64.737606 
4381.000000	64.698576 
4380.000000	64.623570 
4379.000000	64.528250 
4378.000000	64.430570 
4377.000000	64.346361 
4376.000000	64.287209 
4375.000000	64.257621 
4374.000000	64.255905 
4373.000000	64.274883 
4372.000000	64.305520 
4371.000000	64.338612 
4370.000000	64.367341 
4369.000000	64.388203 
4368.000000	64.401030 
4367.000000	64.407825 
4366.000000	64.410805 
4365.000000	64.411902 
4364.000000	64.411377 
4363.000000	64.408612 
4362.000000	64.402389 
4361.000000	64.392328 
4360.000000	64.379954 
4359.000000	64.368677 
4358.000000	64.363598 
4357.000000	64.370155 
4356.000000	64.392924 
4355.000000	64.434170 
4354.000000	64.493060 
4353.000000	64.565205 
4352.000000	64.643383 
4351.000000	64.719295 
4350.000000	64.784622 
4349.000000	64.832878 
4348.000000	64.860391 
4347.000000	64.866924 
4346.000000	64.855337 
4345.000000	64.831256 
4344.000000	64.801144 
4343.000000	64.770960 
4342.000000	64.744973 
4341.000000	64.725828 
4340.000000	64.713597 
4339.000000	64.706826 
4338.000000	64.703035 
4337.000000	64.699816 
4336.000000	64.695620 
4335.000000	64.690303 
4334.000000	64.685153 
4333.000000	64.682626 
4332.000000	64.685821 
4331.000000	64.697766 
4330.000000	64.720582 
4329.000000	64.754629 
4328.000000	64.798927 
4327.000000	64.850187 
4326.000000	64.903759 
4325.000000	64.953589 
4324.000000	64.993762 
4323.000000	65.018963 
4322.000000	65.025377 
4321.000000	65.011739 
4320.000000	64.979648 
4319.000000	64.933776 
4318.000000	64.880704 
4317.000000	64.828562 
4316.000000	64.785671 
4315.000000	64.758825 
4314.000000	64.752554 
4313.000000	64.768004 
4312.000000	64.803075 
4311.000000	64.852857 
4310.000000	64.910674 
4309.000000	64.969420 
4308.000000	65.022850 
4307.000000	65.066337 
4306.000000	65.097284 
4305.000000	65.114927 
4304.000000	65.119743 
4303.000000	65.112757 
4302.000000	65.095043 
4301.000000	65.067601 
4300.000000	65.031313 
4299.000000	64.987611 
4298.000000	64.938473 
4297.000000	64.887094 
4296.000000	64.837288 
4295.000000	64.793324 
4294.000000	64.759039 
4293.000000	64.736962 
4292.000000	64.727807 
4291.000000	64.730048 
4290.000000	64.740276 
4289.000000	64.753842 
4288.000000	64.765930 
4287.000000	64.772605 
4286.000000	64.771413 
4285.000000	64.761543 
4284.000000	64.744138 
4283.000000	64.721751 
4282.000000	64.697837 
4281.000000	64.675831 
4280.000000	64.658665 
4279.000000	64.647912 
4278.000000	64.643621 
4277.000000	64.644384 
4276.000000	64.647436 
4275.000000	64.649796 
4274.000000	64.649105 
4273.000000	64.644670 
4272.000000	64.637160 
4271.000000	64.629149 
4270.000000	64.623832 
4269.000000	64.624667 
4268.000000	64.633893 
4267.000000	64.652371 
4266.000000	64.679098 
4265.000000	64.711785 
4264.000000	64.747476 
4263.000000	64.783430 
4262.000000	64.817738 
4261.000000	64.849734 
4260.000000	64.879965 
4259.000000	64.909124 
4258.000000	64.937663 
4257.000000	64.965081 
4256.000000	64.989781 
4255.000000	65.009617 
4254.000000	65.022635 
4253.000000	65.027856 
4252.000000	65.025925 
4251.000000	65.018630 
4250.000000	65.008544 
4249.000000	64.998435 
4248.000000	64.990282 
4247.000000	64.984774 
4246.000000	64.981198 
4245.000000	64.977836 
4244.000000	64.972305 
4243.000000	64.962530 
4242.000000	64.947342 
4241.000000	64.926958 
4240.000000	64.903044 
4239.000000	64.878296 
4238.000000	64.856028 
4237.000000	64.839482 
4236.000000	64.831018 
4235.000000	64.831757 
4234.000000	64.841079 
4233.000000	64.856719 
4232.000000	64.875221 
4231.000000	64.892697 
4230.000000	64.905500 
4229.000000	64.910936 
4228.000000	64.908123 
4227.000000	64.898395 
4226.000000	64.884805 
4225.000000	64.871549 
4224.000000	64.862775 
4223.000000	64.861416 
4222.000000	64.868402 
4221.000000	64.882445 
4220.000000	64.900088 
4219.000000	64.917135 
4218.000000	64.929723 
4217.000000	64.936041 
4216.000000	64.936566 
4215.000000	64.934349 
4214.000000	64.934468 
4213.000000	64.941954 
4212.000000	64.960741 
4211.000000	64.991474 
4210.000000	65.031576 
4209.000000	65.074872 
4208.000000	65.113377 
4207.000000	65.138673 
4206.000000	65.144515 
4205.000000	65.128064 
4204.000000	65.090656 
4203.000000	65.037465 
4202.000000	64.976453 
4201.000000	64.916396 
4200.000000	64.864993 
4199.000000	64.827513 
4198.000000	64.805960 
4197.000000	64.799594 
4196.000000	64.805936 
4195.000000	64.821505 
4194.000000	64.843201 
4193.000000	64.869070 
4192.000000	64.898753 
4191.000000	64.932203 
4190.000000	64.969754 
4189.000000	65.011167 
4188.000000	65.055251 
4187.000000	65.099644 
4186.000000	65.141081 
4185.000000	65.176200 
4184.000000	65.202212 
4183.000000	65.217614 
4182.000000	65.222620 
4181.000000	65.219140 
4180.000000	65.210366 
4179.000000	65.200185 
4178.000000	65.192413 
4177.000000	65.190196 
4176.000000	65.195012 
4175.000000	65.206623 
4174.000000	65.223145 
4173.000000	65.241312 
4172.000000	65.257215 
4171.000000	65.266990 
4170.000000	65.267395 
4169.000000	65.256404 
4168.000000	65.233469 
4167.000000	65.199851 
4166.000000	65.157818 
4165.000000	65.110611 
4164.000000	65.061688 
4163.000000	65.014553 
4162.000000	64.972138 
4161.000000	64.936828 
4160.000000	64.910387 
4159.000000	64.893913 
4158.000000	64.887976 
4157.000000	64.892244 
4156.000000	64.905452 
4155.000000	64.925217 
4154.000000	64.948225 
4153.000000	64.970397 
4152.000000	64.987134 
4151.000000	64.994549 
4150.000000	64.990258 
4149.000000	64.973902 
4148.000000	64.947485 
4147.000000	64.914965 
4146.000000	64.881634 
4145.000000	64.852881 
4144.000000	64.833068 
4143.000000	64.824676 
4142.000000	64.827895 
4141.000000	64.840984 
4140.000000	64.861345 
4139.000000	64.886021 
4138.000000	64.913153 
4137.000000	64.942073 
4136.000000	64.973664 
4135.000000	65.009307 
4134.000000	65.050196 
4133.000000	65.096449 
4132.000000	65.146183 
4131.000000	65.195798 
4130.000000	65.240073 
4129.000000	65.274167 
4128.000000	65.293812 
4127.000000	65.296840 
4126.000000	65.283250 
4125.000000	65.255618 
4124.000000	65.217876 
4123.000000	65.174579 
4122.000000	65.129923 
4121.000000	65.087056 
4120.000000	65.048146 
4119.000000	65.014529 
4118.000000	64.987373 
4117.000000	64.968204 
4116.000000	64.959120 
4115.000000	64.962506 
4114.000000	64.980149 
4113.000000	65.012335 
4112.000000	65.056824 
4111.000000	65.108728 
4110.000000	65.160751 
4109.000000	65.205001 
4108.000000	65.234375 
4107.000000	65.244555 
4106.000000	65.235018 
4105.000000	65.209221 
4104.000000	65.174150 
4103.000000	65.138363 
4102.000000	65.109920 
4101.000000	65.094327 
4100.000000	65.093731 
4099.000000	65.106344 
4098.000000	65.127468 
4097.000000	65.151095 
4096.000000	65.171766 
4095.000000	65.186047 
4094.000000	65.193057 
4093.000000	65.194177 
4092.000000	65.192103 
4091.000000	65.189647 
4090.000000	65.188765 
4089.000000	65.190005 
4088.000000	65.192794 
4087.000000	65.196037 
4086.000000	65.198707 
4085.000000	65.200638 
4084.000000	65.202307 
4083.000000	65.204811 
4082.000000	65.209102 
4081.000000	65.215611 
4080.000000	65.223622 
4079.000000	65.231299 
4078.000000	65.235924 
4077.000000	65.234899 
4076.000000	65.226292 
4075.000000	65.209555 
4074.000000	65.185761 
4073.000000	65.157151 
4072.000000	65.127110 
4071.000000	65.099382 
4070.000000	65.077233 
4069.000000	65.063023 
4068.000000	65.057826 
4067.000000	65.061545 
4066.000000	65.072536 
4065.000000	65.088224 
4064.000000	65.105128 
4063.000000	65.119624 
4062.000000	65.128612 
4061.000000	65.130162 
4060.000000	65.123748 
4059.000000	65.110468 
4058.000000	65.092778 
4057.000000	65.073871 
4056.000000	65.056824 
4055.000000	65.043997 
4054.000000	65.036487 
4053.000000	65.034127 
4052.000000	65.035414 
4051.000000	65.038514 
4050.000000	65.042138 
4049.000000	65.046000 
4048.000000	65.050911 
4047.000000	65.058588 
4046.000000	65.070891 
4045.000000	65.089035 
4044.000000	65.112829 
4043.000000	65.140700 
4042.000000	65.169930 
4041.000000	65.197491 
4040.000000	65.220856 
4039.000000	65.238595 
4038.000000	65.250802 
4037.000000	65.258884 
4036.000000	65.265011 
4035.000000	65.271329 
4034.000000	65.279102 
4033.000000	65.288543 
4032.000000	65.298366 
4031.000000	65.306591 
4030.000000	65.310716 
4029.000000	65.308952 
4028.000000	65.300178 
4027.000000	65.284681 
4026.000000	65.263581 
4025.000000	65.238881 
4024.000000	65.212965 
4023.000000	65.187883 
4022.000000	65.165519 
4021.000000	65.147471 
4020.000000	65.134763 
4019.000000	65.127730 
4018.000000	65.126037 
4017.000000	65.128946 
4016.000000	65.135097 
4015.000000	65.142750 
4014.000000	65.149855 
4013.000000	65.154409 
4012.000000	65.155029 
4011.000000	65.151119 
4010.000000	65.142989 
4009.000000	65.131807 
4008.000000	65.119791 
4007.000000	65.109419 
4006.000000	65.102648 
4005.000000	65.100383 
4004.000000	65.102076 
4003.000000	65.105843 
4002.000000	65.108704 
4001.000000	65.107655 
4000.000000	65.100669 
3999.000000	65.087819 
3998.000000	65.070939 
3997.000000	65.054225 
3996.000000	65.043115 
3995.000000	65.043163 
3994.000000	65.058326 
3993.000000	65.090155 
3992.000000	65.136933 
3991.000000	65.193915 
3990.000000	65.254306 
3989.000000	65.310430 
3988.000000	65.355587 
3987.000000	65.384984 
3986.000000	65.396642 
3985.000000	65.390682 
3984.000000	65.368914 
3983.000000	65.334153 
3982.000000	65.289449 
3981.000000	65.237832 
3980.000000	65.182137 
3979.000000	65.125441 
3978.000000	65.070772 
3977.000000	65.021538 
3976.000000	64.980769 
3975.000000	64.950752 
3974.000000	64.932465 
3973.000000	64.924883 
3972.000000	64.925479 
3971.000000	64.930438 
3970.000000	64.935517 
3969.000000	64.936971 
3968.000000	64.932489 
3967.000000	64.921259 
3966.000000	64.904117 
3965.000000	64.882564 
3964.000000	64.859032 
3963.000000	64.835548 
3962.000000	64.814591 
3961.000000	64.798617 
3960.000000	64.790463 
3959.000000	64.792799 
3958.000000	64.807701 
3957.000000	64.835953 
3956.000000	64.876127 
3955.000000	64.924240 
3954.000000	64.973974 
3953.000000	65.018057 
3952.000000	65.049409 
3951.000000	65.062975 
3950.000000	65.056848 
3949.000000	65.033030 
3948.000000	64.997267 
3947.000000	64.957594 
3946.000000	64.922404 
3945.000000	64.898800 
3944.000000	64.891052 
3943.000000	64.899849 
3942.000000	64.923095 
3941.000000	64.956521 
3940.000000	64.995241 
3939.000000	65.034890 
3938.000000	65.072107 
3937.000000	65.104913 
3936.000000	65.132570 
3935.000000	65.155053 
3934.000000	65.172410 
3933.000000	65.184783 
3932.000000	65.192079 
3931.000000	65.193867 
3930.000000	65.189766 
3929.000000	65.179634 
3928.000000	65.163969 
3927.000000	65.143680 
3926.000000	65.120100 
3925.000000	65.094757 
3924.000000	65.068936 
3923.000000	65.043759 
3922.000000	65.019583 
3921.000000	64.996242 
3920.000000	64.972877 
3919.000000	64.948487 
3918.000000	64.922213 
3917.000000	64.893674 
3916.000000	64.863729 
3915.000000	64.834189 
3914.000000	64.808201 
3913.000000	64.789557 
3912.000000	64.781951 
3911.000000	64.787817 
3910.000000	64.807796 
3909.000000	64.839911 
3908.000000	64.880132 
3907.000000	64.923000 
3906.000000	64.962720 
3905.000000	64.994120 
3904.000000	65.014028 
3903.000000	65.021634 
3902.000000	65.018534 
3901.000000	65.007948 
3900.000000	64.993739 
3899.000000	64.979243 
3898.000000	64.966845 
3897.000000	64.957284 
3896.000000	64.950060 
3895.000000	64.943957 
3894.000000	64.937949 
3893.000000	64.931845 
3892.000000	64.926528 
3891.000000	64.923882 
3890.000000	64.926147 
3889.000000	64.935421 
3888.000000	64.952468 
3887.000000	64.976811 
3886.000000	65.006589 
3885.000000	65.038990 
3884.000000	65.070748 
3883.000000	65.099310 
3882.000000	65.123057 
3881.000000	65.141510 
3880.000000	65.155363 
3879.000000	65.165758 
3878.000000	65.173983 
3877.000000	65.180778 
3876.000000	65.186285 
3875.000000	65.190029 
3874.000000	65.191459 
3873.000000	65.190052 
3872.000000	65.185666 
3871.000000	65.178728 
3870.000000	65.169882 
3869.000000	65.159606 
3868.000000	65.147948 
3867.000000	65.134382 
3866.000000	65.118241 
3865.000000	65.098881 
3864.000000	65.076351 
3863.000000	65.051674 
3862.000000	65.027236 
3861.000000	65.006184 
3860.000000	64.991903 
3859.000000	64.986944 
3858.000000	64.992332 
3857.000000	65.007281 
3856.000000	65.029096 
3855.000000	65.053510 
3854.000000	65.076231 
3853.000000	65.093874 
3852.000000	65.104889 
3851.000000	65.109634 
3850.000000	65.110373 
3849.000000	65.110588 
3848.000000	65.113687 
3847.000000	65.122199 
3846.000000	65.136933 
3845.000000	65.156888 
3844.000000	65.179729 
3843.000000	65.202426 
3842.000000	65.222048 
3841.000000	65.236163 
3840.000000	65.243577 
3839.000000	65.244340 
3838.000000	65.239214 
3837.000000	65.229272 
3836.000000	65.215587 
3835.000000	65.198612 
3834.000000	65.178704 
3833.000000	65.155577 
3832.000000	65.129232 
3831.000000	65.099740 
3830.000000	65.067648 
3829.000000	65.034008 
3828.000000	65.000224 
3827.000000	64.967823 
3826.000000	64.938259 
3825.000000	64.912819 
3824.000000	64.892411 
3823.000000	64.877939 
3822.000000	64.870071 
3821.000000	64.869403 
3820.000000	64.876484 
3819.000000	64.891815 
3818.000000	64.915776 
3817.000000	64.948248 
3816.000000	64.988303 
3815.000000	65.034127 
3814.000000	65.082430 
3813.000000	65.129446 
3812.000000	65.170311 
3811.000000	65.200495 
3810.000000	65.215802 
3809.000000	65.213489 
3808.000000	65.192794 
3807.000000	65.155100 
3806.000000	65.104269 
3805.000000	65.046143 
3804.000000	64.987707 
3803.000000	64.936208 
3802.000000	64.898180 
3801.000000	64.878320 
3800.000000	64.878892 
3799.000000	64.899420 
3798.000000	64.936900 
3797.000000	64.986300 
3796.000000	65.041327 
3795.000000	65.095448 
3794.000000	65.142989 
3793.000000	65.179967 
3792.000000	65.204763 
3791.000000	65.217995 
3790.000000	65.222382 
3789.000000	65.221548 
3788.000000	65.219545 
3787.000000	65.219330 
3786.000000	65.222454 
3785.000000	65.228438 
3784.000000	65.235590 
3783.000000	65.241050 
3782.000000	65.242075 
3781.000000	65.236663 
3780.000000	65.224313 
3779.000000	65.206050 
3778.000000	65.184068 
3777.000000	65.161323 
3776.000000	65.140509 
3775.000000	65.123605 
3774.000000	65.111541 
3773.000000	65.104222 
3772.000000	65.100789 
3771.000000	65.100216 
3770.000000	65.101981 
3769.000000	65.105986 
3768.000000	65.112495 
3767.000000	65.121912 
3766.000000	65.134143 
3765.000000	65.148472 
3764.000000	65.163254 
3763.000000	65.176010 
3762.000000	65.183877 
3761.000000	65.184426 
3760.000000	65.176439 
3759.000000	65.159916 
3758.000000	65.136694 
3757.000000	65.109777 
3756.000000	65.083193 
3755.000000	65.060734 
3754.000000	65.045690 
3753.000000	65.039944 
3752.000000	65.043854 
3751.000000	65.056347 
3750.000000	65.075325 
3749.000000	65.097928 
3748.000000	65.121126 
3747.000000	65.142416 
3746.000000	65.160107 
3745.000000	65.173149 
3744.000000	65.181636 
3743.000000	65.186166 
3742.000000	65.187931 
3741.000000	65.188169 
3740.000000	65.188193 
3739.000000	65.189003 
3738.000000	65.191245 
3737.000000	65.195083 
3736.000000	65.200161 
3735.000000	65.205764 
3734.000000	65.210747 
3733.000000	65.213942 
3732.000000	65.214395 
3731.000000	65.211534 
3730.000000	65.205454 
3729.000000	65.197372 
3728.000000	65.189051 
3727.000000	65.182924 
3726.000000	65.181589 
3725.000000	65.187263 
3724.000000	65.201377 
3723.000000	65.223956 
3722.000000	65.253615 
3721.000000	65.287637 
3720.000000	65.322399 
3719.000000	65.354084 
3718.000000	65.379405 
3717.000000	65.396142 
3716.000000	65.403437 
3715.000000	65.401935 
3714.000000	65.393352 
3713.000000	65.380096 
3712.000000	65.364456 
3711.000000	65.348482 
3710.000000	65.333604 
3709.000000	65.320706 
3708.000000	65.310144 
3707.000000	65.301966 
3706.000000	65.296125 
3705.000000	65.292620 
3704.000000	65.291666 
3703.000000	65.293192 
3702.000000	65.297079 
3701.000000	65.302777 
3700.000000	65.309357 
3699.000000	65.315747 
3698.000000	65.320634 
3697.000000	65.322971 
3696.000000	65.321874 
3695.000000	65.317034 
3694.000000	65.308666 
3693.000000	65.297341 
3692.000000	65.284085 
3691.000000	65.270352 
3690.000000	65.257406 
3689.000000	65.246152 
3688.000000	65.236926 
3687.000000	65.229630 
3686.000000	65.223455 
3685.000000	65.217256 
3684.000000	65.210008 
3683.000000	65.201354 
3682.000000	65.191698 
3681.000000	65.182662 
3680.000000	65.176415 
3679.000000	65.175509 
3678.000000	65.182137 
3677.000000	65.197610 
3676.000000	65.221762 
3675.000000	65.252947 
3674.000000	65.288305 
3673.000000	65.323996 
3672.000000	65.356230 
3671.000000	65.381431 
3670.000000	65.397572 
3669.000000	65.403437 
3668.000000	65.398859 
3667.000000	65.384173 
3666.000000	65.360641 
3665.000000	65.329313 
3664.000000	65.291714 
3663.000000	65.249395 
3662.000000	65.204334 
3661.000000	65.158772 
3660.000000	65.115332 
3659.000000	65.076494 
3658.000000	65.044426 
3657.000000	65.020895 
3656.000000	65.006899 
3655.000000	65.002346 
3654.000000	65.006160 
3653.000000	65.016245 
3652.000000	65.030097 
3651.000000	65.044832 
3650.000000	65.058374 
3649.000000	65.069317 
3648.000000	65.077924 
3647.000000	65.085482 
3646.000000	65.094590 
3645.000000	65.108299 
3644.000000	65.129351 
3643.000000	65.159606 
3642.000000	65.198874 
3641.000000	65.245270 
3640.000000	65.294623 
3639.000000	65.341734 
3638.000000	65.380668 
3637.000000	65.406131 
3636.000000	65.414237 
3635.000000	65.403437 
3634.000000	65.374183 
3633.000000	65.328931 
3632.000000	65.271735 
3631.000000	65.207648 
3630.000000	65.141987 
3629.000000	65.079617 
3628.000000	65.024971 
3627.000000	64.981532 
3626.000000	64.951443 
3625.000000	64.935493 
3624.000000	64.933061 
3623.000000	64.942479 
3622.000000	64.960789 
3621.000000	64.984965 
3620.000000	65.011429 
3619.000000	65.037512 
3618.000000	65.061140 
3617.000000	65.081667 
3616.000000	65.099120 
3615.000000	65.114283 
3614.000000	65.128159 
3613.000000	65.141320 
3612.000000	65.153694 
3611.000000	65.164566 
3610.000000	65.172982 
3609.000000	65.177845 
3608.000000	65.178394 
3607.000000	65.174412 
3606.000000	65.166640 
3605.000000	65.156483 
3604.000000	65.146040 
3603.000000	65.137648 
3602.000000	65.133452 
3601.000000	65.135431 
3600.000000	65.144777 
3599.000000	65.161538 
3598.000000	65.184640 
3597.000000	65.212106 
3596.000000	65.241384 
3595.000000	65.269565 
3594.000000	65.294027 
3593.000000	65.312767 
3592.000000	65.324831 
3591.000000	65.330338 
3590.000000	65.330004 
3589.000000	65.325117 
3588.000000	65.316319 
3587.000000	65.304207 
3586.000000	65.288376 
3585.000000	65.267872 
3584.000000	65.241837 
3583.000000	65.210342 
3582.000000	65.174603 
3581.000000	65.137314 
3580.000000	65.102314 
3579.000000	65.074014 
3578.000000	65.056133 
3577.000000	65.050768 
3576.000000	65.057921 
3575.000000	65.075349 
3574.000000	65.099000 
3573.000000	65.123987 
3572.000000	65.145778 
3571.000000	65.161347 
3570.000000	65.169715 
3569.000000	65.171909 
3568.000000	65.170288 
3567.000000	65.167713 
3566.000000	65.166544 
3565.000000	65.168046 
3564.000000	65.171980 
3563.000000	65.176677 
3562.000000	65.180063 
3561.000000	65.179634 
3560.000000	65.173649 
3559.000000	65.160965 
3558.000000	65.141844 
3557.000000	65.117335 
3556.000000	65.089178 
3555.000000	65.059185 
3554.000000	65.029168 
3553.000000	65.000081 
3552.000000	64.972281 
3551.000000	64.945411 
3550.000000	64.919114 
3549.000000	64.892983 
3548.000000	64.867067 
3547.000000	64.842104 
3546.000000	64.819931 
3545.000000	64.802813 
3544.000000	64.793586 
3543.000000	64.794492 
3542.000000	64.807176 
3541.000000	64.831781 
3540.000000	64.867067 
3539.000000	64.910340 
3538.000000	64.957880 
3537.000000	65.005683 
3536.000000	65.049958 
3535.000000	65.087819 
3534.000000	65.117454 
3533.000000	65.138149 
3532.000000	65.149974 
3531.000000	65.153717 
3530.000000	65.150499 
3529.000000	65.141463 
3528.000000	65.127754 
3527.000000	65.110945 
3526.000000	65.092468 
3525.000000	65.074086 
3524.000000	65.057468 
3523.000000	65.044188 
3522.000000	65.035176 
3521.000000	65.030384 
3520.000000	65.028858 
3519.000000	65.029168 
3518.000000	65.029406 
3517.000000	65.028238 
3516.000000	65.024948 
3515.000000	65.019798 
3514.000000	65.013813 
3513.000000	65.008568 
3512.000000	65.005421 
3511.000000	65.005350 
3510.000000	65.008568 
3509.000000	65.014410 
3508.000000	65.021610 
3507.000000	65.028762 
3506.000000	65.034556 
3505.000000	65.038299 
3504.000000	65.039730 
3503.000000	65.039324 
3502.000000	65.037918 
3501.000000	65.036487 
3500.000000	65.035700 
3499.000000	65.036082 
3498.000000	65.037703 
3497.000000	65.040278 
3496.000000	65.043330 
3495.000000	65.046310 
3494.000000	65.048599 
3493.000000	65.049719 
3492.000000	65.049242 
3491.000000	65.046858 
3490.000000	65.042471 
3489.000000	65.036296 
3488.000000	65.028834 
3487.000000	65.021014 
3486.000000	65.013933 
3485.000000	65.008878 
3484.000000	65.007138 
3483.000000	65.009856 
3482.000000	65.017867 
3481.000000	65.031194 
3480.000000	65.049290 
3479.000000	65.071058 
3478.000000	65.094757 
3477.000000	65.118288 
3476.000000	65.139484 
3475.000000	65.156579 
3474.000000	65.167951 
3473.000000	65.172624 
3472.000000	65.170073 
3471.000000	65.160250 
3470.000000	65.143680 
3469.000000	65.121388 
3468.000000	65.094971 
3467.000000	65.066456 
3466.000000	65.038394 
3465.000000	65.013599 
3464.000000	64.994668 
3463.000000	64.983415 
3462.000000	64.980745 
3461.000000	64.986300 
3460.000000	64.998412 
3459.000000	65.014195 
3458.000000	65.030360 
3457.000000	65.043330 
3456.000000	65.049982 
3455.000000	65.048170 
3454.000000	65.037012 
3453.000000	65.016937 
3452.000000	64.989471 
3451.000000	64.956951 
3450.000000	64.921998 
3449.000000	64.887118 
3448.000000	64.854240 
3447.000000	64.824652 
3446.000000	64.799046 
3445.000000	64.777660 
3444.000000	64.760756 
3443.000000	64.748764 
3442.000000	64.742088 
3441.000000	64.741468 
3440.000000	64.747619 
3439.000000	64.760756 
3438.000000	64.780569 
3437.000000	64.805769 
3436.000000	64.834308 
3435.000000	64.863657 
3434.000000	64.891290 
3433.000000	64.915084 
3432.000000	64.933824 
3431.000000	64.947462 
3430.000000	64.956927 
3429.000000	64.963555 
3428.000000	64.968991 
3427.000000	64.974498 
3426.000000	64.980840 
3425.000000	64.988255 
3424.000000	64.996528 
3423.000000	65.005302 
3422.000000	65.013790 
3421.000000	65.021371 
3420.000000	65.027093 
3419.000000	65.030312 
3418.000000	65.030264 
3417.000000	65.026283 
3416.000000	65.018200 
3415.000000	65.006279 
3414.000000	64.991235 
3413.000000	64.974355 
3412.000000	64.957237 
3411.000000	64.941787 
3410.000000	64.929556 
3409.000000	64.921689 
3408.000000	64.918470 
3407.000000	64.919400 
3406.000000	64.923501 
3405.000000	64.929413 
3404.000000	64.935612 
3403.000000	64.940834 
3402.000000	64.944124 
3401.000000	64.945101 
3400.000000	64.943599 
3399.000000	64.939904 
3398.000000	64.934849 
3397.000000	64.929461 
3396.000000	64.924860 
3395.000000	64.921832 
3394.000000	64.920806 
3393.000000	64.921641 
3392.000000	64.923882 
3391.000000	64.927077 
3390.000000	64.930891 
3389.000000	64.935541 
3388.000000	64.941501 
3387.000000	64.949488 
3386.000000	64.959907 
3385.000000	64.972710 
3384.000000	64.987182 
3383.000000	65.001893 
3382.000000	65.015053 
3381.000000	65.024900 
3380.000000	65.030241 
3379.000000	65.030860 
3378.000000	65.027356 
3377.000000	65.021038 
3376.000000	65.013241 
3375.000000	65.004897 
3374.000000	64.996123 
3373.000000	64.986205 
3372.000000	64.974164 
3371.000000	64.959335 
3370.000000	64.941859 
3369.000000	64.923071 
3368.000000	64.905381 
3367.000000	64.891672 
3366.000000	64.884543 
3365.000000	64.885592 
3364.000000	64.895081 
3363.000000	64.911961 
3362.000000	64.934158 
3361.000000	64.959073 
3360.000000	64.984345 
3359.000000	65.007948 
3358.000000	65.028572 
3357.000000	65.045213 
3356.000000	65.056872 
3355.000000	65.062451 
3354.000000	65.060615 
3353.000000	65.050172 
3352.000000	65.030550 
3351.000000	65.002393 
3350.000000	64.967966 
3349.000000	64.930844 
3348.000000	64.895296 
3347.000000	64.865684 
3346.000000	64.845252 
3345.000000	64.835643 
3344.000000	64.836597 
3343.000000	64.846014 
3342.000000	64.860844 
3341.000000	64.877510 
3340.000000	64.892864 
3339.000000	64.904737 
3338.000000	64.912176 
3337.000000	64.915275 
3336.000000	64.914846 
3335.000000	64.912080 
3334.000000	64.907979 
3333.000000	64.903545 
3332.000000	64.899230 
3331.000000	64.895462 
3330.000000	64.892506 
3329.000000	64.890646 
3328.000000	64.890313 
3327.000000	64.891743 
3326.000000	64.895081 
3325.000000	64.900445 
3324.000000	64.907646 
3323.000000	64.916515 
3322.000000	64.926433 
3321.000000	64.936637 
3320.000000	64.946174 
3319.000000	64.954090 
3318.000000	64.959573 
3317.000000	64.962172 
3316.000000	64.962077 
3315.000000	64.960122 
3314.000000	64.957714 
3313.000000	64.956402 
3312.000000	64.957618 
3311.000000	64.962458 
3310.000000	64.971232 
3309.000000	64.983367 
3308.000000	64.997720 
3307.000000	65.012550 
3306.000000	65.025806 
3305.000000	65.035462 
3304.000000	65.039920 
3303.000000	65.038347 
3302.000000	65.030765 
3301.000000	65.018033 
3300.000000	65.001940 
3299.000000	64.984655 
3298.000000	64.968538 
3297.000000	64.955544 
3296.000000	64.947032 
3295.000000	64.943408 
3294.000000	64.944219 
3293.000000	64.948177 
3292.000000	64.953303 
3291.000000	64.957308 
3290.000000	64.958310 
3289.000000	64.954924 
3288.000000	64.946508 
3287.000000	64.933657 
3286.000000	64.918017 
3285.000000	64.902091 
3284.000000	64.888787 
3283.000000	64.880824 
3282.000000	64.880084 
3281.000000	64.887285 
3280.000000	64.901733 
3279.000000	64.921379 
3278.000000	64.943265 
3277.000000	64.964079 
3276.000000	64.981055 
3275.000000	64.992213 
3274.000000	64.997029 
3273.000000	64.996409 
3272.000000	64.992213 
3271.000000	64.986801 
3270.000000	64.982104 
3269.000000	64.979529 
3268.000000	64.979124 
3267.000000	64.979839 
3266.000000	64.979553 
3265.000000	64.976024 
3264.000000	64.967489 
3263.000000	64.953136 
3262.000000	64.933753 
3261.000000	64.911460 
3260.000000	64.889597 
3259.000000	64.871931 
3258.000000	64.861845 
3257.000000	64.861488 
3256.000000	64.871311 
3255.000000	64.889955 
3254.000000	64.914321 
3253.000000	64.940428 
3252.000000	64.964056 
3251.000000	64.981603 
3250.000000	64.991021 
3249.000000	64.992117 
3248.000000	64.986491 
3247.000000	64.977240 
3246.000000	64.968156 
3245.000000	64.962768 
3244.000000	64.963889 
3243.000000	64.972591 
3242.000000	64.988493 
3241.000000	65.009236 
3240.000000	65.031623 
3239.000000	65.051865 
3238.000000	65.066599 
3237.000000	65.073299 
3236.000000	65.070915 
3235.000000	65.059876 
3234.000000	65.041828 
3233.000000	65.019202 
3232.000000	64.994859 
3231.000000	64.971494 
3230.000000	64.951300 
3229.000000	64.935922 
3228.000000	64.926290 
3227.000000	64.922809 
3226.000000	64.925360 
3225.000000	64.933395 
3224.000000	64.945960 
3223.000000	64.961695 
3222.000000	64.978933 
3221.000000	64.995908 
3220.000000	65.010929 
3219.000000	65.022587 
3218.000000	65.030026 
3217.000000	65.033078 
3216.000000	65.032124 
3215.000000	65.028142 
3214.000000	65.022182 
3213.000000	65.015125 
3212.000000	65.007233 
3211.000000	64.998555 
3210.000000	64.988589 
3209.000000	64.976859 
3208.000000	64.962887 
3207.000000	64.946675 
3206.000000	64.928603 
3205.000000	64.909601 
3204.000000	64.890623 
3203.000000	64.872574 
3202.000000	64.856314 
3201.000000	64.842271 
3200.000000	64.830756 
3199.000000	64.822077 
3198.000000	64.816522 
3197.000000	64.814472 
3196.000000	64.816403 
3195.000000	64.822840 
3194.000000	64.834070 
3193.000000	64.850211 
3192.000000	64.870667 
3191.000000	64.894294 
3190.000000	64.919400 
3189.000000	64.944100 
3188.000000	64.966464 
3187.000000	64.985060 
3186.000000	64.999032 
3185.000000	65.008401 
3184.000000	65.013980 
3183.000000	65.016961 
3182.000000	65.018820 
3181.000000	65.020513 
3180.000000	65.022778 
3179.000000	65.025401 
3178.000000	65.027499 
3177.000000	65.027904 
3176.000000	65.025615 
3175.000000	65.020108 
3174.000000	65.011548 
3173.000000	65.000844 
3172.000000	64.989471 
3171.000000	64.978814 
3170.000000	64.969658 
3169.000000	64.962100 
3168.000000	64.955425 
3167.000000	64.948415 
3166.000000	64.939856 
3165.000000	64.929175 
3164.000000	64.916586 
3163.000000	64.903163 
3162.000000	64.890456 
3161.000000	64.880108 
3160.000000	64.873170 
3159.000000	64.869832 
3158.000000	64.869427 
3157.000000	64.870238 
3156.000000	64.870381 
3155.000000	64.868235 
3154.000000	64.862966 
3153.000000	64.854764 
3152.000000	64.844727 
3151.000000	64.834809 
3150.000000	64.827156 
3149.000000	64.823317 
3148.000000	64.824151 
3147.000000	64.829516 
3146.000000	64.838576 
3145.000000	64.850282 
3144.000000	64.863681 
3143.000000	64.878273 
3142.000000	64.894390 
3141.000000	64.912748 
3140.000000	64.933919 
3139.000000	64.958047 
3138.000000	64.984345 
3137.000000	65.010976 
3136.000000	65.035319 
3135.000000	65.054392 
3134.000000	65.065956 
3133.000000	65.068650 
3132.000000	65.062570 
3131.000000	65.048885 
3130.000000	65.030074 
3129.000000	65.008664 
3128.000000	64.986777 
3127.000000	64.965438 
3126.000000	64.944815 
3125.000000	64.924383 
3124.000000	64.903378 
3123.000000	64.881539 
3122.000000	64.859604 
3121.000000	64.839363 
3120.000000	64.823317 
3119.000000	64.813876 
3118.000000	64.812874 
3117.000000	64.821028 
3116.000000	64.837360 
3115.000000	64.859342 
3114.000000	64.883327 
3113.000000	64.905357 
3112.000000	64.922189 
3111.000000	64.931440 
3110.000000	64.932584 
3109.000000	64.926695 
3108.000000	64.916467 
3107.000000	64.905190 
3106.000000	64.896512 
3105.000000	64.893674 
3104.000000	64.898657 
3103.000000	64.912223 
3102.000000	64.933562 
3101.000000	64.960885 
3100.000000	64.991593 
3099.000000	65.022921 
3098.000000	65.052199 
3097.000000	65.077328 
3096.000000	65.096998 
3095.000000	65.110659 
3094.000000	65.118122 
3093.000000	65.119290 
3092.000000	65.113902 
3091.000000	65.101742 
3090.000000	65.082406 
3089.000000	65.055799 
3088.000000	65.022444 
3087.000000	64.983844 
3086.000000	64.942646 
3085.000000	64.902281 
3084.000000	64.866733 
3083.000000	64.839673 
3082.000000	64.823842 
3081.000000	64.820384 
3080.000000	64.828395 
3079.000000	64.845132 
3078.000000	64.866471 
3077.000000	64.887690 
3076.000000	64.904284 
3075.000000	64.913010 
3074.000000	64.912271 
3073.000000	64.902639 
3072.000000	64.886236 
3071.000000	64.866590 
3070.000000	64.847683 
3069.000000	64.833259 
3068.000000	64.825940 
3067.000000	64.827156 
3066.000000	64.836955 
3065.000000	64.854073 
3064.000000	64.876341 
3063.000000	64.900898 
3062.000000	64.924979 
3061.000000	64.946055 
3060.000000	64.962363 
3059.000000	64.972829 
3058.000000	64.977407 
3057.000000	64.977025 
3056.000000	64.973282 
3055.000000	64.968013 
3054.000000	64.963102 
3053.000000	64.960098 
3052.000000	64.959788 
3051.000000	64.962458 
3050.000000	64.967465 
3049.000000	64.973855 
3048.000000	64.980292 
3047.000000	64.985585 
3046.000000	64.988756 
3045.000000	64.989185 
3044.000000	64.986634 
3043.000000	64.981198 
3042.000000	64.973068 
3041.000000	64.962506 
3040.000000	64.949679 
3039.000000	64.934873 
3038.000000	64.918565 
3037.000000	64.901471 
3036.000000	64.884710 
3035.000000	64.869642 
3034.000000	64.857578 
3033.000000	64.849686 
3032.000000	64.846587 
3031.000000	64.848232 
3030.000000	64.853644 
3029.000000	64.861202 
3028.000000	64.868879 
3027.000000	64.874863 
3026.000000	64.877581 
3025.000000	64.876484 
3024.000000	64.872002 
3023.000000	64.865469 
3022.000000	64.858841 
3021.000000	64.854192 
3020.000000	64.853191 
3019.000000	64.856791 
3018.000000	64.864826 
3017.000000	64.876437 
3016.000000	64.890074 
3015.000000	64.903926 
3014.000000	64.916324 
3013.000000	64.925885 
3012.000000	64.931821 
3011.000000	64.933848 
3010.000000	64.932227 
3009.000000	64.927268 
3008.000000	64.919590 
3007.000000	64.909911 
3006.000000	64.898920 
3005.000000	64.887332 
3004.000000	64.875745 
3003.000000	64.864635 
3002.000000	64.854383 
3001.000000	64.845156 
3000.000000	64.836907 
2999.000000	64.829301 
2998.000000	64.822006 
2997.000000	64.814853 
2996.000000	64.807963 
2995.000000	64.801549 
2994.000000	64.795994 
2993.000000	64.791631 
2992.000000	64.788866 
2991.000000	64.787459 
2990.000000	64.787364 
2989.000000	64.788246 
2988.000000	64.790058 
2987.000000	64.792847 
2986.000000	64.796996 
2985.000000	64.803099 
2984.000000	64.811635 
2983.000000	64.822649 
2982.000000	64.835596 
2981.000000	64.849257 
2980.000000	64.861893 
2979.000000	64.871311 
2978.000000	64.875483 
2977.000000	64.872789 
2976.000000	64.862775 
2975.000000	64.845991 
2974.000000	64.823818 
2973.000000	64.798450 
2972.000000	64.772367 
2971.000000	64.748144 
2970.000000	64.727950 
2969.000000	64.713335 
2968.000000	64.705133 
2967.000000	64.703321 
2966.000000	64.707064 
2965.000000	64.714789 
2964.000000	64.724516 
2963.000000	64.734125 
2962.000000	64.741635 
2961.000000	64.745569 
2960.000000	64.745259 
2959.000000	64.740681 
2958.000000	64.732503 
2957.000000	64.721894 
2956.000000	64.710235 
2955.000000	64.698863 
2954.000000	64.688849 
2953.000000	64.680933 
2952.000000	64.675593 
2951.000000	64.673256 
2950.000000	64.674448 
2949.000000	64.679646 
2948.000000	64.689111 
2947.000000	64.702749 
2946.000000	64.719557 
2945.000000	64.737939 
2944.000000	64.755702 
2943.000000	64.770412 
2942.000000	64.780163 
2941.000000	64.783954 
2940.000000	64.782023 
2939.000000	64.775633 
2938.000000	64.767122 
2937.000000	64.759278 
2936.000000	64.754891 
2935.000000	64.756035 
2934.000000	64.763855 
2933.000000	64.778256 
2932.000000	64.798069 
2931.000000	64.821124 
2930.000000	64.844775 
2929.000000	64.866089 
2928.000000	64.882445 
2927.000000	64.891695 
2926.000000	64.892721 
2925.000000	64.885425 
2924.000000	64.870834 
2923.000000	64.850831 
2922.000000	64.828085 
2921.000000	64.805579 
2920.000000	64.785981 
2919.000000	64.771056 
2918.000000	64.761614 
2917.000000	64.757585 
2916.000000	64.758157 
2915.000000	64.762210 
2914.000000	64.768576 
2913.000000	64.776396 
2912.000000	64.785432 
2911.000000	64.795756 
2910.000000	64.807343 
2909.000000	64.819931 
2908.000000	64.832758 
2907.000000	64.844679 
2906.000000	64.854121 
2905.000000	64.859676 
2904.000000	64.860343 
2903.000000	64.856123 
2902.000000	64.848136 
2901.000000	64.838051 
2900.000000	64.827847 
2899.000000	64.819312 
2898.000000	64.813542 
2897.000000	64.810943 
2896.000000	64.811086 
2895.000000	64.812994 
2894.000000	64.815378 
2893.000000	64.816832 
2892.000000	64.816093 
2891.000000	64.812326 
2890.000000	64.804935 
2889.000000	64.793896 
2888.000000	64.779496 
2887.000000	64.762473 
2886.000000	64.743614 
2885.000000	64.723777 
2884.000000	64.703869 
2883.000000	64.684534 
2882.000000	64.666604 
2881.000000	64.650988 
2880.000000	64.638686 
2879.000000	64.630722 
2878.000000	64.628148 
2877.000000	64.631795 
2876.000000	64.642000 
2875.000000	64.658427 
2874.000000	64.680004 
2873.000000	64.704966 
2872.000000	64.731049 
2871.000000	64.755821 
2870.000000	64.777088 
2869.000000	64.793252 
2868.000000	64.803647 
2867.000000	64.808511 
2866.000000	64.808845 
2865.000000	64.806056 
2864.000000	64.801883 
2863.000000	64.797735 
2862.000000	64.794778 
2861.000000	64.793515 
2860.000000	64.794230 
2859.000000	64.796471 
2858.000000	64.799284 
2857.000000	64.801502 
2856.000000	64.801955 
2855.000000	64.799642 
2854.000000	64.793992 
2853.000000	64.784955 
2852.000000	64.773154 
2851.000000	64.759564 
2850.000000	64.745473 
2849.000000	64.732122 
2848.000000	64.720606 
2847.000000	64.711833 
2846.000000	64.706277 
2845.000000	64.704179 
2844.000000	64.705491 
2843.000000	64.709830 
2842.000000	64.716529 
2841.000000	64.724588 
2840.000000	64.732766 
2839.000000	64.739751 
2838.000000	64.744567 
2837.000000	64.746522 
2836.000000	64.745712 
2835.000000	64.743041 
2834.000000	64.740180 
2833.000000	64.739108 
2832.000000	64.741778 
2831.000000	64.749360 
2830.000000	64.761900 
2829.000000	64.778184 
2828.000000	64.795827 
2827.000000	64.812016 
2826.000000	64.823985 
2825.000000	64.829826 
2824.000000	64.828729 
2823.000000	64.821290 
2822.000000	64.809226 
2821.000000	64.794969 
2820.000000	64.780783 
2819.000000	64.768528 
2818.000000	64.759182 
2817.000000	64.752745 
2816.000000	64.748311 
2815.000000	64.744639 
2814.000000	64.740538 
2813.000000	64.735555 
2812.000000	64.729905 
2811.000000	64.724731 
2810.000000	64.721488 
2809.000000	64.721727 
2808.000000	64.726495 
2807.000000	64.735960 
2806.000000	64.749336 
2805.000000	64.764809 
2804.000000	64.780163 
2803.000000	64.793205 
2802.000000	64.801979 
2801.000000	64.805483 
2800.000000	64.803600 
2799.000000	64.797258 
2798.000000	64.787864 
2797.000000	64.777064 
2796.000000	64.766383 
2795.000000	64.757132 
2794.000000	64.750266 
2793.000000	64.746570 
2792.000000	64.746809 
2791.000000	64.751648 
2790.000000	64.761757 
2789.000000	64.777207 
2788.000000	64.797425 
2787.000000	64.820981 
2786.000000	64.845561 
2785.000000	64.868497 
2784.000000	64.887046 
2783.000000	64.899206 
2782.000000	64.904141 
2781.000000	64.902210 
2780.000000	64.894771 
2779.000000	64.884066 
2778.000000	64.872026 
2777.000000	64.860224 
2776.000000	64.849090 
2775.000000	64.838266 
2774.000000	64.827084 
2773.000000	64.814901 
2772.000000	64.802002 
2771.000000	64.789581 
2770.000000	64.779543 
2769.000000	64.774394 
2768.000000	64.776039 
2767.000000	64.785289 
2766.000000	64.801454 
2765.000000	64.822244 
2764.000000	64.844298 
2763.000000	64.863777 
2762.000000	64.877367 
2761.000000	64.882731 
2760.000000	64.879274 
2759.000000	64.868068 
2758.000000	64.851427 
2757.000000	64.832353 
2756.000000	64.813876 
2755.000000	64.798402 
2754.000000	64.787292 
2753.000000	64.780688 
2752.000000	64.777779 
2751.000000	64.777183 
2750.000000	64.777350 
2749.000000	64.777064 
2748.000000	64.775443 
2747.000000	64.772367 
2746.000000	64.768290 
2745.000000	64.764070 
2744.000000	64.760684 
2743.000000	64.758801 
2742.000000	64.758634 
2741.000000	64.759993 
2740.000000	64.762353 
2739.000000	64.765071 
2738.000000	64.767718 
2737.000000	64.770364 
2736.000000	64.773607 
2735.000000	64.778447 
2734.000000	64.786100 
2733.000000	64.797639 
2732.000000	64.813566 
2731.000000	64.833736 
2730.000000	64.856910 
2729.000000	64.881348 
2728.000000	64.904379 
2727.000000	64.923357 
2726.000000	64.935564 
2725.000000	64.939117 
2724.000000	64.932823 
2723.000000	64.916634 
2722.000000	64.891672 
2721.000000	64.860033 
2720.000000	64.824581 
2719.000000	64.788579 
2718.000000	64.755296 
2717.000000	64.727687 
2716.000000	64.707803 
2715.000000	64.696788 
2714.000000	64.694643 
2713.000000	64.700222 
2712.000000	64.711427 
2711.000000	64.725708 
2710.000000	64.740252 
2709.000000	64.752697 
2708.000000	64.761424 
2707.000000	64.766144 
2706.000000	64.767384 
2705.000000	64.766716 
2704.000000	64.766097 
2703.000000	64.767360 
2702.000000	64.771747 
2701.000000	64.779281 
2700.000000	64.789032 
2699.000000	64.799070 
2698.000000	64.806914 
2697.000000	64.810371 
2696.000000	64.808034 
2695.000000	64.799618 
2694.000000	64.786148 
2693.000000	64.769673 
2692.000000	64.752793 
2691.000000	64.738011 
2690.000000	64.727187 
2689.000000	64.721059 
2688.000000	64.719128 
2687.000000	64.720225 
2686.000000	64.722681 
2685.000000	64.725017 
2684.000000	64.726281 
2683.000000	64.726352 
2682.000000	64.725899 
2681.000000	64.725852 
2680.000000	64.727139 
2679.000000	64.730215 
2678.000000	64.735031 
2677.000000	64.740943 
2676.000000	64.747190 
2675.000000	64.753007 
2674.000000	64.757847 
2673.000000	64.761829 
2672.000000	64.765405 
2671.000000	64.769291 
2670.000000	64.774107 
2669.000000	64.780139 
2668.000000	64.787268 
2667.000000	64.794826 
2666.000000	64.801931 
2665.000000	64.807844 
2664.000000	64.811992 
2663.000000	64.814162 
2662.000000	64.814448 
2661.000000	64.813137 
2660.000000	64.810514 
2659.000000	64.806914 
2658.000000	64.802885 
2657.000000	64.799213 
2656.000000	64.796972 
2655.000000	64.797496 
2654.000000	64.802026 
2653.000000	64.811325 
2652.000000	64.825296 
2651.000000	64.842772 
2650.000000	64.861702 
2649.000000	64.879393 
2648.000000	64.893102 
2647.000000	64.900588 
2646.000000	64.900708 
2645.000000	64.893484 
2644.000000	64.880418 
2643.000000	64.863681 
2642.000000	64.845752 
2641.000000	64.828610 
2640.000000	64.813494 
2639.000000	64.800500 
2638.000000	64.788818 
2637.000000	64.776968 
2636.000000	64.763641 
2635.000000	64.747858 
2634.000000	64.729380 
2633.000000	64.708900 
2632.000000	64.687728 
2631.000000	64.667725 
2630.000000	64.650607 
2629.000000	64.637804 
2628.000000	64.629983 
2627.000000	64.627027 
2626.000000	64.628028 
2625.000000	64.631366 
2624.000000	64.635324 
2623.000000	64.638376 
2622.000000	64.639759 
2621.000000	64.639210 
2620.000000	64.637303 
2619.000000	64.635300 
2618.000000	64.634585 
2617.000000	64.636373 
2616.000000	64.641404 
2615.000000	64.649558 
2614.000000	64.659929 
2613.000000	64.670968 
2612.000000	64.680886 
2611.000000	64.687895 
2610.000000	64.690995 
2609.000000	64.690017 
2608.000000	64.685702 
2607.000000	64.679479 
2606.000000	64.673328 
2605.000000	64.669394 
2604.000000	64.669513 
2603.000000	64.674663 
2602.000000	64.685201 
2601.000000	64.700388 
2600.000000	64.718484 
2599.000000	64.736795 
2598.000000	64.752244 
2597.000000	64.761662 
2596.000000	64.762330 
2595.000000	64.752411 
2594.000000	64.731478 
2593.000000	64.700746 
2592.000000	64.663219 
2591.000000	64.623069 
2590.000000	64.585208 
2589.000000	64.554429 
2588.000000	64.534401 
2587.000000	64.527130 
2586.000000	64.532589 
2585.000000	64.548850 
2584.000000	64.572620 
2583.000000	64.600157 
2582.000000	64.627861 
2581.000000	64.653205 
2580.000000	64.674854 
2579.000000	64.692831 
2578.000000	64.707803 
2577.000000	64.720773 
2576.000000	64.732742 
2575.000000	64.744043 
2574.000000	64.754199 
2573.000000	64.762401 
2572.000000	64.767479 
2571.000000	64.768791 
2570.000000	64.766001 
2569.000000	64.759564 
2568.000000	64.750289 
2567.000000	64.739441 
2566.000000	64.728403 
2565.000000	64.718317 
2564.000000	64.710068 
2563.000000	64.704227 
2562.000000	64.701294 
2561.000000	64.701509 
2560.000000	64.705109 
2559.000000	64.712238 
2558.000000	64.722847 
2557.000000	64.736533 
2556.000000	64.752268 
2555.000000	64.768552 
2554.000000	64.783167 
2553.000000	64.793705 
2552.000000	64.797854 
2551.000000	64.793753 
2550.000000	64.780735 
2549.000000	64.759492 
2548.000000	64.732003 
2547.000000	64.701342 
2546.000000	64.671087 
2545.000000	64.644908 
2544.000000	64.625740 
2543.000000	64.615392 
2542.000000	64.614391 
2541.000000	64.622139 
2540.000000	64.636921 
2539.000000	64.656519 
2538.000000	64.678454 
2537.000000	64.700317 
2536.000000	64.719891 
2535.000000	64.735341 
2534.000000	64.745044 
2533.000000	64.747858 
2532.000000	64.743185 
2531.000000	64.730978 
2530.000000	64.711952 
2529.000000	64.687609 
2528.000000	64.660382 
2527.000000	64.633107 
2526.000000	64.608740 
2525.000000	64.589929 
2524.000000	64.578557 
2523.000000	64.575600 
2522.000000	64.580917 
2521.000000	64.593386 
2520.000000	64.611077 
2519.000000	64.631772 
2518.000000	64.653182 
2517.000000	64.673137 
2516.000000	64.690017 
2515.000000	64.702820 
2514.000000	64.711022 
2513.000000	64.714646 
2512.000000	64.714026 
2511.000000	64.709663 
2510.000000	64.702177 
2509.000000	64.692354 
2508.000000	64.681196 
2507.000000	64.669942 
2506.000000	64.660167 
2505.000000	64.653682 
2504.000000	64.652204 
2503.000000	64.657211 
2502.000000	64.669466 
2501.000000	64.688754 
2500.000000	64.713668 
2499.000000	64.741778 
2498.000000	64.770007 
2497.000000	64.795184 
2496.000000	64.814591 
2495.000000	64.826321 
2494.000000	64.829850 
2493.000000	64.825510 
2492.000000	64.814186 
2491.000000	64.796733 
2490.000000	64.773654 
2489.000000	64.745283 
2488.000000	64.711856 
2487.000000	64.673948 
2486.000000	64.632916 
2485.000000	64.591145 
2484.000000	64.552044 
2483.000000	64.519619 
2482.000000	64.497518 
2481.000000	64.488530 
2480.000000	64.493846 
2479.000000	64.512825 
2478.000000	64.542865 
2477.000000	64.580011 
2476.000000	64.619755 
2475.000000	64.657878 
2474.000000	64.690899 
2473.000000	64.716839 
2472.000000	64.735174 
2471.000000	64.746618 
2470.000000	64.752697 
2469.000000	64.755439 
2468.000000	64.756798 
2467.000000	64.758539 
2466.000000	64.761710 
2465.000000	64.766931 
2464.000000	64.774012 
2463.000000	64.782452 
2462.000000	64.791131 
2461.000000	64.798688 
2460.000000	64.803481 
2459.000000	64.804315 
2458.000000	64.800214 
2457.000000	64.790773 
2456.000000	64.776158 
2455.000000	64.757490 
2454.000000	64.736294 
2453.000000	64.714312 
2452.000000	64.693212 
2451.000000	64.674329 
2450.000000	64.658474 
2449.000000	64.645743 
2448.000000	64.635682 
2447.000000	64.627528 
2446.000000	64.620542 
2445.000000	64.614439 
2444.000000	64.609026 
2443.000000	64.604234 
2442.000000	64.600276 
2441.000000	64.597582 
2440.000000	64.596080 
2439.000000	64.595651 
2438.000000	64.596199 
2437.000000	64.597773 
2436.000000	64.600682 
2435.000000	64.605474 
2434.000000	64.612746 
2433.000000	64.622926 
2432.000000	64.635968 
2431.000000	64.651370 
2430.000000	64.667963 
2429.000000	64.684224 
2428.000000	64.698696 
2427.000000	64.710283 
2426.000000	64.718818 
2425.000000	64.724636 
2424.000000	64.728832 
2423.000000	64.732265 
2422.000000	64.735293 
2421.000000	64.737415 
2420.000000	64.737200 
2419.000000	64.732766 
2418.000000	64.722251 
2417.000000	64.704585 
2416.000000	64.680171 
2415.000000	64.650821 
2414.000000	64.619517 
2413.000000	64.589762 
2412.000000	64.565086 
2411.000000	64.548015 
2410.000000	64.539933 
2409.000000	64.540839 
2408.000000	64.549589 
2407.000000	64.564371 
2406.000000	64.583301 
2405.000000	64.604473 
2404.000000	64.626193 
2403.000000	64.647078 
2402.000000	64.665770 
2401.000000	64.680814 
2400.000000	64.690804 
2399.000000	64.694762 
2398.000000	64.692234 
2397.000000	64.683675 
2396.000000	64.670467 
2395.000000	64.654850 
2394.000000	64.639449 
2393.000000	64.626765 
2392.000000	64.618778 
2391.000000	64.616584 
2390.000000	64.620327 
2389.000000	64.629173 
2388.000000	64.641857 
2387.000000	64.656567 
2386.000000	64.671683 
2385.000000	64.685630 
2384.000000	64.696788 
2383.000000	64.703655 
2382.000000	64.704775 
2381.000000	64.699006 
2380.000000	64.685535 
2379.000000	64.664506 
2378.000000	64.637327 
2377.000000	64.606428 
2376.000000	64.575290 
2375.000000	64.547729 
2374.000000	64.527201 
2373.000000	64.516186 
2372.000000	64.515686 
2371.000000	64.524912 
2370.000000	64.541411 
2369.000000	64.561557 
2368.000000	64.581489 
2367.000000	64.597654 
2366.000000	64.607667 
2365.000000	64.610600 
2364.000000	64.606976 
2363.000000	64.598536 
2362.000000	64.587640 
2361.000000	64.576578 
2360.000000	64.567136 
2359.000000	64.560294 
2358.000000	64.556264 
2357.000000	64.554715 
2356.000000	64.554929 
2355.000000	64.556455 
2354.000000	64.559006 
2353.000000	64.562654 
2352.000000	64.567685 
2351.000000	64.574122 
2350.000000	64.581727 
2349.000000	64.589667 
2348.000000	64.596796 
2347.000000	64.601802 
2346.000000	64.603567 
2345.000000	64.601588 
2344.000000	64.596295 
2343.000000	64.589095 
2342.000000	64.582109 
2341.000000	64.577388 
2340.000000	64.576673 
2339.000000	64.580774 
2338.000000	64.589333 
2337.000000	64.600944 
2336.000000	64.613389 
2335.000000	64.624238 
2334.000000	64.631700 
2333.000000	64.635014 
2332.000000	64.634633 
2331.000000	64.632010 
2330.000000	64.629173 
2329.000000	64.628148 
2328.000000	64.630126 
2327.000000	64.635181 
2326.000000	64.642000 
2325.000000	64.648151 
2324.000000	64.650917 
2323.000000	64.647769 
2322.000000	64.637303 
2321.000000	64.619660 
2320.000000	64.596605 
2319.000000	64.571285 
2318.000000	64.547562 
2317.000000	64.529228 
2316.000000	64.519047 
2315.000000	64.518165 
2314.000000	64.526033 
2313.000000	64.540410 
2312.000000	64.557933 
2311.000000	64.574861 
2310.000000	64.587974 
2309.000000	64.595007 
2308.000000	64.595198 
2307.000000	64.589262 
2306.000000	64.578962 
2305.000000	64.566850 
2304.000000	64.555478 
2303.000000	64.546990 
2302.000000	64.542603 
2301.000000	64.542913 
2300.000000	64.547276 
2299.000000	64.554595 
2298.000000	64.563202 
2297.000000	64.571309 
2296.000000	64.577436 
2295.000000	64.580225 
2294.000000	64.578795 
2293.000000	64.572739 
2292.000000	64.562296 
2291.000000	64.548182 
2290.000000	64.531469 
2289.000000	64.513611 
2288.000000	64.496254 
2287.000000	64.480900 
2286.000000	64.468860 
2285.000000	64.461088 
2284.000000	64.457917 
2283.000000	64.459109 
2282.000000	64.463973 
2281.000000	64.471530 
2280.000000	64.480900 
2279.000000	64.491343 
2278.000000	64.502596 
2277.000000	64.514613 
2276.000000	64.527678 
2275.000000	64.542007 
2274.000000	64.557671 
2273.000000	64.574313 
2272.000000	64.590883 
2271.000000	64.605951 
2270.000000	64.618039 
2269.000000	64.625668 
2268.000000	64.627957 
2267.000000	64.624524 
2266.000000	64.615941 
2265.000000	64.603281 
2264.000000	64.588022 
2263.000000	64.571642 
2262.000000	64.555406 
2261.000000	64.540386 
2260.000000	64.527273 
2259.000000	64.516568 
2258.000000	64.508748 
2257.000000	64.504122 
2256.000000	64.503073 
2255.000000	64.505767 
2254.000000	64.512133 
2253.000000	64.521527 
2252.000000	64.532828 
2251.000000	64.544582 
2250.000000	64.554953 
2249.000000	64.562463 
2248.000000	64.565944 
2247.000000	64.565134 
2246.000000	64.560365 
2245.000000	64.552855 
2244.000000	64.544129 
2243.000000	64.535689 
2242.000000	64.528846 
2241.000000	64.524435 
2240.000000	64.522790 
2239.000000	64.523673 
2238.000000	64.526438 
2237.000000	64.530467 
2236.000000	64.535021 
2235.000000	64.539408 
2234.000000	64.542937 
2233.000000	64.545106 
2232.000000	64.545297 
2231.000000	64.543032 
2230.000000	64.537906 
2229.000000	64.529705 
2228.000000	64.518570 
2227.000000	64.505028 
2226.000000	64.489984 
2225.000000	64.474654 
2224.000000	64.460349 
2223.000000	64.448332 
2222.000000	64.439415 
2221.000000	64.434099 
2220.000000	64.432382 
2219.000000	64.433860 
2218.000000	64.437818 
2217.000000	64.443469 
2216.000000	64.449977 
2215.000000	64.456534 
2214.000000	64.462256 
2213.000000	64.466261 
2212.000000	64.467668 
2211.000000	64.465832 
2210.000000	64.460253 
2209.000000	64.450955 
2208.000000	64.438414 
2207.000000	64.423799 
2206.000000	64.408731 
2205.000000	64.395117 
2204.000000	64.384627 
2203.000000	64.378666 
2202.000000	64.377832 
2201.000000	64.382052 
2200.000000	64.390468 
2199.000000	64.401841 
2198.000000	64.414620 
2197.000000	64.427423 
2196.000000	64.439177 
2195.000000	64.449095 
2194.000000	64.456772 
2193.000000	64.462065 
2192.000000	64.465188 
2191.000000	64.466476 
2190.000000	64.466428 
2189.000000	64.465880 
2188.000000	64.465498 
2187.000000	64.465713 
2186.000000	64.466404 
2185.000000	64.467191 
2184.000000	64.467120 
2183.000000	64.464926 
2182.000000	64.459419 
2181.000000	64.449906 
2180.000000	64.436244 
2179.000000	64.419245 
2178.000000	64.400529 
2177.000000	64.382219 
2176.000000	64.366459 
2175.000000	64.354848 
2174.000000	64.348387 
2173.000000	64.346957 
2172.000000	64.349579 
2171.000000	64.354705 
2170.000000	64.360713 
2169.000000	64.366197 
2168.000000	64.370274 
2167.000000	64.372658 
2166.000000	64.373445 
2165.000000	64.373207 
2164.000000	64.372587 
2163.000000	64.372491 
2162.000000	64.373683 
2161.000000	64.376783 
2160.000000	64.382338 
2159.000000	64.390635 
2158.000000	64.401602 
2157.000000	64.414668 
2156.000000	64.428901 
2155.000000	64.442801 
2154.000000	64.454698 
2153.000000	64.462924 
2152.000000	64.466142 
2151.000000	64.463829 
2150.000000	64.456391 
2149.000000	64.445209 
2148.000000	64.432334 
2147.000000	64.420127 
2146.000000	64.410853 
2145.000000	64.405965 
2144.000000	64.406108 
2143.000000	64.410710 
2142.000000	64.418411 
2141.000000	64.427161 
2140.000000	64.434909 
2139.000000	64.439845 
2138.000000	64.440965 
2137.000000	64.438271 
2136.000000	64.432406 
2135.000000	64.424800 
2134.000000	64.417004 
2133.000000	64.410328 
2132.000000	64.405560 
2131.000000	64.402794 
2130.000000	64.401626 
2129.000000	64.401340 
2128.000000	64.401173 
2127.000000	64.400625 
2126.000000	64.399528 
2125.000000	64.398097 
2124.000000	64.396905 
2123.000000	64.396381 
2122.000000	64.396643 
2121.000000	64.397597 
2120.000000	64.398622 
2119.000000	64.398908 
2118.000000	64.397549 
2117.000000	64.393854 
2116.000000	64.387702 
2115.000000	64.379501 
2114.000000	64.370131 
2113.000000	64.360809 
2112.000000	64.352869 
2111.000000	64.347410 
2110.000000	64.345383 
2109.000000	64.347004 
2108.000000	64.352130 
2107.000000	64.359903 
2106.000000	64.369249 
2105.000000	64.378881 
2104.000000	64.387369 
2103.000000	64.393568 
2102.000000	64.396619 
2101.000000	64.396119 
2100.000000	64.392352 
2099.000000	64.385914 
2098.000000	64.377641 
2097.000000	64.368534 
2096.000000	64.359402 
2095.000000	64.350819 
2094.000000	64.342856 
2093.000000	64.335370 
2092.000000	64.328098 
2091.000000	64.320588 
2090.000000	64.312505 
2089.000000	64.303946 
2088.000000	64.295339 
2087.000000	64.287471 
2086.000000	64.281082 
2085.000000	64.277005 
2084.000000	64.275503 
2083.000000	64.276266 
2082.000000	64.278078 
2081.000000	64.279198 
2080.000000	64.277696 
2079.000000	64.271974 
2078.000000	64.261436 
2077.000000	64.246344 
2076.000000	64.228391 
2075.000000	64.209771 
2074.000000	64.193391 
2073.000000	64.181542 
2072.000000	64.176201 
2071.000000	64.178490 
2070.000000	64.188528 
2069.000000	64.205646 
2068.000000	64.228606 
2067.000000	64.255762 
2066.000000	64.285278 
2065.000000	64.315581 
2064.000000	64.345335 
2063.000000	64.373517 
2062.000000	64.399600 
2061.000000	64.423179 
2060.000000	64.444112 
2059.000000	64.462065 
2058.000000	64.476680 
2057.000000	64.487361 
2056.000000	64.493322 
2055.000000	64.493751 
2054.000000	64.488101 
2053.000000	64.476370 
2052.000000	64.459347 
2051.000000	64.438533 
2050.000000	64.416217 
2049.000000	64.394831 
2048.000000	64.376735 
2047.000000	64.363574 
2046.000000	64.356112 
2045.000000	64.354228 
2044.000000	64.356899 
2043.000000	64.362740 
2042.000000	64.370346 
2041.000000	64.378595 
2040.000000	64.386725 
2039.000000	64.394450 
2038.000000	64.401483 
2037.000000	64.407420 
2036.000000	64.411592 
2035.000000	64.412999 
2034.000000	64.410424 
2033.000000	64.403080 
2032.000000	64.390754 
2031.000000	64.374017 
2030.000000	64.354228 
2029.000000	64.333343 
2028.000000	64.313435 
2027.000000	64.296197 
2026.000000	64.282584 
2025.000000	64.272904 
2024.000000	64.266777 
2023.000000	64.263582 
2022.000000	64.262652 
2021.000000	64.263606 
2020.000000	64.266419 
2019.000000	64.271259 
2018.000000	64.278340 
2017.000000	64.287352 
2016.000000	64.297533 
2015.000000	64.307594 
2014.000000	64.316129 
2013.000000	64.321994 
2012.000000	64.324498 
2011.000000	64.323806 
2010.000000	64.320993 
2009.000000	64.317584 
2008.000000	64.315176 
2007.000000	64.314913 
2006.000000	64.317202 
2005.000000	64.321732 
2004.000000	64.327406 
2003.000000	64.333081 
2002.000000	64.337658 
2001.000000	64.340758 
2000.000000	64.342665 
1999.000000	64.344334 
1998.000000	64.346885 
1997.000000	64.351177 
1996.000000	64.357590 
1995.000000	64.365625 
1994.000000	64.373922 
1993.000000	64.380645 
1992.000000	64.383959 
1991.000000	64.382433 
1990.000000	64.375543 
1989.000000	64.363670 
1988.000000	64.348006 
1987.000000	64.330387 
1986.000000	64.312720 
1985.000000	64.296698 
1984.000000	64.283466 
1983.000000	64.273452 
1982.000000	64.266610 
1981.000000	64.262390 
1980.000000	64.260149 
1979.000000	64.259433 
1978.000000	64.259934 
1977.000000	64.261698 
1976.000000	64.264893 
1975.000000	64.269924 
1974.000000	64.277148 
1973.000000	64.286613 
1972.000000	64.297890 
1971.000000	64.310193 
1970.000000	64.322161 
1969.000000	64.332294 
1968.000000	64.338850 
1967.000000	64.340448 
1966.000000	64.336109 
1965.000000	64.325881 
1964.000000	64.310693 
1963.000000	64.292502 
1962.000000	64.274001 
1961.000000	64.258050 
1960.000000	64.247298 
1959.000000	64.243483 
1958.000000	64.247131 
1957.000000	64.257574 
1956.000000	64.272904 
1955.000000	64.290475 
1954.000000	64.307403 
1953.000000	64.321088 
1952.000000	64.329433 
1951.000000	64.331245 
1950.000000	64.326286 
1949.000000	64.315080 
1948.000000	64.299154 
1947.000000	64.280533 
1946.000000	64.261651 
1945.000000	64.244914 
1944.000000	64.232397 
1943.000000	64.225554 
1942.000000	64.225077 
1941.000000	64.230656 
1940.000000	64.241003 
1939.000000	64.254069 
1938.000000	64.267396 
1937.000000	64.278721 
1936.000000	64.286255 
1935.000000	64.289116 
1934.000000	64.287376 
1933.000000	64.281868 
1932.000000	64.273762 
1931.000000	64.264345 
1930.000000	64.254689 
1929.000000	64.245271 
1928.000000	64.236116 
1927.000000	64.226913 
1926.000000	64.217185 
1925.000000	64.206409 
1924.000000	64.194297 
1923.000000	64.180707 
1922.000000	64.165854 
1921.000000	64.150333 
1920.000000	64.135241 
1919.000000	64.121651 
1918.000000	64.110851 
1917.000000	64.103913 
1916.000000	64.101672 
1915.000000	64.104342 
1914.000000	64.111614 
1913.000000	64.122653 
1912.000000	64.136219 
1911.000000	64.150929 
1910.000000	64.165520 
1909.000000	64.179039 
1908.000000	64.190912 
1907.000000	64.201045 
1906.000000	64.209818 
1905.000000	64.217853 
1904.000000	64.225792 
1903.000000	64.234066 
1902.000000	64.242815 
1901.000000	64.251685 
1900.000000	64.260172 
1899.000000	64.267587 
1898.000000	64.273357 
1897.000000	64.277005 
1896.000000	64.278602 
1895.000000	64.278268 
1894.000000	64.276337 
1893.000000	64.272999 
1892.000000	64.268326 
1891.000000	64.262199 
1890.000000	64.254403 
1889.000000	64.244747 
1888.000000	64.233493 
1887.000000	64.221286 
1886.000000	64.209198 
1885.000000	64.198470 
1884.000000	64.190483 
1883.000000	64.186120 
1882.000000	64.185643 
1881.000000	64.188456 
1880.000000	64.193272 
1879.000000	64.198493 
1878.000000	64.202761 
1877.000000	64.205145 
1876.000000	64.205312 
1875.000000	64.203810 
1874.000000	64.201498 
1873.000000	64.199376 
1872.000000	64.198112 
1871.000000	64.197731 
1870.000000	64.197611 
1869.000000	64.196658 
1868.000000	64.193630 
1867.000000	64.187550 
1866.000000	64.178133 
1865.000000	64.165925 
1864.000000	64.152455 
1863.000000	64.139842 
1862.000000	64.130449 
1861.000000	64.126324 
1860.000000	64.128780 
1859.000000	64.138054 
1858.000000	64.153122 
1857.000000	64.172077 
1856.000000	64.192128 
1855.000000	64.210271 
1854.000000	64.223623 
1853.000000	64.230012 
1852.000000	64.228320 
1851.000000	64.218592 
1850.000000	64.202046 
1849.000000	64.180803 
1848.000000	64.157700 
1847.000000	64.135599 
1846.000000	64.117217 
1845.000000	64.104485 
1844.000000	64.098668 
1843.000000	64.100074 
1842.000000	64.108228 
1841.000000	64.121818 
1840.000000	64.139032 
1839.000000	64.157819 
1838.000000	64.175963 
1837.000000	64.191508 
1836.000000	64.203023 
1835.000000	64.209532 
1834.000000	64.210653 
1833.000000	64.206600 
1832.000000	64.198279 
1831.000000	64.186930 
1830.000000	64.174103 
1829.000000	64.161324 
1828.000000	64.149880 
1827.000000	64.140748 
1826.000000	64.134550 
1825.000000	64.131498 
1824.000000	64.131641 
1823.000000	64.134764 
1822.000000	64.140439 
1821.000000	64.148044 
1820.000000	64.156746 
1819.000000	64.165520 
1818.000000	64.173460 
1817.000000	64.179873 
1816.000000	64.184594 
1815.000000	64.187884 
1814.000000	64.190578 
1813.000000	64.193487 
1812.000000	64.197158 
1811.000000	64.201831 
1810.000000	64.206933 
1809.000000	64.211630 
1808.000000	64.214539 
1807.000000	64.214563 
1806.000000	64.210844 
1805.000000	64.203310 
1804.000000	64.192581 
1803.000000	64.179992 
1802.000000	64.167165 
1801.000000	64.155602 
1800.000000	64.146375 
1799.000000	64.140081 
1798.000000	64.136672 
1797.000000	64.135622 
1796.000000	64.136099 
1795.000000	64.137244 
1794.000000	64.137935 
1793.000000	64.137053 
1792.000000	64.133524 
1791.000000	64.126372 
1790.000000	64.115142 
1789.000000	64.099979 
1788.000000	64.081597 
1787.000000	64.061284 
1786.000000	64.040851 
1785.000000	64.022135 
1784.000000	64.006447 
1783.000000	63.994717 
1782.000000	63.987469 
1781.000000	63.984775 
1780.000000	63.986396 
1779.000000	63.992071 
1778.000000	64.001584 
1777.000000	64.014792 
1776.000000	64.031219 
1775.000000	64.050269 
1774.000000	64.070796 
1773.000000	64.091205 
1772.000000	64.109516 
1771.000000	64.123964 
1770.000000	64.133262 
1769.000000	64.137077 
1768.000000	64.136242 
1767.000000	64.132499 
1766.000000	64.128041 
1765.000000	64.124917 
1764.000000	64.124488 
1763.000000	64.126849 
1762.000000	64.130663 
1761.000000	64.133739 
1760.000000	64.133238 
1759.000000	64.126443 
1758.000000	64.111614 
1757.000000	64.088463 
1756.000000	64.058303 
1755.000000	64.023780 
1754.000000	63.988447 
1753.000000	63.955926 
1752.000000	63.929224 
1751.000000	63.909888 
1750.000000	63.898062 
1749.000000	63.892197 
1748.000000	63.889884 
1747.000000	63.888502 
1746.000000	63.885664 
1745.000000	63.879847 
1744.000000	63.870573 
1743.000000	63.858389 
1742.000000	63.844490 
1741.000000	63.830184 
1740.000000	63.816618 
1739.000000	63.804507 
1738.000000	63.794040 
1737.000000	63.785099 
1736.000000	63.777351 
1735.000000	63.770890 
1734.000000	63.766026 
1733.000000	63.763642 
1732.000000	63.764524 
1731.000000	63.769578 
1730.000000	63.779115 
1729.000000	63.793110 
1728.000000	63.810729 
1727.000000	63.830590 
1726.000000	63.850975 
1725.000000	63.870024 
1724.000000	63.885807 
1723.000000	63.896799 
1722.000000	63.902187 
1721.000000	63.901686 
1720.000000	63.895845 
1719.000000	63.885903 
1718.000000	63.873624 
1717.000000	63.861036 
1716.000000	63.849997 
1715.000000	63.841915 
1714.000000	63.837552 
1713.000000	63.836956 
1712.000000	63.839435 
1711.000000	63.844084 
1710.000000	63.849616 
1709.000000	63.855028 
1708.000000	63.859510 
1707.000000	63.862729 
1706.000000	63.864541 
1705.000000	63.864946 
1704.000000	63.863968 
1703.000000	63.861632 
1702.000000	63.858199 
1701.000000	63.854336 
1700.000000	63.851070 
1699.000000	63.849830 
1698.000000	63.852119 
1697.000000	63.859128 
1696.000000	63.871240 
1695.000000	63.887834 
1694.000000	63.907265 
1693.000000	63.927221 
1692.000000	63.945245 
1691.000000	63.959240 
1690.000000	63.968110 
1689.000000	63.971805 
1688.000000	63.971352 
1687.000000	63.968491 
1686.000000	63.964986 
1685.000000	63.961863 
1684.000000	63.959360 
1683.000000	63.956737 
1682.000000	63.952469 
1681.000000	63.944864 
1680.000000	63.932895 
1679.000000	63.916230 
1678.000000	63.895630 
1677.000000	63.872814 
1676.000000	63.849878 
1675.000000	63.829183 
1674.000000	63.812613 
1673.000000	63.801646 
1672.000000	63.796854 
1671.000000	63.798332 
1670.000000	63.805580 
1669.000000	63.818097 
1668.000000	63.835048 
1667.000000	63.855862 
1666.000000	63.879752 
1665.000000	63.906073 
1664.000000	63.933706 
1663.000000	63.961315 
1662.000000	63.987421 
1661.000000	64.010524 
1660.000000	64.028978 
1659.000000	64.041614 
1658.000000	64.047765 
1657.000000	64.047503 
1656.000000	64.041733 
1655.000000	64.032030 
1654.000000	64.020586 
1653.000000	64.010000 
1652.000000	64.002561 
1651.000000	63.999843 
1650.000000	64.002370 
1649.000000	64.009594 
1648.000000	64.019942 
1647.000000	64.031171 
1646.000000	64.041018 
1645.000000	64.047527 
1644.000000	64.049577 
1643.000000	64.047002 
1642.000000	64.040398 
1641.000000	64.030933 
1640.000000	64.019823 
1639.000000	64.007949 
1638.000000	63.995552 
1637.000000	63.982295 
1636.000000	63.967466 
1635.000000	63.950490 
1634.000000	63.930988 
1633.000000	63.909316 
1632.000000	63.886570 
1631.000000	63.864684 
1630.000000	63.845753 
1629.000000	63.831901 
1628.000000	63.824868 
1627.000000	63.825750 
1626.000000	63.834691 
1625.000000	63.850903 
1624.000000	63.872623 
1623.000000	63.897585 
1622.000000	63.922953 
1621.000000	63.945913 
1620.000000	63.963818 
1619.000000	63.974928 
1618.000000	63.978171 
1617.000000	63.973736 
1616.000000	63.962936 
1615.000000	63.947796 
1614.000000	63.931083 
1613.000000	63.915371 
1612.000000	63.902854 
1611.000000	63.894653 
1610.000000	63.890886 
1609.000000	63.890361 
1608.000000	63.891267 
1607.000000	63.891553 
1606.000000	63.889575 
1605.000000	63.884115 
1604.000000	63.875055 
1603.000000	63.863110 
1602.000000	63.849806 
1601.000000	63.836765 
1600.000000	63.825535 
1599.000000	63.817119 
1598.000000	63.811850 
1597.000000	63.809251 
1596.000000	63.808465 
1595.000000	63.808417 
1594.000000	63.808250 
1593.000000	63.807773 
1592.000000	63.807344 
1591.000000	63.807749 
1590.000000	63.809871 
1589.000000	63.814425 
1588.000000	63.821339 
1587.000000	63.829660 
1586.000000	63.837814 
1585.000000	63.843679 
1584.000000	63.845419 
1583.000000	63.841772 
1582.000000	63.832736 
1581.000000	63.819551 
1580.000000	63.804650 
1579.000000	63.791060 
1578.000000	63.781595 
1577.000000	63.778209 
1576.000000	63.781404 
1575.000000	63.790273 
1574.000000	63.802719 
1573.000000	63.816046 
1572.000000	63.827514 
1571.000000	63.835144 
1570.000000	63.837742 
1569.000000	63.835263 
1568.000000	63.828563 
1567.000000	63.819360 
1566.000000	63.809490 
1565.000000	63.800764 
1564.000000	63.794755 
1563.000000	63.792324 
1562.000000	63.793659 
1561.000000	63.798093 
1560.000000	63.804340 
1559.000000	63.810753 
1558.000000	63.815379 
1557.000000	63.816618 
1556.000000	63.813424 
1555.000000	63.805532 
1554.000000	63.793468 
1553.000000	63.778638 
1552.000000	63.762807 
1551.000000	63.747811 
1550.000000	63.735222 
1549.000000	63.725876 
1548.000000	63.719892 
1547.000000	63.716864 
1546.000000	63.716197 
1545.000000	63.717103 
1544.000000	63.719201 
1543.000000	63.722467 
1542.000000	63.727164 
1541.000000	63.733482 
1540.000000	63.741374 
1539.000000	63.750410 
1538.000000	63.759732 
1537.000000	63.768053 
1536.000000	63.774132 
1535.000000	63.776946 
1534.000000	63.776159 
1533.000000	63.772344 
1532.000000	63.766884 
1531.000000	63.761639 
1530.000000	63.758611 
1529.000000	63.759350 
1528.000000	63.764524 
1527.000000	63.773512 
1526.000000	63.784718 
1525.000000	63.795709 
1524.000000	63.803672 
1523.000000	63.806128 
1522.000000	63.801383 
1521.000000	63.789081 
1520.000000	63.770008 
1519.000000	63.746118 
1518.000000	63.720035 
1517.000000	63.694691 
1516.000000	63.672685 
1515.000000	63.655900 
1514.000000	63.645386 
1513.000000	63.641309 
1512.000000	63.642978 
1511.000000	63.649392 
1510.000000	63.659119 
1509.000000	63.671088 
1508.000000	63.684201 
1507.000000	63.697886 
1506.000000	63.711690 
1505.000000	63.725590 
1504.000000	63.739514 
1503.000000	63.753604 
1502.000000	63.767814 
1501.000000	63.782119 
1500.000000	63.796234 
1499.000000	63.809776 
1498.000000	63.822388 
1497.000000	63.833570 
1496.000000	63.842844 
1495.000000	63.849949 
1494.000000	63.854455 
1493.000000	63.856196 
1492.000000	63.854956 
1491.000000	63.850593 
1490.000000	63.842892 
1489.000000	63.832020 
1488.000000	63.818407 
1487.000000	63.802957 
1486.000000	63.786864 
1485.000000	63.771653 
1484.000000	63.758802 
1483.000000	63.749694 
1482.000000	63.745188 
1481.000000	63.745450 
1480.000000	63.749814 
1479.000000	63.756918 
1478.000000	63.765072 
1477.000000	63.772630 
1476.000000	63.778328 
1475.000000	63.781380 
1474.000000	63.781738 
1473.000000	63.780045 
1472.000000	63.777017 
1471.000000	63.773250 
1470.000000	63.768982 
1469.000000	63.763880 
1468.000000	63.757061 
1467.000000	63.747549 
1466.000000	63.734555 
1465.000000	63.717889 
1464.000000	63.698124 
1463.000000	63.676810 
1462.000000	63.655996 
1461.000000	63.637924 
1460.000000	63.624334 
1459.000000	63.616347 
1458.000000	63.614082 
1457.000000	63.616991 
1456.000000	63.623833 
1455.000000	63.633155 
1454.000000	63.643646 
1453.000000	63.654208 
1452.000000	63.664150 
1451.000000	63.673019 
1450.000000	63.680315 
1449.000000	63.685417 
1448.000000	63.687372 
1447.000000	63.685297 
1446.000000	63.678812 
1445.000000	63.668179 
1444.000000	63.654541 
1443.000000	63.639879 
1442.000000	63.626742 
1441.000000	63.617658 
1440.000000	63.614797 
1439.000000	63.619017 
1438.000000	63.629913 
1437.000000	63.645648 
1436.000000	63.663625 
1435.000000	63.680577 
1434.000000	63.693714 
1433.000000	63.701128 
1432.000000	63.702321 
1431.000000	63.698196 
1430.000000	63.690638 
1429.000000	63.682270 
1428.000000	63.675379 
1427.000000	63.671588 
1426.000000	63.671135 
1425.000000	63.673043 
1424.000000	63.675165 
1423.000000	63.674902 
1422.000000	63.669800 
1421.000000	63.658452 
1420.000000	63.640761 
1419.000000	63.618493 
1418.000000	63.594675 
1417.000000	63.573074 
1416.000000	63.557314 
1415.000000	63.550162 
1414.000000	63.552641 
1413.000000	63.564276 
1412.000000	63.582968 
1411.000000	63.605952 
1410.000000	63.630199 
1409.000000	63.653302 
1408.000000	63.673734 
1407.000000	63.690972 
1406.000000	63.705158 
1405.000000	63.716697 
1404.000000	63.725709 
1403.000000	63.731789 
1402.000000	63.733959 
1401.000000	63.731050 
1400.000000	63.722300 
1399.000000	63.707566 
1398.000000	63.688063 
1397.000000	63.666009 
1396.000000	63.644218 
1395.000000	63.625693 
1394.000000	63.612866 
1393.000000	63.607096 
1392.000000	63.608551 
1391.000000	63.615989 
1390.000000	63.627123 
1389.000000	63.639140 
1388.000000	63.649225 
1387.000000	63.654971 
1386.000000	63.654875 
1385.000000	63.648366 
1384.000000	63.636088 
1383.000000	63.619494 
1382.000000	63.600730 
1381.000000	63.582181 
1380.000000	63.566064 
1379.000000	63.554120 
1378.000000	63.547563 
1377.000000	63.546919 
1376.000000	63.552188 
1375.000000	63.562512 
1374.000000	63.576817 
1373.000000	63.593721 
1372.000000	63.611793 
1371.000000	63.629531 
1370.000000	63.645577 
1369.000000	63.658809 
1368.000000	63.668394 
1367.000000	63.673615 
1366.000000	63.673949 
1365.000000	63.669013 
1364.000000	63.658642 
1363.000000	63.642883 
1362.000000	63.622021 
1361.000000	63.596725 
1360.000000	63.567996 
1359.000000	63.537335 
1358.000000	63.506746 
1357.000000	63.478708 
1356.000000	63.455605 
1355.000000	63.439750 
1354.000000	63.432860 
1353.000000	63.435816 
1352.000000	63.448333 
1351.000000	63.468980 
1350.000000	63.494992 
1349.000000	63.523101 
1348.000000	63.549590 
1347.000000	63.571214 
1346.000000	63.585495 
1345.000000	63.591146 
1344.000000	63.588261 
1343.000000	63.578176 
1342.000000	63.563084 
1341.000000	63.545632 
1340.000000	63.528347 
1339.000000	63.513302 
1338.000000	63.501954 
1337.000000	63.494825 
1336.000000	63.491749 
1335.000000	63.491845 
1334.000000	63.493847 
1333.000000	63.496255 
1332.000000	63.497734 
1331.000000	63.497161 
1330.000000	63.494110 
1329.000000	63.488793 
1328.000000	63.482260 
1327.000000	63.475966 
1326.000000	63.471722 
1325.000000	63.471341 
1324.000000	63.476085 
1323.000000	63.486456 
1322.000000	63.501906 
1321.000000	63.520956 
1320.000000	63.541388 
1319.000000	63.560795 
1318.000000	63.576936 
1317.000000	63.588023 
1316.000000	63.593149 
1315.000000	63.592433 
1314.000000	63.586711 
1313.000000	63.577294 
1312.000000	63.565540 
1311.000000	63.552498 
1310.000000	63.538885 
1309.000000	63.524961 
1308.000000	63.510823 
1307.000000	63.496494 
1306.000000	63.482308 
1305.000000	63.468980 
1304.000000	63.457417 
1303.000000	63.448786 
1302.000000	63.443946 
1301.000000	63.443565 
1300.000000	63.447785 
1299.000000	63.456106 
1298.000000	63.467550 
1297.000000	63.480472 
1296.000000	63.492870 
1295.000000	63.502383 
1294.000000	63.506603 
1293.000000	63.503789 
1292.000000	63.492894 
1291.000000	63.474059 
1290.000000	63.448739 
1289.000000	63.419580 
1288.000000	63.390350 
1287.000000	63.365006 
1286.000000	63.347053 
1285.000000	63.338732 
1284.000000	63.340759 
1283.000000	63.351893 
1282.000000	63.369345 
1281.000000	63.389372 
1280.000000	63.408136 
1279.000000	63.422393 
1278.000000	63.430261 
1277.000000	63.431048 
1276.000000	63.425445 
1275.000000	63.414859 
1274.000000	63.401198 
1273.000000	63.386344 
1272.000000	63.371801 
1271.000000	63.358783 
1270.000000	63.348007 
1269.000000	63.339924 
1268.000000	63.334536 
1267.000000	63.331675 
1266.000000	63.330888 
1265.000000	63.331627 
1264.000000	63.333344 
1263.000000	63.335299 
1262.000000	63.336825 
1261.000000	63.337492 
1260.000000	63.337302 
1259.000000	63.336586 
1258.000000	63.336014 
1257.000000	63.336253 
1256.000000	63.337945 
1255.000000	63.341450 
1254.000000	63.346600 
1253.000000	63.352608 
1252.000000	63.358378 
1251.000000	63.362717 
1250.000000	63.364744 
1249.000000	63.364243 
1248.000000	63.361620 
1247.000000	63.357901 
1246.000000	63.354396 
1245.000000	63.352155 
1244.000000	63.351821 
1243.000000	63.353276 
1242.000000	63.355565 
1241.000000	63.357043 
1240.000000	63.356161 
1239.000000	63.351583 
1238.000000	63.342714 
1237.000000	63.330006 
1236.000000	63.314747 
1235.000000	63.299155 
1234.000000	63.285684 
1233.000000	63.276839 
1232.000000	63.274335 
1231.000000	63.279175 
1230.000000	63.291335 
1229.000000	63.309788 
1228.000000	63.332629 
1227.000000	63.357377 
1226.000000	63.381409 
1225.000000	63.402152 
1224.000000	63.417506 
1223.000000	63.426280 
1222.000000	63.428425 
1221.000000	63.424944 
1220.000000	63.417840 
1219.000000	63.409686 
1218.000000	63.403129 
1217.000000	63.400459 
1216.000000	63.402938 
1215.000000	63.410973 
1214.000000	63.423418 
1213.000000	63.438463 
1212.000000	63.453435 
1211.000000	63.465499 
1210.000000	63.472151 
1209.000000	63.471579 
1208.000000	63.463068 
1207.000000	63.447165 
1206.000000	63.425469 
1205.000000	63.400244 
1204.000000	63.374161 
1203.000000	63.349676 
1202.000000	63.328647 
1201.000000	63.312125 
1200.000000	63.300228 
1199.000000	63.292407 
1198.000000	63.287472 
1197.000000	63.284301 
1196.000000	63.281846 
1195.000000	63.279604 
1194.000000	63.277339 
1193.000000	63.275313 
1192.000000	63.273739 
1191.000000	63.273000 
1190.000000	63.272929 
1189.000000	63.273191 
1188.000000	63.272929 
1187.000000	63.271141 
1186.000000	63.267135 
1185.000000	63.260316 
1184.000000	63.250684 
1183.000000	63.238668 
1182.000000	63.225030 
1181.000000	63.210773 
1180.000000	63.196825 
1179.000000	63.183856 
1178.000000	63.172197 
1177.000000	63.161706 
1176.000000	63.151836 
1175.000000	63.142108 
1174.000000	63.132214 
1173.000000	63.122200 
1172.000000	63.112568 
1171.000000	63.104319 
1170.000000	63.098669 
1169.000000	63.096475 
1168.000000	63.098073 
1167.000000	63.103103 
1166.000000	63.110661 
1165.000000	63.119697 
1164.000000	63.129210 
1163.000000	63.138651 
1162.000000	63.147950 
1161.000000	63.157367 
1160.000000	63.167476 
1159.000000	63.178539 
1158.000000	63.190364 
1157.000000	63.202023 
1156.000000	63.212323 
1155.000000	63.219904 
1154.000000	63.223743 
1153.000000	63.223409 
1152.000000	63.219356 
1151.000000	63.212943 
1150.000000	63.206076 
1149.000000	63.200736 
1148.000000	63.198757 
1147.000000	63.201403 
1146.000000	63.209247 
1145.000000	63.221979 
1144.000000	63.238978 
1143.000000	63.258910 
1142.000000	63.279962 
1141.000000	63.299727 
1140.000000	63.315677 
1139.000000	63.325500 
1138.000000	63.327002 
1137.000000	63.319158 
1136.000000	63.302111 
1135.000000	63.277387 
1134.000000	63.247728 
1133.000000	63.216876 
1132.000000	63.188838 
1131.000000	63.167309 
1130.000000	63.155102 
1129.000000	63.153529 
1128.000000	63.162422 
1127.000000	63.179922 
1126.000000	63.203144 
1125.000000	63.228464 
1124.000000	63.252234 
1123.000000	63.271450 
1122.000000	63.284134 
1121.000000	63.289642 
1120.000000	63.288450 
1119.000000	63.282132 
1118.000000	63.272857 
1117.000000	63.263010 
1116.000000	63.254547 
1115.000000	63.248920 
1114.000000	63.246655 
1113.000000	63.247346 
1112.000000	63.249993 
1111.000000	63.253450 
1110.000000	63.256812 
1109.000000	63.259530 
1108.000000	63.261842 
1107.000000	63.264346 
1106.000000	63.268136 
1105.000000	63.274145 
1104.000000	63.282918 
1103.000000	63.294315 
1102.000000	63.307356 
1101.000000	63.320636 
1100.000000	63.331842 
1099.000000	63.338637 
1098.000000	63.338732 
1097.000000	63.330721 
1096.000000	63.314104 
1095.000000	63.289546 
1094.000000	63.258957 
1093.000000	63.224935 
1092.000000	63.190436 
1091.000000	63.158082 
1090.000000	63.129878 
1089.000000	63.106775 
1088.000000	63.088631 
1087.000000	63.074731 
1086.000000	63.063716 
1085.000000	63.054585 
1084.000000	63.046479 
1083.000000	63.039326 
1082.000000	63.033342 
1081.000000	63.029360 
1080.000000	63.027977 
1079.000000	63.029670 
1078.000000	63.034272 
1077.000000	63.041162 
1076.000000	63.049340 
1075.000000	63.057875 
1074.000000	63.065934 
1073.000000	63.073110 
1072.000000	63.079333 
1071.000000	63.084936 
1070.000000	63.090443 
1069.000000	63.096475 
1068.000000	63.103437 
1067.000000	63.111424 
1066.000000	63.120365 
1065.000000	63.129663 
1064.000000	63.138556 
1063.000000	63.146209 
1062.000000	63.151955 
1061.000000	63.155317 
1060.000000	63.156270 
1059.000000	63.155436 
1058.000000	63.153624 
1057.000000	63.151860 
1056.000000	63.150930 
1055.000000	63.151359 
1054.000000	63.153076 
1053.000000	63.155579 
1052.000000	63.158082 
1051.000000	63.159561 
1050.000000	63.159418 
1049.000000	63.157749 
1048.000000	63.155293 
1047.000000	63.153290 
1046.000000	63.153171 
1045.000000	63.156127 
1044.000000	63.162589 
1043.000000	63.171839 
1042.000000	63.182187 
1041.000000	63.191270 
1040.000000	63.196563 
1039.000000	63.195991 
1038.000000	63.188433 
1037.000000	63.174152 
1036.000000	63.154864 
1035.000000	63.133263 
1034.000000	63.112735 
1033.000000	63.096570 
1032.000000	63.087511 
1031.000000	63.086748 
1030.000000	63.094091 
1029.000000	63.107585 
1028.000000	63.124227 
1027.000000	63.140106 
1026.000000	63.151693 
1025.000000	63.156008 
1024.000000	63.151502 
1023.000000	63.138103 
1022.000000	63.116979 
1021.000000	63.090443 
1020.000000	63.061356 
1019.000000	63.032436 
1018.000000	63.006043 
1017.000000	62.983727 
1016.000000	62.966370 
1015.000000	62.954020 
1014.000000	62.946105 
1013.000000	62.941765 
1012.000000	62.940216 
1011.000000	62.940716 
1010.000000	62.942743 
1009.000000	62.945914 
1008.000000	62.950110 
1007.000000	62.955260 
1006.000000	62.961483 
1005.000000	62.968730 
1004.000000	62.977147 
1003.000000	62.986660 
1002.000000	62.997317 
1001.000000	63.008975 
1000.000000	63.021397 
999.000000	 63.034415 
998.000000	 63.047719 
997.000000	 63.060855 
996.000000	 63.073301 
995.000000	 63.084506 
994.000000	 63.094401 
993.000000	 63.102936 
992.000000	 63.110828 
991.000000	 63.119220 
990.000000	 63.129711 
989.000000	 63.143968 
988.000000	 63.163304 
987.000000	 63.188147 
986.000000	 63.217782 
985.000000	 63.250374 
984.000000	 63.283085 
983.000000	 63.312649 
982.000000	 63.336110 
981.000000	 63.351345 
980.000000	 63.357663 
979.000000	 63.355469 
978.000000	 63.346433 
977.000000	 63.332581 
976.000000	 63.315677 
975.000000	 63.296437 
974.000000	 63.274860 
973.000000	 63.250041 
972.000000	 63.220953 
971.000000	 63.187217 
970.000000	 63.149642 
969.000000	 63.110232 
968.000000	 63.072156 
967.000000	 63.038706 
966.000000	 63.012576 
965.000000	 62.995338 
964.000000	 62.987017 
963.000000	 62.986183 
962.000000	 62.990117 
961.000000	 62.995815 
960.000000	 63.000607 
959.000000	 63.002991 
958.000000	 63.002800 
957.000000	 63.001298 
956.000000	 63.000607 
955.000000	 63.003158 
954.000000	 63.010573 
953.000000	 63.023638 
952.000000	 63.041734 
951.000000	 63.063001 
950.000000	 63.084650 
949.000000	 63.104152 
948.000000	 63.119745 
947.000000	 63.130807 
946.000000	 63.138008 
945.000000	 63.143277 
944.000000	 63.148808 
943.000000	 63.156771 
942.000000	 63.167834 
941.000000	 63.180804 
940.000000	 63.192892 
939.000000	 63.200616 
938.000000	 63.200926 
937.000000	 63.192224 
936.000000	 63.175487 
935.000000	 63.154387 
934.000000	 63.134527 
933.000000	 63.122081 
932.000000	 63.122129 
931.000000	 63.136982 
930.000000	 63.165545 
929.000000	 63.203120 
928.000000	 63.242554 
927.000000	 63.275647 
926.000000	 63.295125 
925.000000	 63.296103 
924.000000	 63.277077 
923.000000	 63.240170 
922.000000	 63.189911 
921.000000	 63.132643 
920.000000	 63.074731 
919.000000	 63.022136 
918.000000	 62.979698 
917.000000	 62.950801 
916.000000	 62.937474 
915.000000	 62.940192 
914.000000	 62.958145 
913.000000	 62.989044 
912.000000	 63.028812 
911.000000	 63.072204 
910.000000	 63.113284 
909.000000	 63.146424 
908.000000	 63.166904 
907.000000	 63.172006 
906.000000	 63.161540 
905.000000	 63.137912 
904.000000	 63.105702 
903.000000	 63.070535 
902.000000	 63.037896 
901.000000	 63.012218 
900.000000	 62.996220 
899.000000	 62.990808 
898.000000	 62.995123 
897.000000	 63.007378 
896.000000	 63.025283 
895.000000	 63.046455 
894.000000	 63.068699 
893.000000	 63.089871 
892.000000	 63.107895 
891.000000	 63.121056 
890.000000	 63.127541 
889.000000	 63.126158 
888.000000	 63.116097 
887.000000	 63.096785 
886.000000	 63.068771 
885.000000	 63.033699 
884.000000	 62.994551 
883.000000	 62.955546 
882.000000	 62.921619 
881.000000	 62.897634 
880.000000	 62.887525 
879.000000	 62.893533 
878.000000	 62.915253 
877.000000	 62.949562 
876.000000	 62.991309 
875.000000	 63.034415 
874.000000	 63.072991 
873.000000	 63.102602 
872.000000	 63.121056 
871.000000	 63.128876 
870.000000	 63.128685 
869.000000	 63.124275 
868.000000	 63.119053 
867.000000	 63.115215 
866.000000	 63.113164 
865.000000	 63.111805 
864.000000	 63.109421 
863.000000	 63.104224 
862.000000	 63.095903 
861.000000	 63.085341 
860.000000	 63.074898 
859.000000	 63.067412 
858.000000	 63.065052 
857.000000	 63.068485 
856.000000	 63.076305 
855.000000	 63.085269 
854.000000	 63.091063 
853.000000	 63.089275 
852.000000	 63.076782 
851.000000	 63.052797 
850.000000	 63.019013 
849.000000	 62.979292 
848.000000	 62.938618 
847.000000	 62.902069 
846.000000	 62.873721 
845.000000	 62.855601 
844.000000	 62.847805 
843.000000	 62.848448 
842.000000	 62.854743 
841.000000	 62.863564 
840.000000	 62.872314 
839.000000	 62.879228 
838.000000	 62.883520 
837.000000	 62.885260 
836.000000	 62.884950 
835.000000	 62.882971 
834.000000	 62.879705 
833.000000	 62.875175 
832.000000	 62.869501 
831.000000	 62.862706 
830.000000	 62.855052 
829.000000	 62.847113 
828.000000	 62.839818 
827.000000	 62.834239 
826.000000	 62.831258 
825.000000	 62.831544 
824.000000	 62.835550 
823.000000	 62.843394 
822.000000	 62.855243 
821.000000	 62.871360 
820.000000	 62.892007 
819.000000	 62.917232 
818.000000	 62.946605 
817.000000	 62.979054 
816.000000	 63.012790 
815.000000	 63.045310 
814.000000	 63.073968 
813.000000	 63.096117 
812.000000	 63.109898 
811.000000	 63.114285 
810.000000	 63.109183 
809.000000	 63.095092 
808.000000	 63.073348 
807.000000	 63.045549 
806.000000	 63.013672 
805.000000	 62.979936 
804.000000	 62.946844 
803.000000	 62.916994 
802.000000	 62.893009 
801.000000	 62.876963 
800.000000	 62.870144 
799.000000	 62.872600 
798.000000	 62.882947 
797.000000	 62.898421 
796.000000	 62.915205 
795.000000	 62.929654 
794.000000	 62.938833 
793.000000	 62.941122 
792.000000	 62.936305 
791.000000	 62.925601 
790.000000	 62.910938 
789.000000	 62.894296 
788.000000	 62.877178 
787.000000	 62.860679 
786.000000	 62.845206 
785.000000	 62.831091 
784.000000	 62.818551 
783.000000	 62.808322 
782.000000	 62.801384 
781.000000	 62.798881 
780.000000	 62.801766 
779.000000	 62.810349 
778.000000	 62.824249 
777.000000	 62.842059 
776.000000	 62.861728 
775.000000	 62.880587 
774.000000	 62.896132 
773.000000	 62.906503 
772.000000	 62.910199 
771.000000	 62.906551 
770.000000	 62.895536 
769.000000	 62.877869 
768.000000	 62.854671 
767.000000	 62.827467 
766.000000	 62.798070 
765.000000	 62.768578 
764.000000	 62.740945 
763.000000	 62.717199 
762.000000	 62.698745 
761.000000	 62.686920 
760.000000	 62.682199 
759.000000	 62.685012 
758.000000	 62.695026 
757.000000	 62.711858 
756.000000	 62.734770 
755.000000	 62.762737 
754.000000	 62.794232 
753.000000	 62.827348 
752.000000	 62.859654 
751.000000	 62.888360 
750.000000	 62.910914 
749.000000	 62.925338 
748.000000	 62.930870 
747.000000	 62.928247 
746.000000	 62.919569 
745.000000	 62.908077 
744.000000	 62.897586 
743.000000	 62.891483 
742.000000	 62.891912 
741.000000	 62.899756 
740.000000	 62.914562 
739.000000	 62.934756 
738.000000	 62.958025 
737.000000	 62.982487 
736.000000	 63.006591 
735.000000	 63.029432 
734.000000	 63.050532 
733.000000	 63.069200 
732.000000	 63.084435 
731.000000	 63.094687 
730.000000	 63.098335 
729.000000	 63.094067 
728.000000	 63.081741 
727.000000	 63.062667 
726.000000	 63.039612 
725.000000	 63.016581 
724.000000	 62.997436 
723.000000	 62.985372 
722.000000	 62.981271 
721.000000	 62.983894 
720.000000	 62.989306 
719.000000	 62.992167 
718.000000	 62.986660 
717.000000	 62.968015 
716.000000	 62.933540 
715.000000	 62.883257 
714.000000	 62.819528 
713.000000	 62.746596 
712.000000	 62.669587 
711.000000	 62.593388 
710.000000	 62.522315 
709.000000	 62.459516 
708.000000	 62.407088 
707.000000	 62.365984 
706.000000	 62.335968 
705.000000	 62.315964 
704.000000	 62.303829 
703.000000	 62.297296 
702.000000	 62.293910 
701.000000	 62.291812 
700.000000	 62.289643 
699.000000	 62.287330 
698.000000	 62.285017 
697.000000	 62.283802 
696.000000	 62.284946 
695.000000	 62.290048 
694.000000	 62.300252 
693.000000	 62.316298 
692.000000	 62.338423 
691.000000	 62.365484 
690.000000	 62.395024 
689.000000	 62.423539 
688.000000	 62.446951 
687.000000	 62.461519 
686.000000	 62.464642 
685.000000	 62.455773 
684.000000	 62.436652 
683.000000	 62.410783 
682.000000	 62.383079 
681.000000	 62.358760 
680.000000	 62.342548 
679.000000	 62.337684 
678.000000	 62.345600 
677.000000	 62.365746 
676.000000	 62.396001 
675.000000	 62.433195 
674.000000	 62.473917 
673.000000	 62.514877 
672.000000	 62.553977 
671.000000	 62.590169 
670.000000	 62.623405 
669.000000	 62.654256 
668.000000	 62.683272 
667.000000	 62.710571 
666.000000	 62.735199 
665.000000	 62.755513 
664.000000	 62.769055 
663.000000	 62.773442 
662.000000	 62.766885 
661.000000	 62.749052 
660.000000	 62.721323 
659.000000	 62.686681 
658.000000	 62.649106 
657.000000	 62.612462 
656.000000	 62.579584 
655.000000	 62.551379 
654.000000	 62.526440 
653.000000	 62.501645 
652.000000	 62.473297 
651.000000	 62.438368 
650.000000	 62.395310 
649.000000	 62.345218 
648.000000	 62.291455 
647.000000	 62.239265 
646.000000	 62.193894 
645.000000	 62.160158 
644.000000	 62.140917 
643.000000	 62.136888 
642.000000	 62.146234 
641.000000	 62.165594 
640.000000	 62.190842 
639.000000	 62.218165 
638.000000	 62.244677 
637.000000	 62.268543 
636.000000	 62.288546 
635.000000	 62.303996 
634.000000	 62.314057 
633.000000	 62.318038 
632.000000	 62.315106 
631.000000	 62.305021 
630.000000	 62.287855 
629.000000	 62.264204 
628.000000	 62.235069 
627.000000	 62.202095 
626.000000	 62.167358 
625.000000	 62.133026 
624.000000	 62.101221 
623.000000	 62.073898 
622.000000	 62.052416 
621.000000	 62.037158 
620.000000	 62.027859 
619.000000	 62.023043 
618.000000	 62.021803 
617.000000	 62.023711 
616.000000	 62.029933 
615.000000	 62.042403 
614.000000	 62.064075 
613.000000	 62.098026 
612.000000	 62.145900 
611.000000	 62.207150 
610.000000	 62.277841 
609.000000	 62.350869 
608.000000	 62.417364 
607.000000	 62.468719 
606.000000	 62.498521 
605.000000	 62.504267 
604.000000	 62.488961 
603.000000	 62.460041 
602.000000	 62.427186 
601.000000	 62.399673 
600.000000	 62.384557 
599.000000	 62.384343 
598.000000	 62.397360 
597.000000	 62.417387 
596.000000	 62.436938 
595.000000	 62.447524 
594.000000	 62.442851 
593.000000	 62.418723 
592.000000	 62.373328 
591.000000	 62.307691 
590.000000	 62.224912 
589.000000	 62.130284 
588.000000	 62.029719 
587.000000	 61.930680 
586.000000	 61.841106 
585.000000	 61.769843 
584.000000	 61.725234 
583.000000	 61.714839 
582.000000	 61.743688 
581.000000	 61.813378 
580.000000	 61.920952 
579.000000	 62.059664 
578.000000	 62.219619 
577.000000	 62.388801 
576.000000	 62.554740 
575.000000	 62.707233 
574.000000	 62.838673 
573.000000	 62.944746 
572.000000	 63.022589 
571.000000	 63.071513 
570.000000	 63.089895 
569.000000	 63.076567 
568.000000	 63.029193 
567.000000	 62.946438 
566.000000	 62.828540 
565.000000	 62.680172 
564.000000	 62.510418 
563.000000	 62.332582 
562.000000	 62.163162 
561.000000	 62.019658 
560.000000	 61.917829 
559.000000	 61.868715 
558.000000	 61.876440 
557.000000	 61.937046 
556.000000	 62.039113 
555.000000	 62.165403 
554.000000	 62.296032 
553.000000	 62.411594 
552.000000	 62.495207 
551.000000	 62.534761 
550.000000	 62.524557 
549.000000	 62.465429 
548.000000	 62.364315 
547.000000	 62.232136 
546.000000	 62.081432 
545.000000	 61.924314 
544.000000	 61.771655 
543.000000	 61.632442 
542.000000	 61.513400 
541.000000	 61.420297 
540.000000	 61.358165 
539.000000	 61.331844 
538.000000	 61.346125 
537.000000	 61.402654 
536.000000	 61.498093 
535.000000	 61.622405 
534.000000	 61.758065 
533.000000	 61.883473 
532.000000	 61.975860 
531.000000	 62.017989 
530.000000	 62.000417 
529.000000	 61.929678 
528.000000	 61.827015 
527.000000	 61.725306 
526.000000	 61.660456 
525.000000	 61.661624 
524.000000	 61.742115 
523.000000	 61.894822 
522.000000	 62.092947 
521.000000	 62.294411 
520.000000	 62.453794 
519.000000	 62.534952 
518.000000	 62.521791 
517.000000	 62.420082 
516.000000	 62.259554 
515.000000	 62.084913 
514.000000	 61.946487 
513.000000	 61.888170 
512.000000	 61.934494 
511.000000	 62.089157 
510.000000	 62.326884 
509.000000	 62.604546 
508.000000	 62.863135 
507.000000	 63.044786 
506.000000	 63.100218 
505.000000	 63.000798 
504.000000	 62.742042 
503.000000	 62.343549 
502.000000	 61.846852 
501.000000	 61.306905 
500.000000	 60.785031 
499.000000	 60.339069 
498.000000	 60.019373 
497.000000	 59.862875 
496.000000	 59.889817 
495.000000	 60.101914 
494.000000	 60.482907 
493.000000	 61.000394 
492.000000	 61.606812 
491.000000	 62.246203 
490.000000	 62.859439 
489.000000	 63.391923 
488.000000	 63.798666 
487.000000	 64.049553 
486.000000	 64.133405 
485.000000	 64.055967 
484.000000	 63.840961 
483.000000	 63.521456 
482.000000	 63.137698 
481.000000	 62.728071 
480.000000	 62.329816 
479.000000	 61.971378 
478.000000	 61.674880 
477.000000	 61.452603 
476.000000	 61.310076 
475.000000	 61.244368 
474.000000	 61.246490 
473.000000	 61.300802 
472.000000	 61.387419 
471.000000	 61.483192 
470.000000	 61.565136 
469.000000	 61.614727 
468.000000	 61.621046 
467.000000	 61.580014 
466.000000	 61.496162 
465.000000	 61.381506 
464.000000	 61.253237 
463.000000	 61.131191 
462.000000	 61.033105 
461.000000	 60.970425 
460.000000	 60.946249 
459.000000	 60.958266 
458.000000	 60.996484 
457.000000	 61.046409 
456.000000	 61.091780 
455.000000	 61.117601 
454.000000	 61.114597 
453.000000	 61.080956 
452.000000	 61.022233 
451.000000	 60.947608 
450.000000	 60.870480 
449.000000	 60.804867 
448.000000	 60.762953 
447.000000	 60.752463 
446.000000	 60.776948 
445.000000	 60.835695 
444.000000	 60.925197 
443.000000	 61.040115 
442.000000	 61.175918 
441.000000	 61.327815 
440.000000	 61.490273 
439.000000	 61.654305 
438.000000	 61.806750 
437.000000	 61.930155 
436.000000	 62.002372 
435.000000	 62.004566 
434.000000	 61.924028 
433.000000	 61.764907 
432.000000	 61.545872 
431.000000	 61.306738 
430.000000	 61.100959 
429.000000	 60.987949 
428.000000	 61.023807 
427.000000	 61.240577 
426.000000	 61.638069 
425.000000	 62.175726 
424.000000	 62.782692 
423.000000	 63.362550 
422.000000	 63.810896 
421.000000	 64.048576 
420.000000	 64.041233 
419.000000	 63.806915 
418.000000	 63.411545 
417.000000	 62.948703 
416.000000	 62.515521 
415.000000	 62.194705 
414.000000	 62.036561 
413.000000	 62.043833 
412.000000	 62.180662 
411.000000	 62.398719 
410.000000	 62.650012 
409.000000	 62.901759 
408.000000	 63.142633 
407.000000	 63.372659 
406.000000	 63.602042 
405.000000	 63.849592 
404.000000	 64.116811 
403.000000	 64.394903 
402.000000	 64.635586 
401.000000	 64.761710 
400.000000	 64.672899 
399.000000	 64.288949 
398.000000	 63.544940 
397.000000	 62.411427 
396.000000	 60.916543 
395.000000	 59.157466 
394.000000	 57.271718 
393.000000	 55.421447 
392.000000	 53.766512 
391.000000	 52.442812 
390.000000	 51.623773 
389.000000	 51.493906 
388.000000	 52.221369 
387.000000	 53.898715 
386.000000	 56.493473 
385.000000	 59.811711 
384.000000	 63.472843 
383.000000	 66.981434 
382.000000	 69.830369 
381.000000	 71.602082 
380.000000	 72.067880 
379.000000	 71.233558 
378.000000	 69.290685 
377.000000	 66.641235 
376.000000	 63.735914 
375.000000	 61.122298 
374.000000	 59.360766 
373.000000	 58.942914 
372.000000	 60.259437 
371.000000	 63.425827 
370.000000	 68.278479 

