PE IR       SPECTRUM    SPECTRUM    ASCII       PEDS        1.60        
  -1
BZ4C79~1.ASC
17/04/07
22:48:22.00
17/04/07
22:48:22.00
tln
$BZ1503107-1_t0116$<tbV0>[0.0,13.0,8.0,0.0,27,1,0]
370.000000
64









2002,4.07    
MIRTGS : RIGHTBACK : INTERNAL 2
MIR : ON : INTERNAL 2
OPTKBR

0.200000
8
8.000000
FILLER
RATIO
SPECTRUM
UNLOCKED 256

DOUBLE
64
COMBINED
1
0
0


1.000000
RATIO


1
0
TRUE
51149
0
LEFT NOT FITTED RIGHT NOT FITTED 0
NONE
NONE
15600
12.000000
4.427000
51148
TRUE
1 0 8 72 0 0 0 0 

15798.010000






#HDR
-1
-1
#GR
CM-1
%T
0.00002384185791015625
0.0
5000.000000
-1.000000
4631
8
71.441936
34.709072
#DATA
5000.000000	65.866541 
4999.000000	65.678787 
4998.000000	65.503120 
4997.000000	65.339708 
4996.000000	65.195155 
4995.000000	65.080118 
4994.000000	65.008902 
4993.000000	64.991474 
4992.000000	65.033745 
4991.000000	65.132260 
4990.000000	65.276002 
4989.000000	65.447044 
4988.000000	65.622830 
4987.000000	65.779829 
4986.000000	65.897154 
4985.000000	65.959835 
4984.000000	65.961146 
4983.000000	65.903377 
4982.000000	65.796923 
4981.000000	65.658140 
4980.000000	65.507054 
4979.000000	65.363907 
4978.000000	65.246868 
4977.000000	65.168786 
4976.000000	65.136146 
4975.000000	65.148472 
4974.000000	65.198874 
4973.000000	65.276932 
4972.000000	65.368843 
4971.000000	65.463542 
4970.000000	65.552496 
4969.000000	65.634393 
4968.000000	65.711593 
4967.000000	65.792298 
4966.000000	65.886497 
4965.000000	66.003489 
4964.000000	66.148185 
4963.000000	66.318893 
4962.000000	66.507863 
4961.000000	66.700077 
4960.000000	66.876602 
4959.000000	67.017412 
4958.000000	67.106270 
4957.000000	67.133331 
4956.000000	67.097568 
4955.000000	67.006683 
4954.000000	66.874814 
4953.000000	66.719508 
4952.000000	66.557502 
4951.000000	66.402482 
4950.000000	66.262602 
4949.000000	66.140675 
4948.000000	66.035079 
4947.000000	65.942931 
4946.000000	65.861988 
4945.000000	65.791225 
4944.000000	65.733170 
4943.000000	65.690922 
4942.000000	65.670132 
4941.000000	65.675401 
4940.000000	65.710735 
4939.000000	65.775609 
4938.000000	65.866589 
4937.000000	65.977168 
4936.000000	66.098141 
4935.000000	66.218233 
4934.000000	66.326570 
4933.000000	66.414213 
4932.000000	66.475319 
4931.000000	66.507482 
4930.000000	66.513204 
4929.000000	66.498994 
4928.000000	66.473793 
4927.000000	66.446924 
4926.000000	66.426706 
4925.000000	66.418576 
4924.000000	66.424489 
4923.000000	66.442561 
4922.000000	66.468071 
4921.000000	66.494917 
4920.000000	66.518259 
4919.000000	66.534972 
4918.000000	66.544127 
4917.000000	66.546463 
4916.000000	66.544079 
4915.000000	66.538715 
4914.000000	66.530776 
4913.000000	66.518878 
4912.000000	66.500568 
4911.000000	66.473054 
4910.000000	66.434741 
4909.000000	66.385769 
4908.000000	66.329026 
4907.000000	66.268801 
4906.000000	66.210389 
4905.000000	66.157937 
4904.000000	66.113257 
4903.000000	66.075730 
4902.000000	66.042661 
4901.000000	66.010308 
4900.000000	65.975308 
4899.000000	65.936517 
4898.000000	65.895628 
4897.000000	65.856599 
4896.000000	65.824794 
4895.000000	65.804624 
4894.000000	65.798330 
4893.000000	65.804886 
4892.000000	65.820217 
4891.000000	65.838003 
4890.000000	65.851712 
4889.000000	65.855979 
4888.000000	65.848207 
4887.000000	65.829014 
4886.000000	65.801835 
4885.000000	65.771031 
4884.000000	65.741348 
4883.000000	65.716361 
4882.000000	65.698313 
4881.000000	65.687775 
4880.000000	65.684556 
4879.000000	65.687990 
4878.000000	65.697836 
4877.000000	65.714526 
4876.000000	65.738129 
4875.000000	65.768218 
4874.000000	65.803241 
4873.000000	65.840792 
4872.000000	65.877866 
4871.000000	65.911817 
4870.000000	65.941596 
4869.000000	65.967845 
4868.000000	65.993142 
4867.000000	66.020298 
4866.000000	66.051912 
4865.000000	66.087818 
4864.000000	66.124916 
4863.000000	66.156339 
4862.000000	66.173458 
4861.000000	66.167211 
4860.000000	66.130995 
4859.000000	66.062688 
4858.000000	65.965843 
4857.000000	65.849781 
4856.000000	65.727996 
4855.000000	65.615534 
4854.000000	65.525889 
4853.000000	65.468311 
4852.000000	65.446209 
4851.000000	65.456771 
4850.000000	65.492367 
4849.000000	65.542244 
4848.000000	65.595388 
4847.000000	65.642094 
4846.000000	65.675783 
4845.000000	65.693593 
4844.000000	65.696477 
4843.000000	65.687203 
4842.000000	65.669727 
4841.000000	65.648055 
4840.000000	65.625286 
4839.000000	65.603995 
4838.000000	65.585565 
4837.000000	65.571403 
4836.000000	65.561985 
4835.000000	65.558028 
4834.000000	65.559315 
4833.000000	65.564393 
4832.000000	65.570688 
4831.000000	65.575003 
4830.000000	65.574049 
4829.000000	65.565037 
4828.000000	65.546941 
4827.000000	65.521287 
4826.000000	65.491461 
4825.000000	65.462017 
4824.000000	65.437388 
4823.000000	65.420770 
4822.000000	65.412521 
4821.000000	65.410184 
4820.000000	65.409016 
4819.000000	65.403413 
4818.000000	65.389394 
4817.000000	65.366101 
4816.000000	65.335941 
4815.000000	65.304660 
4814.000000	65.279865 
4813.000000	65.269374 
4812.000000	65.278029 
4811.000000	65.307426 
4810.000000	65.355157 
4809.000000	65.416598 
4808.000000	65.485429 
4807.000000	65.556406 
4806.000000	65.626335 
4805.000000	65.694761 
4804.000000	65.763401 
4803.000000	65.834593 
4802.000000	65.909814 
4801.000000	65.987920 
4800.000000	66.064953 
4799.000000	66.133642 
4798.000000	66.185355 
4797.000000	66.211438 
4796.000000	66.206049 
4795.000000	66.166520 
4794.000000	66.094374 
4793.000000	65.995073 
4792.000000	65.877151 
4791.000000	65.750503 
4790.000000	65.624809 
4789.000000	65.508747 
4788.000000	65.408515 
4787.000000	65.327477 
4786.000000	65.266203 
4785.000000	65.222764 
4784.000000	65.193819 
4783.000000	65.175080 
4782.000000	65.162682 
4781.000000	65.152621 
4780.000000	65.142631 
4779.000000	65.130829 
4778.000000	65.117478 
4777.000000	65.102815 
4776.000000	65.088963 
4775.000000	65.078592 
4774.000000	65.074920 
4773.000000	65.080595 
4772.000000	65.097355 
4771.000000	65.125441 
4770.000000	65.163087 
4769.000000	65.206694 
4768.000000	65.251421 
4767.000000	65.292286 
4766.000000	65.325140 
4765.000000	65.347743 
4764.000000	65.360331 
4763.000000	65.365409 
4762.000000	65.367650 
4761.000000	65.372157 
4760.000000	65.382790 
4759.000000	65.400767 
4758.000000	65.425229 
4757.000000	65.452647 
4756.000000	65.478086 
4755.000000	65.496373 
4754.000000	65.504336 
4753.000000	65.500998 
4752.000000	65.487980 
4751.000000	65.469002 
4750.000000	65.448880 
4749.000000	65.432310 
4748.000000	65.422725 
4747.000000	65.421462 
4746.000000	65.427803 
4745.000000	65.438914 
4744.000000	65.451192 
4743.000000	65.460753 
4742.000000	65.464806 
4741.000000	65.462279 
4740.000000	65.454173 
4739.000000	65.443253 
4738.000000	65.433287 
4737.000000	65.428280 
4736.000000	65.431141 
4735.000000	65.442895 
4734.000000	65.462350 
4733.000000	65.486454 
4732.000000	65.511035 
4731.000000	65.531587 
4730.000000	65.544795 
4729.000000	65.549039 
4728.000000	65.544986 
4727.000000	65.535640 
4726.000000	65.525054 
4725.000000	65.517568 
4724.000000	65.516090 
4723.000000	65.521693 
4722.000000	65.532827 
4721.000000	65.545988 
4720.000000	65.556550 
4719.000000	65.560221 
4718.000000	65.554332 
4717.000000	65.538549 
4716.000000	65.515470 
4715.000000	65.489721 
4714.000000	65.467238 
4713.000000	65.453433 
4712.000000	65.451788 
4711.000000	65.462827 
4710.000000	65.484189 
4709.000000	65.511274 
4708.000000	65.538430 
4707.000000	65.560650 
4706.000000	65.574979 
4705.000000	65.581583 
4704.000000	65.583348 
4703.000000	65.585255 
4702.000000	65.592503 
4701.000000	65.608763 
4700.000000	65.635132 
4699.000000	65.669298 
4698.000000	65.706348 
4697.000000	65.739655 
4696.000000	65.763020 
4695.000000	65.771865 
4694.000000	65.764689 
4693.000000	65.743231 
4692.000000	65.712261 
4691.000000	65.677928 
4690.000000	65.646529 
4689.000000	65.622639 
4688.000000	65.608167 
4687.000000	65.601634 
4686.000000	65.598964 
4685.000000	65.594673 
4684.000000	65.583705 
4683.000000	65.563082 
4682.000000	65.533232 
4681.000000	65.497970 
4680.000000	65.463852 
4679.000000	65.438389 
4678.000000	65.428209 
4677.000000	65.436840 
4676.000000	65.464258 
4675.000000	65.506696 
4674.000000	65.557646 
4673.000000	65.609455 
4672.000000	65.655159 
4671.000000	65.690016 
4670.000000	65.712285 
4669.000000	65.723204 
4668.000000	65.726208 
4667.000000	65.725398 
4666.000000	65.724563 
4665.000000	65.725898 
4664.000000	65.729641 
4663.000000	65.734457 
4662.000000	65.738177 
4661.000000	65.738868 
4660.000000	65.735244 
4659.000000	65.727496 
4658.000000	65.717029 
4657.000000	65.706253 
4656.000000	65.697884 
4655.000000	65.694308 
4654.000000	65.697193 
4653.000000	65.707039 
4652.000000	65.722727 
4651.000000	65.741968 
4650.000000	65.761685 
4649.000000	65.778803 
4648.000000	65.790963 
4647.000000	65.796995 
4646.000000	65.797019 
4645.000000	65.792322 
4644.000000	65.784716 
4643.000000	65.776681 
4642.000000	65.770053 
4641.000000	65.766859 
4640.000000	65.769267 
4639.000000	65.778851 
4638.000000	65.796780 
4637.000000	65.822577 
4636.000000	65.854692 
4635.000000	65.889430 
4634.000000	65.921854 
4633.000000	65.946483 
4632.000000	65.958666 
4631.000000	65.956163 
4630.000000	65.940308 
4629.000000	65.915966 
4628.000000	65.890622 
4627.000000	65.873074 
4626.000000	65.870738 
4625.000000	65.887665 
4624.000000	65.922951 
4623.000000	65.970897 
4622.000000	66.022324 
4621.000000	66.067171 
4620.000000	66.096901 
4619.000000	66.107225 
4618.000000	66.098070 
4617.000000	66.073656 
4616.000000	66.040277 
4615.000000	66.004109 
4614.000000	65.969395 
4613.000000	65.937495 
4612.000000	65.906906 
4611.000000	65.874457 
4610.000000	65.837502 
4609.000000	65.795469 
4608.000000	65.751409 
4607.000000	65.711712 
4606.000000	65.685296 
4605.000000	65.681195 
4604.000000	65.706253 
4603.000000	65.762495 
4602.000000	65.845894 
4601.000000	65.946602 
4600.000000	66.050648 
4599.000000	66.143012 
4598.000000	66.211032 
4597.000000	66.247344 
4596.000000	66.251444 
4595.000000	66.229319 
4594.000000	66.191649 
4593.000000	66.150712 
4592.000000	66.117644 
4591.000000	66.099190 
4590.000000	66.097354 
4589.000000	66.108393 
4588.000000	66.125130 
4587.000000	66.138792 
4586.000000	66.142296 
4585.000000	66.131949 
4584.000000	66.108012 
4583.000000	66.075181 
4582.000000	66.040778 
4581.000000	66.013336 
4580.000000	66.000151 
4579.000000	66.006302 
4578.000000	66.033077 
4577.000000	66.078448 
4576.000000	66.137576 
4575.000000	66.203498 
4574.000000	66.268658 
4573.000000	66.325831 
4572.000000	66.369819 
4571.000000	66.398286 
4570.000000	66.412091 
4569.000000	66.414618 
4568.000000	66.410422 
4567.000000	66.404747 
4566.000000	66.400742 
4565.000000	66.399788 
4564.000000	66.399693 
4563.000000	66.396212 
4562.000000	66.383218 
4561.000000	66.355681 
4560.000000	66.310238 
4559.000000	66.246581 
4558.000000	66.168260 
4557.000000	66.082000 
4556.000000	65.997552 
4555.000000	65.925407 
4554.000000	65.875315 
4553.000000	65.853953 
4552.000000	65.864157 
4551.000000	65.904426 
4550.000000	65.968847 
4549.000000	66.048264 
4548.000000	66.131687 
4547.000000	66.208410 
4546.000000	66.269183 
4545.000000	66.308116 
4544.000000	66.323018 
4543.000000	66.315960 
4542.000000	66.292357 
4541.000000	66.260290 
4540.000000	66.229510 
4539.000000	66.209125 
4538.000000	66.206860 
4537.000000	66.226816 
4536.000000	66.269612 
4535.000000	66.331148 
4534.000000	66.404461 
4533.000000	66.479706 
4532.000000	66.546463 
4531.000000	66.595077 
4530.000000	66.618943 
4529.000000	66.615080 
4528.000000	66.584253 
4527.000000	66.530728 
4526.000000	66.461300 
4525.000000	66.383767 
4524.000000	66.305804 
4523.000000	66.234087 
4522.000000	66.173791 
4521.000000	66.128468 
4520.000000	66.100454 
4519.000000	66.090774 
4518.000000	66.099309 
4517.000000	66.124987 
4516.000000	66.165709 
4515.000000	66.216921 
4514.000000	66.273093 
4513.000000	66.327023 
4512.000000	66.372370 
4511.000000	66.403174 
4510.000000	66.417050 
4509.000000	66.415405 
4508.000000	66.403675 
4507.000000	66.390228 
4506.000000	66.383719 
4505.000000	66.391539 
4504.000000	66.416645 
4503.000000	66.457223 
4502.000000	66.506314 
4501.000000	66.553854 
4500.000000	66.589045 
4499.000000	66.603446 
4498.000000	66.592383 
4497.000000	66.555976 
4496.000000	66.499161 
4495.000000	66.430258 
4494.000000	66.357707 
4493.000000	66.288375 
4492.000000	66.227149 
4491.000000	66.176056 
4490.000000	66.135025 
4489.000000	66.102123 
4488.000000	66.076588 
4487.000000	66.057705 
4486.000000	66.044759 
4485.000000	66.036272 
4484.000000	66.028738 
4483.000000	66.017937 
4482.000000	65.999221 
4481.000000	65.969419 
4480.000000	65.926742 
4479.000000	65.872979 
4478.000000	65.812945 
4477.000000	65.754723 
4476.000000	65.706992 
4475.000000	65.679502 
4474.000000	65.681028 
4473.000000	65.717148 
4472.000000	65.787816 
4471.000000	65.890765 
4470.000000	66.022515 
4469.000000	66.173791 
4468.000000	66.331267 
4467.000000	66.487288 
4466.000000	66.640281 
4465.000000	66.788196 
4464.000000	66.929197 
4463.000000	67.066931 
4462.000000	67.204332 
4461.000000	67.338752 
4460.000000	67.461347 
4459.000000	67.562365 
4458.000000	67.628884 
4457.000000	67.649888 
4456.000000	67.617797 
4455.000000	67.530179 
4454.000000	67.393374 
4453.000000	67.228722 
4452.000000	67.060685 
4451.000000	66.909790 
4450.000000	66.789746 
4449.000000	66.712450 
4448.000000	66.668438 
4447.000000	66.630053 
4446.000000	66.551065 
4445.000000	66.379976 
4444.000000	66.054296 
4443.000000	65.514183 
4442.000000	64.715051 
4441.000000	63.638830 
4440.000000	62.297058 
4439.000000	60.732102 
4438.000000	59.015822 
4437.000000	57.238531 
4436.000000	55.493211 
4435.000000	53.868031 
4434.000000	52.424049 
4433.000000	51.210117 
4432.000000	50.247120 
4431.000000	49.563145 
4430.000000	49.167752 
4429.000000	49.097728 
4428.000000	49.388551 
4427.000000	50.094509 
4426.000000	51.241874 
4425.000000	52.837610 
4424.000000	54.833006 
4423.000000	57.132506 
4422.000000	59.583902 
4421.000000	62.010741 
4420.000000	64.232277 
4419.000000	66.102361 
4418.000000	67.532277 
4417.000000	68.502831 
4416.000000	69.059133 
4415.000000	69.299006 
4414.000000	69.342398 
4413.000000	69.300055 
4412.000000	69.244599 
4411.000000	69.213843 
4410.000000	69.201517 
4409.000000	69.177603 
4408.000000	69.097208 
4407.000000	68.939304 
4406.000000	68.702101 
4405.000000	68.403291 
4404.000000	68.075823 
4403.000000	67.756962 
4402.000000	67.480683 
4401.000000	67.264866 
4400.000000	67.114090 
4399.000000	67.022609 
4398.000000	66.976308 
4397.000000	66.960501 
4396.000000	66.960239 
4395.000000	66.959476 
4394.000000	66.950440 
4393.000000	66.934704 
4392.000000	66.916966 
4391.000000	66.898775 
4390.000000	66.886782 
4389.000000	66.890668 
4388.000000	66.912817 
4387.000000	66.947388 
4386.000000	66.989064 
4385.000000	67.032861 
4384.000000	67.071866 
4383.000000	67.099523 
4382.000000	67.111778 
4381.000000	67.107629 
4380.000000	67.089462 
4379.000000	67.061519 
4378.000000	67.027997 
4377.000000	66.992187 
4376.000000	66.955757 
4375.000000	66.918897 
4374.000000	66.881275 
4373.000000	66.842746 
4372.000000	66.805934 
4371.000000	66.773319 
4370.000000	66.746401 
4369.000000	66.725373 
4368.000000	66.709160 
4367.000000	66.695165 
4366.000000	66.679382 
4365.000000	66.658473 
4364.000000	66.630840 
4363.000000	66.597080 
4362.000000	66.560244 
4361.000000	66.524887 
4360.000000	66.495585 
4359.000000	66.476058 
4358.000000	66.467595 
4357.000000	66.469025 
4356.000000	66.476416 
4355.000000	66.484045 
4354.000000	66.485452 
4353.000000	66.474628 
4352.000000	66.447639 
4351.000000	66.402983 
4350.000000	66.342949 
4349.000000	66.271996 
4348.000000	66.197657 
4347.000000	66.128611 
4346.000000	66.074299 
4345.000000	66.042780 
4344.000000	66.039776 
4343.000000	66.067481 
4342.000000	66.123437 
4341.000000	66.200971 
4340.000000	66.289710 
4339.000000	66.377282 
4338.000000	66.451597 
4337.000000	66.502690 
4336.000000	66.525006 
4335.000000	66.517925 
4334.000000	66.486167 
4333.000000	66.438388 
4332.000000	66.385149 
4331.000000	66.336250 
4330.000000	66.299366 
4329.000000	66.278052 
4328.000000	66.271591 
4327.000000	66.275358 
4326.000000	66.283154 
4325.000000	66.288375 
4324.000000	66.285967 
4323.000000	66.273069 
4322.000000	66.249561 
4321.000000	66.217231 
4320.000000	66.178679 
4319.000000	66.136503 
4318.000000	66.092371 
4317.000000	66.047096 
4316.000000	66.000461 
4315.000000	65.952157 
4314.000000	65.902757 
4313.000000	65.853571 
4312.000000	65.806961 
4311.000000	65.765666 
4310.000000	65.732002 
4309.000000	65.708160 
4308.000000	65.695476 
4307.000000	65.694117 
4306.000000	65.703153 
4305.000000	65.721344 
4304.000000	65.747117 
4303.000000	65.778613 
4302.000000	65.813922 
4301.000000	65.850853 
4300.000000	65.887141 
4299.000000	65.920352 
4298.000000	65.948367 
4297.000000	65.969324 
4296.000000	65.982413 
4295.000000	65.988063 
4294.000000	65.988063 
4293.000000	65.985512 
4292.000000	65.983605 
4291.000000	65.985608 
4290.000000	65.992951 
4289.000000	66.005563 
4288.000000	66.021060 
4287.000000	66.035842 
4286.000000	66.045284 
4285.000000	66.045045 
4284.000000	66.032218 
4283.000000	66.006374 
4282.000000	65.969491 
4281.000000	65.925645 
4280.000000	65.880107 
4279.000000	65.837883 
4278.000000	65.802693 
4277.000000	65.776038 
4276.000000	65.757179 
4275.000000	65.743637 
4274.000000	65.732550 
4273.000000	65.721535 
4272.000000	65.709638 
4271.000000	65.697312 
4270.000000	65.686345 
4269.000000	65.678834 
4268.000000	65.675806 
4267.000000	65.677118 
4266.000000	65.680742 
4265.000000	65.683770 
4264.000000	65.682792 
4263.000000	65.675449 
4262.000000	65.661430 
4261.000000	65.642595 
4260.000000	65.622663 
4259.000000	65.605974 
4258.000000	65.596318 
4257.000000	65.595364 
4256.000000	65.602040 
4255.000000	65.613007 
4254.000000	65.623593 
4253.000000	65.629148 
4252.000000	65.626430 
4251.000000	65.614390 
4250.000000	65.594506 
4249.000000	65.570282 
4248.000000	65.546536 
4247.000000	65.527629 
4246.000000	65.516638 
4245.000000	65.515089 
4244.000000	65.522432 
4243.000000	65.536236 
4242.000000	65.553307 
4241.000000	65.570282 
4240.000000	65.584444 
4239.000000	65.594244 
4238.000000	65.599060 
4237.000000	65.599346 
4236.000000	65.595650 
4235.000000	65.588450 
4234.000000	65.577578 
4233.000000	65.562367 
4232.000000	65.541577 
4231.000000	65.514111 
4230.000000	65.479302 
4229.000000	65.437841 
4228.000000	65.391850 
4227.000000	65.344977 
4226.000000	65.302062 
4225.000000	65.268492 
4224.000000	65.249133 
4223.000000	65.247297 
4222.000000	65.264415 
4221.000000	65.299606 
4220.000000	65.349888 
4219.000000	65.410709 
4218.000000	65.476703 
4217.000000	65.542411 
4216.000000	65.602946 
4215.000000	65.654230 
4214.000000	65.693473 
4213.000000	65.718960 
4212.000000	65.730333 
4211.000000	65.728092 
4210.000000	65.714025 
4209.000000	65.690374 
4208.000000	65.660190 
4207.000000	65.626525 
4206.000000	65.592980 
4205.000000	65.562462 
4204.000000	65.537238 
4203.000000	65.518808 
4202.000000	65.507841 
4201.000000	65.504288 
4200.000000	65.507745 
4199.000000	65.517616 
4198.000000	65.533423 
4197.000000	65.554928 
4196.000000	65.581917 
4195.000000	65.613913 
4194.000000	65.649724 
4193.000000	65.687370 
4192.000000	65.723752 
4191.000000	65.755128 
4190.000000	65.777397 
4189.000000	65.786981 
4188.000000	65.781784 
4187.000000	65.761423 
4186.000000	65.727829 
4185.000000	65.685415 
4184.000000	65.640211 
4183.000000	65.598988 
4182.000000	65.567898 
4181.000000	65.551614 
4180.000000	65.552020 
4179.000000	65.568351 
4178.000000	65.597009 
4177.000000	65.632724 
4176.000000	65.669369 
4175.000000	65.701150 
4174.000000	65.723419 
4173.000000	65.733242 
4172.000000	65.729570 
4171.000000	65.712881 
4170.000000	65.685033 
4169.000000	65.648484 
4168.000000	65.606045 
4167.000000	65.560340 
4166.000000	65.513658 
4165.000000	65.468072 
4164.000000	65.425348 
4163.000000	65.387344 
4162.000000	65.355873 
4161.000000	65.332889 
4160.000000	65.320086 
4159.000000	65.318942 
4158.000000	65.329933 
4157.000000	65.352439 
4156.000000	65.384340 
4155.000000	65.422391 
4154.000000	65.462183 
4153.000000	65.499210 
4152.000000	65.529274 
4151.000000	65.549278 
4150.000000	65.557670 
4149.000000	65.554785 
4148.000000	65.542578 
4147.000000	65.524172 
4146.000000	65.503048 
4145.000000	65.482258 
4144.000000	65.463781 
4143.000000	65.448451 
4142.000000	65.436053 
4141.000000	65.425682 
4140.000000	65.416717 
4139.000000	65.409231 
4138.000000	65.404868 
4137.000000	65.406203 
4136.000000	65.416383 
4135.000000	65.437579 
4134.000000	65.470266 
4133.000000	65.512776 
4132.000000	65.561079 
4131.000000	65.609478 
4130.000000	65.651512 
4129.000000	65.681695 
4128.000000	65.696310 
4127.000000	65.694069 
4126.000000	65.676164 
4125.000000	65.645980 
4124.000000	65.608191 
4123.000000	65.568089 
4122.000000	65.530419 
4121.000000	65.498757 
4120.000000	65.474891 
4119.000000	65.458965 
4118.000000	65.449380 
4117.000000	65.443706 
4116.000000	65.439295 
4115.000000	65.434169 
4114.000000	65.427088 
4113.000000	65.418100 
4112.000000	65.408182 
4111.000000	65.399241 
4110.000000	65.393304 
4109.000000	65.392518 
4108.000000	65.398788 
4107.000000	65.413141 
4106.000000	65.435814 
4105.000000	65.465426 
4104.000000	65.499353 
4103.000000	65.533900 
4102.000000	65.564489 
4101.000000	65.587162 
4100.000000	65.599155 
4099.000000	65.599894 
4098.000000	65.591025 
4097.000000	65.576076 
4096.000000	65.559625 
4095.000000	65.546035 
4094.000000	65.538549 
4093.000000	65.537905 
4092.000000	65.542459 
4091.000000	65.548682 
4090.000000	65.552496 
4089.000000	65.550041 
4088.000000	65.539169 
4087.000000	65.520000 
4086.000000	65.495014 
4085.000000	65.468120 
4084.000000	65.443754 
4083.000000	65.425372 
4082.000000	65.414834 
4081.000000	65.412282 
4080.000000	65.416002 
4079.000000	65.423440 
4078.000000	65.431690 
4077.000000	65.438723 
4076.000000	65.443468 
4075.000000	65.445756 
4074.000000	65.446424 
4073.000000	65.446686 
4072.000000	65.448188 
4071.000000	65.451622 
4070.000000	65.457844 
4069.000000	65.467429 
4068.000000	65.480852 
4067.000000	65.498518 
4066.000000	65.520787 
4065.000000	65.547680 
4064.000000	65.578961 
4063.000000	65.613722 
4062.000000	65.650510 
4061.000000	65.687131 
4060.000000	65.721392 
4059.000000	65.751028 
4058.000000	65.774226 
4057.000000	65.789246 
4056.000000	65.794992 
4055.000000	65.790748 
4054.000000	65.776634 
4053.000000	65.753030 
4052.000000	65.721201 
4051.000000	65.682888 
4050.000000	65.640640 
4049.000000	65.597200 
4048.000000	65.555810 
4047.000000	65.519142 
4046.000000	65.489339 
4045.000000	65.467309 
4044.000000	65.452742 
4043.000000	65.444540 
4042.000000	65.441179 
4041.000000	65.441131 
4040.000000	65.443277 
4039.000000	65.447640 
4038.000000	65.455079 
4037.000000	65.467071 
4036.000000	65.484786 
4035.000000	65.508866 
4034.000000	65.538692 
4033.000000	65.572166 
4032.000000	65.605616 
4031.000000	65.634417 
4030.000000	65.653681 
4029.000000	65.659427 
4028.000000	65.649151 
4027.000000	65.622639 
4026.000000	65.582180 
4025.000000	65.532422 
4024.000000	65.479612 
4023.000000	65.430855 
4022.000000	65.392827 
4021.000000	65.370607 
4020.000000	65.366721 
4019.000000	65.380954 
4018.000000	65.410017 
4017.000000	65.448379 
4016.000000	65.489101 
4015.000000	65.525436 
4014.000000	65.551853 
4013.000000	65.565133 
4012.000000	65.564513 
4011.000000	65.551805 
4010.000000	65.530729 
4009.000000	65.505886 
4008.000000	65.481925 
4007.000000	65.462732 
4006.000000	65.451073 
4005.000000	65.448498 
4004.000000	65.455603 
4003.000000	65.472126 
4002.000000	65.497541 
4001.000000	65.530514 
4000.000000	65.569305 
3999.000000	65.610933 
3998.000000	65.651702 
3997.000000	65.686893 
3996.000000	65.711402 
3995.000000	65.720582 
3994.000000	65.711402 
3993.000000	65.682959 
3992.000000	65.637111 
3991.000000	65.578269 
3990.000000	65.513014 
3989.000000	65.448713 
3988.000000	65.392327 
3987.000000	65.349221 
3986.000000	65.322351 
3985.000000	65.312147 
3984.000000	65.316867 
3983.000000	65.333151 
3982.000000	65.356826 
3981.000000	65.383911 
3980.000000	65.411067 
3979.000000	65.435528 
3978.000000	65.455698 
3977.000000	65.470314 
3976.000000	65.479135 
3975.000000	65.482354 
3974.000000	65.481162 
3973.000000	65.477466 
3972.000000	65.473771 
3971.000000	65.473294 
3970.000000	65.478658 
3969.000000	65.491986 
3968.000000	65.513396 
3967.000000	65.541291 
3966.000000	65.572261 
3965.000000	65.601897 
3964.000000	65.625643 
3963.000000	65.639877 
3962.000000	65.643024 
3961.000000	65.635943 
3960.000000	65.621876 
3959.000000	65.605545 
3958.000000	65.592217 
3957.000000	65.586161 
3956.000000	65.589928 
3955.000000	65.603828 
3954.000000	65.625643 
3953.000000	65.651321 
3952.000000	65.676140 
3951.000000	65.696001 
3950.000000	65.708041 
3949.000000	65.711450 
3948.000000	65.707159 
3947.000000	65.697550 
3946.000000	65.685462 
3945.000000	65.673446 
3944.000000	65.663409 
3943.000000	65.655565 
3942.000000	65.649199 
3941.000000	65.642285 
3940.000000	65.632939 
3939.000000	65.619063 
3938.000000	65.599322 
3937.000000	65.572929 
3936.000000	65.539884 
3935.000000	65.500712 
3934.000000	65.456390 
3933.000000	65.408396 
3932.000000	65.358543 
3931.000000	65.309667 
3930.000000	65.265631 
3929.000000	65.230822 
3928.000000	65.209555 
3927.000000	65.205454 
3926.000000	65.220570 
3925.000000	65.254330 
3924.000000	65.303659 
3923.000000	65.363502 
3922.000000	65.427589 
3921.000000	65.489435 
3920.000000	65.543889 
3919.000000	65.587592 
3918.000000	65.619874 
3917.000000	65.641903 
3916.000000	65.656471 
3915.000000	65.666651 
3914.000000	65.675115 
3913.000000	65.683817 
3912.000000	65.693354 
3911.000000	65.703558 
3910.000000	65.713381 
3909.000000	65.722060 
3908.000000	65.728688 
3907.000000	65.732932 
3906.000000	65.734553 
3905.000000	65.733575 
3904.000000	65.729689 
3903.000000	65.722298 
3902.000000	65.710902 
3901.000000	65.695166 
3900.000000	65.675210 
3899.000000	65.651655 
3898.000000	65.625882 
3897.000000	65.599799 
3896.000000	65.575671 
3895.000000	65.555763 
3894.000000	65.541505 
3893.000000	65.533852 
3892.000000	65.533065 
3891.000000	65.538692 
3890.000000	65.549564 
3889.000000	65.564274 
3888.000000	65.581345 
3887.000000	65.599560 
3886.000000	65.617275 
3885.000000	65.633177 
3884.000000	65.645980 
3883.000000	65.654945 
3882.000000	65.659570 
3881.000000	65.660214 
3880.000000	65.658164 
3879.000000	65.655326 
3878.000000	65.654110 
3877.000000	65.656495 
3876.000000	65.663766 
3875.000000	65.675663 
3874.000000	65.690732 
3873.000000	65.706300 
3872.000000	65.719485 
3871.000000	65.727591 
3870.000000	65.729188 
3869.000000	65.724253 
3868.000000	65.714240 
3867.000000	65.701699 
3866.000000	65.689706 
3865.000000	65.680813 
3864.000000	65.676665 
3863.000000	65.677618 
3862.000000	65.682458 
3861.000000	65.688967 
3860.000000	65.694379 
3859.000000	65.696048 
3858.000000	65.692353 
3857.000000	65.682983 
3856.000000	65.669059 
3855.000000	65.652751 
3854.000000	65.636968 
3853.000000	65.624475 
3852.000000	65.617251 
3851.000000	65.616178 
3850.000000	65.620398 
3849.000000	65.627694 
3848.000000	65.634918 
3847.000000	65.638995 
3846.000000	65.637421 
3845.000000	65.629029 
3844.000000	65.614295 
3843.000000	65.595054 
3842.000000	65.574240 
3841.000000	65.554833 
3840.000000	65.539240 
3839.000000	65.528726 
3838.000000	65.523266 
3837.000000	65.521717 
3836.000000	65.522193 
3835.000000	65.522789 
3834.000000	65.522217 
3833.000000	65.520119 
3832.000000	65.517115 
3831.000000	65.514922 
3830.000000	65.515470 
3829.000000	65.521216 
3828.000000	65.533924 
3827.000000	65.555047 
3826.000000	65.585279 
3825.000000	65.624570 
3824.000000	65.672135 
3823.000000	65.726089 
3822.000000	65.783548 
3821.000000	65.840816 
3820.000000	65.893769 
3819.000000	65.938282 
3818.000000	65.970921 
3817.000000	65.989732 
3816.000000	65.994358 
3815.000000	65.986609 
3814.000000	65.969371 
3813.000000	65.946793 
3812.000000	65.922212 
3811.000000	65.898156 
3810.000000	65.875267 
3809.000000	65.852999 
3808.000000	65.829801 
3807.000000	65.803980 
3806.000000	65.774846 
3805.000000	65.743064 
3804.000000	65.711092 
3803.000000	65.682601 
3802.000000	65.661811 
3801.000000	65.652036 
3800.000000	65.655326 
3799.000000	65.671873 
3798.000000	65.700030 
3797.000000	65.736532 
3796.000000	65.777325 
3795.000000	65.818405 
3794.000000	65.855932 
3793.000000	65.886497 
3792.000000	65.907382 
3791.000000	65.916466 
3790.000000	65.912055 
3789.000000	65.893483 
3788.000000	65.861630 
3787.000000	65.819215 
3786.000000	65.770983 
3785.000000	65.723061 
3784.000000	65.682363 
3783.000000	65.654683 
3782.000000	65.644264 
3781.000000	65.651774 
3780.000000	65.674591 
3779.000000	65.706801 
3778.000000	65.741038 
3777.000000	65.769338 
3776.000000	65.785241 
3775.000000	65.784859 
3774.000000	65.767741 
3773.000000	65.736508 
3772.000000	65.695905 
3771.000000	65.651607 
3770.000000	65.608835 
3769.000000	65.571427 
3768.000000	65.541338 
3767.000000	65.518689 
3766.000000	65.502429 
3765.000000	65.491151 
3764.000000	65.483760 
3763.000000	65.479564 
3762.000000	65.478444 
3761.000000	65.480542 
3760.000000	65.486168 
3759.000000	65.494894 
3758.000000	65.506005 
3757.000000	65.518188 
3756.000000	65.530371 
3755.000000	65.541791 
3754.000000	65.552520 
3753.000000	65.563130 
3752.000000	65.574669 
3751.000000	65.588283 
3750.000000	65.604567 
3749.000000	65.623068 
3748.000000	65.642452 
3747.000000	65.660452 
3746.000000	65.674471 
3745.000000	65.682506 
3744.000000	65.683245 
3743.000000	65.676665 
3742.000000	65.663743 
3741.000000	65.646243 
3740.000000	65.626120 
3739.000000	65.605354 
3738.000000	65.585255 
3737.000000	65.566635 
3736.000000	65.549921 
3735.000000	65.535593 
3734.000000	65.524268 
3733.000000	65.516686 
3732.000000	65.513634 
3731.000000	65.515780 
3730.000000	65.523338 
3729.000000	65.535736 
3728.000000	65.551447 
3727.000000	65.568351 
3726.000000	65.584111 
3725.000000	65.596485 
3724.000000	65.603756 
3723.000000	65.605187 
3722.000000	65.601038 
3721.000000	65.592265 
3720.000000	65.580463 
3719.000000	65.567326 
3718.000000	65.554618 
3717.000000	65.543580 
3716.000000	65.535044 
3715.000000	65.529346 
3714.000000	65.526580 
3713.000000	65.526509 
3712.000000	65.528750 
3711.000000	65.532851 
3710.000000	65.538406 
3709.000000	65.545034 
3708.000000	65.552496 
3707.000000	65.560173 
3706.000000	65.567231 
3705.000000	65.572738 
3704.000000	65.575647 
3703.000000	65.574717 
3702.000000	65.569043 
3701.000000	65.558290 
3700.000000	65.542936 
3699.000000	65.524458 
3698.000000	65.505099 
3697.000000	65.487861 
3696.000000	65.475463 
3695.000000	65.470099 
3694.000000	65.472316 
3693.000000	65.481019 
3692.000000	65.493226 
3691.000000	65.505003 
3690.000000	65.511989 
3689.000000	65.510630 
3688.000000	65.498971 
3687.000000	65.477395 
3686.000000	65.448617 
3685.000000	65.417337 
3684.000000	65.389347 
3683.000000	65.370345 
3682.000000	65.364599 
3681.000000	65.373969 
3680.000000	65.397572 
3679.000000	65.432071 
3678.000000	65.472126 
3677.000000	65.511918 
3676.000000	65.546274 
3675.000000	65.571928 
3674.000000	65.587854 
3673.000000	65.595269 
3672.000000	65.596771 
3671.000000	65.595555 
3670.000000	65.594220 
3669.000000	65.594172 
3668.000000	65.595221 
3667.000000	65.596032 
3666.000000	65.595006 
3665.000000	65.590834 
3664.000000	65.583276 
3663.000000	65.573263 
3662.000000	65.562987 
3661.000000	65.554738 
3660.000000	65.549969 
3659.000000	65.548801 
3658.000000	65.549659 
3657.000000	65.549683 
3656.000000	65.545535 
3655.000000	65.534567 
3654.000000	65.515542 
3653.000000	65.489292 
3652.000000	65.458488 
3651.000000	65.427303 
3650.000000	65.400242 
3649.000000	65.381073 
3648.000000	65.372037 
3647.000000	65.373373 
3646.000000	65.383529 
3645.000000	65.399742 
3644.000000	65.418791 
3643.000000	65.437722 
3642.000000	65.454649 
3641.000000	65.468835 
3640.000000	65.480804 
3639.000000	65.491509 
3638.000000	65.502429 
3637.000000	65.514922 
3636.000000	65.529704 
3635.000000	65.546774 
3634.000000	65.565419 
3633.000000	65.584540 
3632.000000	65.602684 
3631.000000	65.618324 
3630.000000	65.630292 
3629.000000	65.638017 
3628.000000	65.641522 
3627.000000	65.641498 
3626.000000	65.639019 
3625.000000	65.635299 
3624.000000	65.631556 
3623.000000	65.629053 
3622.000000	65.628719 
3621.000000	65.631294 
3620.000000	65.637493 
3619.000000	65.647554 
3618.000000	65.661525 
3617.000000	65.678596 
3616.000000	65.697717 
3615.000000	65.716791 
3614.000000	65.733385 
3613.000000	65.744400 
3612.000000	65.746784 
3611.000000	65.737843 
3610.000000	65.716195 
3609.000000	65.681719 
3608.000000	65.635919 
3607.000000	65.581870 
3606.000000	65.524077 
3605.000000	65.467715 
3604.000000	65.417861 
3603.000000	65.378999 
3602.000000	65.354394 
3601.000000	65.345644 
3600.000000	65.352368 
3599.000000	65.372371 
3598.000000	65.402102 
3597.000000	65.436935 
3596.000000	65.472388 
3595.000000	65.504527 
3594.000000	65.530920 
3593.000000	65.550398 
3592.000000	65.563583 
3591.000000	65.572166 
3590.000000	65.578413 
3589.000000	65.584564 
3588.000000	65.591597 
3587.000000	65.599799 
3586.000000	65.607571 
3585.000000	65.612626 
3584.000000	65.611886 
3583.000000	65.602612 
3582.000000	65.582919 
3581.000000	65.552473 
3580.000000	65.512657 
3579.000000	65.466499 
3578.000000	65.418386 
3577.000000	65.373516 
3576.000000	65.337133 
3575.000000	65.313816 
3574.000000	65.306854 
3573.000000	65.317487 
3572.000000	65.344572 
3571.000000	65.384674 
3570.000000	65.432333 
3569.000000	65.481209 
3568.000000	65.524911 
3567.000000	65.558218 
3566.000000	65.577602 
3565.000000	65.581989 
3564.000000	65.572810 
3563.000000	65.553402 
3562.000000	65.527939 
3561.000000	65.500831 
3560.000000	65.475654 
3559.000000	65.454673 
3558.000000	65.438890 
3557.000000	65.428304 
3556.000000	65.422296 
3555.000000	65.420198 
3554.000000	65.421819 
3553.000000	65.427136 
3552.000000	65.436124 
3551.000000	65.448403 
3550.000000	65.463018 
3549.000000	65.478324 
3548.000000	65.492033 
3547.000000	65.501976 
3546.000000	65.506148 
3545.000000	65.503239 
3544.000000	65.492534 
3543.000000	65.474486 
3542.000000	65.450096 
3541.000000	65.420627 
3540.000000	65.387487 
3539.000000	65.351867 
3538.000000	65.315103 
3537.000000	65.278625 
3536.000000	65.244293 
3535.000000	65.214109 
3534.000000	65.190482 
3533.000000	65.175509 
3532.000000	65.171098 
3531.000000	65.178203 
3530.000000	65.197086 
3529.000000	65.226793 
3528.000000	65.265417 
3527.000000	65.310168 
3526.000000	65.357422 
3525.000000	65.403318 
3524.000000	65.443658 
3523.000000	65.474677 
3522.000000	65.493583 
3521.000000	65.499234 
3520.000000	65.492248 
3519.000000	65.475177 
3518.000000	65.452194 
3517.000000	65.428209 
3516.000000	65.408062 
3515.000000	65.395212 
3514.000000	65.391016 
3513.000000	65.394520 
3512.000000	65.402984 
3511.000000	65.412998 
3510.000000	65.421509 
3509.000000	65.427303 
3508.000000	65.431308 
3507.000000	65.436339 
3506.000000	65.445923 
3505.000000	65.462851 
3504.000000	65.488052 
3503.000000	65.519642 
3502.000000	65.553236 
3501.000000	65.582680 
3500.000000	65.601682 
3499.000000	65.605688 
3498.000000	65.593171 
3497.000000	65.565919 
3496.000000	65.528655 
3495.000000	65.487933 
3494.000000	65.450453 
3493.000000	65.421175 
3492.000000	65.402364 
3491.000000	65.393805 
3490.000000	65.393114 
3489.000000	65.396952 
3488.000000	65.402507 
3487.000000	65.408062 
3486.000000	65.413880 
3485.000000	65.421342 
3484.000000	65.432929 
3483.000000	65.450477 
3482.000000	65.474963 
3481.000000	65.505623 
3480.000000	65.539908 
3479.000000	65.573930 
3478.000000	65.603232 
3477.000000	65.623855 
3476.000000	65.632677 
3475.000000	65.628433 
3474.000000	65.611433 
3473.000000	65.583586 
3472.000000	65.547847 
3471.000000	65.507602 
3470.000000	65.466117 
3469.000000	65.426230 
3468.000000	65.390300 
3467.000000	65.360093 
3466.000000	65.336751 
3465.000000	65.320944 
3464.000000	65.312576 
3463.000000	65.311050 
3462.000000	65.315365 
3461.000000	65.324378 
3460.000000	65.336513 
3459.000000	65.350437 
3458.000000	65.364694 
3457.000000	65.378332 
3456.000000	65.390610 
3455.000000	65.401124 
3454.000000	65.409398 
3453.000000	65.415215 
3452.000000	65.418624 
3451.000000	65.419912 
3450.000000	65.419673 
3449.000000	65.418744 
3448.000000	65.418171 
3447.000000	65.418720 
3446.000000	65.420722 
3445.000000	65.423417 
3444.000000	65.425133 
3443.000000	65.423417 
3442.000000	65.416026 
3441.000000	65.401625 
3440.000000	65.380978 
3439.000000	65.357112 
3438.000000	65.335249 
3437.000000	65.321540 
3436.000000	65.321707 
3435.000000	65.339565 
3434.000000	65.375661 
3433.000000	65.426802 
3432.000000	65.485954 
3431.000000	65.544247 
3430.000000	65.592098 
3429.000000	65.621399 
3428.000000	65.627050 
3427.000000	65.607953 
3426.000000	65.567183 
3425.000000	65.511035 
3424.000000	65.447926 
3423.000000	65.386533 
3422.000000	65.334606 
3421.000000	65.297889 
3420.000000	65.279340 
3419.000000	65.279102 
3418.000000	65.294551 
3417.000000	65.321087 
3416.000000	65.352749 
3415.000000	65.383386 
3414.000000	65.407729 
3413.000000	65.422320 
3412.000000	65.425920 
3411.000000	65.419769 
3410.000000	65.406990 
3409.000000	65.391993 
3408.000000	65.379357 
3407.000000	65.372896 
3406.000000	65.374898 
3405.000000	65.385627 
3404.000000	65.403866 
3403.000000	65.426635 
3402.000000	65.450716 
3401.000000	65.472769 
3400.000000	65.490126 
3399.000000	65.501189 
3398.000000	65.505528 
3397.000000	65.503573 
3396.000000	65.496230 
3395.000000	65.484595 
3394.000000	65.469551 
3393.000000	65.451955 
3392.000000	65.432691 
3391.000000	65.412306 
3390.000000	65.391302 
3389.000000	65.370225 
3388.000000	65.349793 
3387.000000	65.330958 
3386.000000	65.314912 
3385.000000	65.302824 
3384.000000	65.295624 
3383.000000	65.294051 
3382.000000	65.298461 
3381.000000	65.308451 
3380.000000	65.323042 
3379.000000	65.340733 
3378.000000	65.359807 
3377.000000	65.378260 
3376.000000	65.394306 
3375.000000	65.406799 
3374.000000	65.415167 
3373.000000	65.419363 
3372.000000	65.420031 
3371.000000	65.418434 
3370.000000	65.416121 
3369.000000	65.414690 
3368.000000	65.415406 
3367.000000	65.419197 
3366.000000	65.426373 
3365.000000	65.436697 
3364.000000	65.448999 
3363.000000	65.461444 
3362.000000	65.471792 
3361.000000	65.478086 
3360.000000	65.478825 
3359.000000	65.473413 
3358.000000	65.462541 
3357.000000	65.447950 
3356.000000	65.432143 
3355.000000	65.417647 
3354.000000	65.406560 
3353.000000	65.399813 
3352.000000	65.397191 
3351.000000	65.396904 
3350.000000	65.396547 
3349.000000	65.393185 
3348.000000	65.384387 
3347.000000	65.368771 
3346.000000	65.346169 
3345.000000	65.318131 
3344.000000	65.287518 
3343.000000	65.258216 
3342.000000	65.234041 
3341.000000	65.218591 
3340.000000	65.214204 
3339.000000	65.221905 
3338.000000	65.241169 
3337.000000	65.270066 
3336.000000	65.305757 
3335.000000	65.344738 
3334.000000	65.383434 
3333.000000	65.418434 
3332.000000	65.446782 
3331.000000	65.466189 
3330.000000	65.475273 
3329.000000	65.473628 
3328.000000	65.461802 
3327.000000	65.441370 
3326.000000	65.414810 
3325.000000	65.385174 
3324.000000	65.355706 
3323.000000	65.329742 
3322.000000	65.309810 
3321.000000	65.297389 
3320.000000	65.292620 
3319.000000	65.294456 
3318.000000	65.300965 
3317.000000	65.309858 
3316.000000	65.318751 
3315.000000	65.325736 
3314.000000	65.329432 
3313.000000	65.329051 
3312.000000	65.324521 
3311.000000	65.316152 
3310.000000	65.305042 
3309.000000	65.292525 
3308.000000	65.280556 
3307.000000	65.271210 
3306.000000	65.266323 
3305.000000	65.267109 
3304.000000	65.273714 
3303.000000	65.285348 
3302.000000	65.300226 
3301.000000	65.316295 
3300.000000	65.331220 
3299.000000	65.343403 
3298.000000	65.352153 
3297.000000	65.357613 
3296.000000	65.361046 
3295.000000	65.363621 
3294.000000	65.366220 
3293.000000	65.368819 
3292.000000	65.370607 
3291.000000	65.369820 
3290.000000	65.364313 
3289.000000	65.352201 
3288.000000	65.332770 
3287.000000	65.306520 
3286.000000	65.275216 
3285.000000	65.241742 
3284.000000	65.209317 
3283.000000	65.181183 
3282.000000	65.159749 
3281.000000	65.146493 
3280.000000	65.141654 
3279.000000	65.144228 
3278.000000	65.152382 
3277.000000	65.163826 
3276.000000	65.176296 
3275.000000	65.187883 
3274.000000	65.197324 
3273.000000	65.204095 
3272.000000	65.208363 
3271.000000	65.210747 
3270.000000	65.212297 
3269.000000	65.213847 
3268.000000	65.216064 
3267.000000	65.219426 
3266.000000	65.224003 
3265.000000	65.229797 
3264.000000	65.236544 
3263.000000	65.243983 
3262.000000	65.251755 
3261.000000	65.259599 
3260.000000	65.266942 
3259.000000	65.273237 
3258.000000	65.277647 
3257.000000	65.279412 
3256.000000	65.277719 
3255.000000	65.271997 
3254.000000	65.262293 
3253.000000	65.249466 
3252.000000	65.234947 
3251.000000	65.220594 
3250.000000	65.208363 
3249.000000	65.199804 
3248.000000	65.195226 
3247.000000	65.193819 
3246.000000	65.193271 
3245.000000	65.190839 
3244.000000	65.184068 
3243.000000	65.171742 
3242.000000	65.154290 
3241.000000	65.133881 
3240.000000	65.114259 
3239.000000	65.099334 
3238.000000	65.092539 
3237.000000	65.095496 
3236.000000	65.107655 
3235.000000	65.126109 
3234.000000	65.146493 
3233.000000	65.163898 
3232.000000	65.174269 
3231.000000	65.175485 
3230.000000	65.167737 
3229.000000	65.153717 
3228.000000	65.137529 
3227.000000	65.123844 
3226.000000	65.116477 
3225.000000	65.117645 
3224.000000	65.126991 
3223.000000	65.142130 
3222.000000	65.158963 
3221.000000	65.172505 
3220.000000	65.178322 
3219.000000	65.173196 
3218.000000	65.156412 
3217.000000	65.129733 
3216.000000	65.097188 
3215.000000	65.064287 
3214.000000	65.036559 
3213.000000	65.018534 
3212.000000	65.012717 
3211.000000	65.019011 
3210.000000	65.034866 
3209.000000	65.056014 
3208.000000	65.077710 
3207.000000	65.095615 
3206.000000	65.107131 
3205.000000	65.111446 
3204.000000	65.109825 
3203.000000	65.104818 
3202.000000	65.099763 
3201.000000	65.097808 
3200.000000	65.101194 
3199.000000	65.110707 
3198.000000	65.126013 
3197.000000	65.145564 
3196.000000	65.167450 
3195.000000	65.189409 
3194.000000	65.209317 
3193.000000	65.225267 
3192.000000	65.235614 
3191.000000	65.239095 
3190.000000	65.234827 
3189.000000	65.222692 
3188.000000	65.203261 
3187.000000	65.178036 
3186.000000	65.149354 
3185.000000	65.120339 
3184.000000	65.094399 
3183.000000	65.075016 
3182.000000	65.064835 
3181.000000	65.065336 
3180.000000	65.076518 
3179.000000	65.096688 
3178.000000	65.122866 
3177.000000	65.151309 
3176.000000	65.177965 
3175.000000	65.199542 
3174.000000	65.214228 
3173.000000	65.221762 
3172.000000	65.223312 
3171.000000	65.221214 
3170.000000	65.218114 
3169.000000	65.216279 
3168.000000	65.217185 
3167.000000	65.221071 
3166.000000	65.227055 
3165.000000	65.233612 
3164.000000	65.239191 
3163.000000	65.242743 
3162.000000	65.243959 
3161.000000	65.243411 
3160.000000	65.242195 
3159.000000	65.241408 
3158.000000	65.241742 
3157.000000	65.243053 
3156.000000	65.244269 
3155.000000	65.243482 
3154.000000	65.238690 
3153.000000	65.228486 
3152.000000	65.212345 
3151.000000	65.191030 
3150.000000	65.166449 
3149.000000	65.141272 
3148.000000	65.118336 
3147.000000	65.099978 
3146.000000	65.087580 
3145.000000	65.081238 
3144.000000	65.080142 
3143.000000	65.082955 
3142.000000	65.088152 
3141.000000	65.094470 
3140.000000	65.101361 
3139.000000	65.108823 
3138.000000	65.117168 
3137.000000	65.126490 
3136.000000	65.136265 
3135.000000	65.145611 
3134.000000	65.152907 
3133.000000	65.156769 
3132.000000	65.156364 
3131.000000	65.151929 
3130.000000	65.144848 
3129.000000	65.137720 
3128.000000	65.133547 
3127.000000	65.135073 
3126.000000	65.143918 
3125.000000	65.160250 
3124.000000	65.182495 
3123.000000	65.207767 
3122.000000	65.232586 
3121.000000	65.253758 
3120.000000	65.269088 
3119.000000	65.277743 
3118.000000	65.280246 
3117.000000	65.277552 
3116.000000	65.270638 
3115.000000	65.259981 
3114.000000	65.245628 
3113.000000	65.227246 
3112.000000	65.204524 
3111.000000	65.178084 
3110.000000	65.149378 
3109.000000	65.120840 
3108.000000	65.095162 
3107.000000	65.074825 
3106.000000	65.061330 
3105.000000	65.054798 
3104.000000	65.054106 
3103.000000	65.056824 
3102.000000	65.060067 
3101.000000	65.061140 
3100.000000	65.058112 
3099.000000	65.050125 
3098.000000	65.037822 
3097.000000	65.022563 
3096.000000	65.006732 
3095.000000	64.992761 
3094.000000	64.983057 
3093.000000	64.979481 
3092.000000	64.983177 
3091.000000	64.994454 
3090.000000	65.012669 
3089.000000	65.036249 
3088.000000	65.062642 
3087.000000	65.088748 
3086.000000	65.111303 
3085.000000	65.127658 
3084.000000	65.136027 
3083.000000	65.135812 
3082.000000	65.127658 
3081.000000	65.113186 
3080.000000	65.094828 
3079.000000	65.075087 
3078.000000	65.056133 
3077.000000	65.039587 
3076.000000	65.026354 
3075.000000	65.017008 
3074.000000	65.011668 
3073.000000	65.010523 
3072.000000	65.013933 
3071.000000	65.022492 
3070.000000	65.036916 
3069.000000	65.057444 
3068.000000	65.083742 
3067.000000	65.114331 
3066.000000	65.146541 
3065.000000	65.176868 
3064.000000	65.201568 
3063.000000	65.216994 
3062.000000	65.220594 
3061.000000	65.211367 
3060.000000	65.190052 
3059.000000	65.159296 
3058.000000	65.122985 
3057.000000	65.085625 
3056.000000	65.051436 
3055.000000	65.023875 
3054.000000	65.005111 
3053.000000	64.995670 
3052.000000	64.994573 
3051.000000	64.999747 
3050.000000	65.008521 
3049.000000	65.018129 
3048.000000	65.026307 
3047.000000	65.031361 
3046.000000	65.032649 
3045.000000	65.030288 
3044.000000	65.025544 
3043.000000	65.020322 
3042.000000	65.017104 
3041.000000	65.018129 
3040.000000	65.025353 
3039.000000	65.039873 
3038.000000	65.061640 
3037.000000	65.089249 
3036.000000	65.120267 
3035.000000	65.151524 
3034.000000	65.179491 
3033.000000	65.200734 
3032.000000	65.212488 
3031.000000	65.212988 
3030.000000	65.201425 
3029.000000	65.178585 
3028.000000	65.146183 
3027.000000	65.107250 
3026.000000	65.065670 
3025.000000	65.025711 
3024.000000	64.991569 
3023.000000	64.966368 
3022.000000	64.952278 
3021.000000	64.949536 
3020.000000	64.956474 
3019.000000	64.969778 
3018.000000	64.984917 
3017.000000	64.997410 
3016.000000	65.003609 
3015.000000	65.001726 
3014.000000	64.991807 
3013.000000	64.976000 
3012.000000	64.957499 
3011.000000	64.940047 
3010.000000	64.926671 
3009.000000	64.919304 
3008.000000	64.918375 
3007.000000	64.923024 
3006.000000	64.931440 
3005.000000	64.941596 
3004.000000	64.952039 
3003.000000	64.961743 
3002.000000	64.970541 
3001.000000	64.978837 
3000.000000	64.987349 
2999.000000	64.996409 
2998.000000	65.005612 
2997.000000	65.014362 
2996.000000	65.021371 
2995.000000	65.025281 
2994.000000	65.024828 
2993.000000	65.019106 
2992.000000	65.007948 
2991.000000	64.991927 
2990.000000	64.972257 
2989.000000	64.950704 
2988.000000	64.929246 
2987.000000	64.909815 
2986.000000	64.893960 
2985.000000	64.882445 
2984.000000	64.875197 
2983.000000	64.871335 
2982.000000	64.869379 
2981.000000	64.867401 
2980.000000	64.863753 
2979.000000	64.857149 
2978.000000	64.846706 
2977.000000	64.832067 
2976.000000	64.813518 
2975.000000	64.791226 
2974.000000	64.765191 
2973.000000	64.734745 
2972.000000	64.699149 
2971.000000	64.657378 
2970.000000	64.608788 
2969.000000	64.553546 
2968.000000	64.492988 
2967.000000	64.429831 
2966.000000	64.367651 
2965.000000	64.310884 
2964.000000	64.263629 
2963.000000	64.229464 
2962.000000	64.210486 
2961.000000	64.207291 
2960.000000	64.218592 
2959.000000	64.241623 
2958.000000	64.272499 
2957.000000	64.306807 
2956.000000	64.340448 
2955.000000	64.370059 
2954.000000	64.393424 
2953.000000	64.409875 
2952.000000	64.420247 
2951.000000	64.426231 
2950.000000	64.430165 
2949.000000	64.434695 
2948.000000	64.441967 
2947.000000	64.453291 
2946.000000	64.468693 
2945.000000	64.487504 
2944.000000	64.508295 
2943.000000	64.529299 
2942.000000	64.548540 
2941.000000	64.564800 
2940.000000	64.577269 
2939.000000	64.585590 
2938.000000	64.589881 
2937.000000	64.590620 
2936.000000	64.588403 
2935.000000	64.583587 
2934.000000	64.576625 
2933.000000	64.568066 
2932.000000	64.558458 
2931.000000	64.548325 
2930.000000	64.538335 
2929.000000	64.529371 
2928.000000	64.522576 
2927.000000	64.519309 
2926.000000	64.520764 
2925.000000	64.527821 
2924.000000	64.541125 
2923.000000	64.560770 
2922.000000	64.586019 
2921.000000	64.615416 
2920.000000	64.646935 
2919.000000	64.678239 
2918.000000	64.706897 
2917.000000	64.730763 
2916.000000	64.748406 
2915.000000	64.759016 
2914.000000	64.762735 
2913.000000	64.760375 
2912.000000	64.753389 
2911.000000	64.743518 
2910.000000	64.732551 
2909.000000	64.721941 
2908.000000	64.712977 
2907.000000	64.706468 
2906.000000	64.702582 
2905.000000	64.700984 
2904.000000	64.701008 
2903.000000	64.701509 
2902.000000	64.701414 
2901.000000	64.699840 
2900.000000	64.696669 
2899.000000	64.692306 
2898.000000	64.687848 
2897.000000	64.684748 
2896.000000	64.684510 
2895.000000	64.688158 
2894.000000	64.696049 
2893.000000	64.707660 
2892.000000	64.721679 
2891.000000	64.736247 
2890.000000	64.749288 
2889.000000	64.758968 
2888.000000	64.764046 
2887.000000	64.764142 
2886.000000	64.759612 
2885.000000	64.751362 
2884.000000	64.740562 
2883.000000	64.728450 
2882.000000	64.715790 
2881.000000	64.702844 
2880.000000	64.689350 
2879.000000	64.674735 
2878.000000	64.658331 
2877.000000	64.639759 
2876.000000	64.619064 
2875.000000	64.597177 
2874.000000	64.575552 
2873.000000	64.556217 
2872.000000	64.541220 
2871.000000	64.532685 
2870.000000	64.532089 
2869.000000	64.540219 
2868.000000	64.556860 
2867.000000	64.581155 
2866.000000	64.611434 
2865.000000	64.646053 
2864.000000	64.683103 
2863.000000	64.721012 
2862.000000	64.758706 
2861.000000	64.795446 
2860.000000	64.830636 
2859.000000	64.863657 
2858.000000	64.893794 
2857.000000	64.919781 
2856.000000	64.940404 
2855.000000	64.954090 
2854.000000	64.959716 
2853.000000	64.956927 
2852.000000	64.946532 
2851.000000	64.930701 
2850.000000	64.912772 
2849.000000	64.896893 
2848.000000	64.887237 
2847.000000	64.887189 
2846.000000	64.898419 
2845.000000	64.920616 
2844.000000	64.951372 
2843.000000	64.986634 
2842.000000	65.021276 
2841.000000	65.050339 
2840.000000	65.069770 
2839.000000	65.077090 
2838.000000	65.071582 
2837.000000	65.054440 
2836.000000	65.028190 
2835.000000	64.996194 
2834.000000	64.962029 
2833.000000	64.928865 
2832.000000	64.899086 
2831.000000	64.874815 
2830.000000	64.856958 
2829.000000	64.845919 
2828.000000	64.841151 
2827.000000	64.841699 
2826.000000	64.845871 
2825.000000	64.851474 
2824.000000	64.856290 
2823.000000	64.858531 
2822.000000	64.857006 
2821.000000	64.851665 
2820.000000	64.843297 
2819.000000	64.833545 
2818.000000	64.824604 
2817.000000	64.818620 
2816.000000	64.817476 
2815.000000	64.822340 
2814.000000	64.833521 
2813.000000	64.850521 
2812.000000	64.872026 
2811.000000	64.896202 
2810.000000	64.920997 
2809.000000	64.944243 
2808.000000	64.964294 
2807.000000	64.979672 
2806.000000	64.989566 
2805.000000	64.993429 
2804.000000	64.991021 
2803.000000	64.982390 
2802.000000	64.968061 
2801.000000	64.948940 
2800.000000	64.926338 
2799.000000	64.901995 
2798.000000	64.878177 
2797.000000	64.857244 
2796.000000	64.841532 
2795.000000	64.832544 
2794.000000	64.830827 
2793.000000	64.835810 
2792.000000	64.845728 
2791.000000	64.858078 
2790.000000	64.870047 
2789.000000	64.879250 
2788.000000	64.884567 
2787.000000	64.886021 
2786.000000	64.885020 
2785.000000	64.883899 
2784.000000	64.885115 
2783.000000	64.890623 
2782.000000	64.901518 
2781.000000	64.917731 
2780.000000	64.938116 
2779.000000	64.960813 
2778.000000	64.983582 
2777.000000	65.004682 
2776.000000	65.022850 
2775.000000	65.037441 
2774.000000	65.048289 
2773.000000	65.055465 
2772.000000	65.058875 
2771.000000	65.058159 
2770.000000	65.052676 
2769.000000	65.041637 
2768.000000	65.024590 
2767.000000	65.001654 
2766.000000	64.973855 
2765.000000	64.942979 
2764.000000	64.911556 
2763.000000	64.882683 
2762.000000	64.859509 
2761.000000	64.844727 
2760.000000	64.840102 
2759.000000	64.846205 
2758.000000	64.862132 
2757.000000	64.885687 
2756.000000	64.913368 
2755.000000	64.941215 
2754.000000	64.965248 
2753.000000	64.982175 
2752.000000	64.989829 
2751.000000	64.987659 
2750.000000	64.976453 
2749.000000	64.958119 
2748.000000	64.935421 
2747.000000	64.911174 
2746.000000	64.887905 
2745.000000	64.867377 
2744.000000	64.850497 
2743.000000	64.837384 
2742.000000	64.827561 
2741.000000	64.820432 
2740.000000	64.815497 
2739.000000	64.812397 
2738.000000	64.811277 
2737.000000	64.812326 
2736.000000	64.816069 
2735.000000	64.822602 
2734.000000	64.831900 
2733.000000	64.843535 
2732.000000	64.856839 
2731.000000	64.870953 
2730.000000	64.885067 
2729.000000	64.898562 
2728.000000	64.911198 
2727.000000	64.922904 
2726.000000	64.934134 
2725.000000	64.945173 
2724.000000	64.956355 
2723.000000	64.967894 
2722.000000	64.979577 
2721.000000	64.990901 
2720.000000	65.000963 
2719.000000	65.008807 
2718.000000	65.013408 
2717.000000	65.014290 
2716.000000	65.011358 
2715.000000	65.005040 
2714.000000	64.996433 
2713.000000	64.987182 
2712.000000	64.978933 
2711.000000	64.972996 
2710.000000	64.970135 
2709.000000	64.970374 
2708.000000	64.972949 
2707.000000	64.976286 
2706.000000	64.978528 
2705.000000	64.977788 
2704.000000	64.972639 
2703.000000	64.962410 
2702.000000	64.947104 
2701.000000	64.927577 
2700.000000	64.905118 
2699.000000	64.881467 
2698.000000	64.858078 
2697.000000	64.836573 
2696.000000	64.818286 
2695.000000	64.804506 
2694.000000	64.796113 
2693.000000	64.793753 
2692.000000	64.797520 
2691.000000	64.807224 
2690.000000	64.821934 
2689.000000	64.840459 
2688.000000	64.861321 
2687.000000	64.883089 
2686.000000	64.904451 
2685.000000	64.924454 
2684.000000	64.942455 
2683.000000	64.958047 
2682.000000	64.970970 
2681.000000	64.980888 
2680.000000	64.987468 
2679.000000	64.990353 
2678.000000	64.989209 
2677.000000	64.984035 
2676.000000	64.974832 
2675.000000	64.962315 
2674.000000	64.947342 
2673.000000	64.931058 
2672.000000	64.914584 
2671.000000	64.899086 
2670.000000	64.885616 
2669.000000	64.875078 
2668.000000	64.868259 
2667.000000	64.865970 
2666.000000	64.868521 
2665.000000	64.875864 
2664.000000	64.887118 
2663.000000	64.900922 
2662.000000	64.915347 
2661.000000	64.928102 
2660.000000	64.937090 
2659.000000	64.940476 
2658.000000	64.937138 
2657.000000	64.926719 
2656.000000	64.909791 
2655.000000	64.887762 
2654.000000	64.862704 
2653.000000	64.837169 
2652.000000	64.813709 
2651.000000	64.794516 
2650.000000	64.781165 
2649.000000	64.774346 
2648.000000	64.773774 
2647.000000	64.778351 
2646.000000	64.786458 
2645.000000	64.796400 
2644.000000	64.806485 
2643.000000	64.815473 
2642.000000	64.822602 
2641.000000	64.827680 
2640.000000	64.830970 
2639.000000	64.832806 
2638.000000	64.833545 
2637.000000	64.833474 
2636.000000	64.832663 
2635.000000	64.831137 
2634.000000	64.828991 
2633.000000	64.826440 
2632.000000	64.823889 
2631.000000	64.821743 
2630.000000	64.820337 
2629.000000	64.819741 
2628.000000	64.819860 
2627.000000	64.820384 
2626.000000	64.820718 
2625.000000	64.820313 
2624.000000	64.818477 
2623.000000	64.814686 
2622.000000	64.808225 
2621.000000	64.798641 
2620.000000	64.785695 
2619.000000	64.769434 
2618.000000	64.750552 
2617.000000	64.730310 
2616.000000	64.710450 
2615.000000	64.692997 
2614.000000	64.679837 
2613.000000	64.672303 
2612.000000	64.670610 
2611.000000	64.673709 
2610.000000	64.679431 
2609.000000	64.684963 
2608.000000	64.687609 
2607.000000	64.685535 
2606.000000	64.678335 
2605.000000	64.667272 
2604.000000	64.654994 
2603.000000	64.644813 
2602.000000	64.639782 
2601.000000	64.641785 
2600.000000	64.651036 
2599.000000	64.665865 
2598.000000	64.683294 
2597.000000	64.699888 
2596.000000	64.712643 
2595.000000	64.719820 
2594.000000	64.721393 
2593.000000	64.719104 
2592.000000	64.715719 
2591.000000	64.714479 
2590.000000	64.718103 
2589.000000	64.728093 
2588.000000	64.744520 
2587.000000	64.766001 
2586.000000	64.790368 
2585.000000	64.814949 
2584.000000	64.837551 
2583.000000	64.856338 
2582.000000	64.870500 
2581.000000	64.879822 
2580.000000	64.884614 
2579.000000	64.885282 
2578.000000	64.882326 
2577.000000	64.876294 
2576.000000	64.867687 
2575.000000	64.857482 
2574.000000	64.846611 
2573.000000	64.836263 
2572.000000	64.827275 
2571.000000	64.820384 
2570.000000	64.815759 
2569.000000	64.812946 
2568.000000	64.811134 
2567.000000	64.809322 
2566.000000	64.806604 
2565.000000	64.802527 
2564.000000	64.796948 
2563.000000	64.790129 
2562.000000	64.782476 
2561.000000	64.774346 
2560.000000	64.765882 
2559.000000	64.756870 
2558.000000	64.746999 
2557.000000	64.736008 
2556.000000	64.723968 
2555.000000	64.711308 
2554.000000	64.698886 
2553.000000	64.687800 
2552.000000	64.679050 
2551.000000	64.673161 
2550.000000	64.670205 
2549.000000	64.669919 
2548.000000	64.671826 
2547.000000	64.675283 
2546.000000	64.680147 
2545.000000	64.686512 
2544.000000	64.694786 
2543.000000	64.705538 
2542.000000	64.719128 
2541.000000	64.735579 
2540.000000	64.754128 
2539.000000	64.773559 
2538.000000	64.792275 
2537.000000	64.808750 
2536.000000	64.821934 
2535.000000	64.831447 
2534.000000	64.837765 
2533.000000	64.841938 
2532.000000	64.845418 
2531.000000	64.849495 
2530.000000	64.855003 
2529.000000	64.862036 
2528.000000	64.869856 
2527.000000	64.877080 
2526.000000	64.882016 
2525.000000	64.883184 
2524.000000	64.879512 
2523.000000	64.870738 
2522.000000	64.857459 
2521.000000	64.840888 
2520.000000	64.822602 
2519.000000	64.804029 
2518.000000	64.786171 
2517.000000	64.769363 
2516.000000	64.753365 
2515.000000	64.737462 
2514.000000	64.720988 
2513.000000	64.703559 
2512.000000	64.685440 
2511.000000	64.667582 
2510.000000	64.651465 
2509.000000	64.638781 
2508.000000	64.630937 
2507.000000	64.628601 
2506.000000	64.631557 
2505.000000	64.638447 
2504.000000	64.647126 
2503.000000	64.654970 
2502.000000	64.659404 
2501.000000	64.658570 
2500.000000	64.651656 
2499.000000	64.639210 
2498.000000	64.622902 
2497.000000	64.605307 
2496.000000	64.589333 
2495.000000	64.577865 
2494.000000	64.573073 
2493.000000	64.576029 
2492.000000	64.586639 
2491.000000	64.603734 
2490.000000	64.625358 
2489.000000	64.649128 
2488.000000	64.672565 
2487.000000	64.693546 
2486.000000	64.710521 
2485.000000	64.722776 
2484.000000	64.730072 
2483.000000	64.732789 
2482.000000	64.731740 
2481.000000	64.728045 
2480.000000	64.722967 
2479.000000	64.717745 
2478.000000	64.713644 
2477.000000	64.711499 
2476.000000	64.711785 
2475.000000	64.714431 
2474.000000	64.718914 
2473.000000	64.724326 
2472.000000	64.729475 
2471.000000	64.733052 
2470.000000	64.734029 
2469.000000	64.731669 
2468.000000	64.725852 
2467.000000	64.716911 
2466.000000	64.705729 
2465.000000	64.693474 
2464.000000	64.681625 
2463.000000	64.671468 
2462.000000	64.663910 
2461.000000	64.659667 
2460.000000	64.658784 
2459.000000	64.660835 
2458.000000	64.664864 
2457.000000	64.669752 
2456.000000	64.674377 
2455.000000	64.677429 
2454.000000	64.678215 
2453.000000	64.676451 
2452.000000	64.672708 
2451.000000	64.668059 
2450.000000	64.664196 
2449.000000	64.662957 
2448.000000	64.666223 
2447.000000	64.675235 
2446.000000	64.690566 
2445.000000	64.711761 
2444.000000	64.737391 
2443.000000	64.765024 
2442.000000	64.791536 
2441.000000	64.813590 
2440.000000	64.827990 
2439.000000	64.832377 
2438.000000	64.825630 
2437.000000	64.807868 
2436.000000	64.780664 
2435.000000	64.746499 
2434.000000	64.708328 
2433.000000	64.668893 
2432.000000	64.630627 
2431.000000	64.595103 
2430.000000	64.563345 
2429.000000	64.535927 
2428.000000	64.513206 
2427.000000	64.495682 
2426.000000	64.484047 
2425.000000	64.478969 
2424.000000	64.480781 
2423.000000	64.489221 
2422.000000	64.503073 
2421.000000	64.520144 
2420.000000	64.537549 
2419.000000	64.552307 
2418.000000	64.561748 
2417.000000	64.564180 
2416.000000	64.559412 
2415.000000	64.548349 
2414.000000	64.533019 
2413.000000	64.516019 
2412.000000	64.499878 
2411.000000	64.486646 
2410.000000	64.477753 
2409.000000	64.473700 
2408.000000	64.474225 
2407.000000	64.478635 
2406.000000	64.485812 
2405.000000	64.494538 
2404.000000	64.503645 
2403.000000	64.511823 
2402.000000	64.517927 
2401.000000	64.521121 
2400.000000	64.521121 
2399.000000	64.517974 
2398.000000	64.512586 
2397.000000	64.506411 
2396.000000	64.501500 
2395.000000	64.499759 
2394.000000	64.502811 
2393.000000	64.511561 
2392.000000	64.525938 
2391.000000	64.544773 
2390.000000	64.566135 
2389.000000	64.587664 
2388.000000	64.606928 
2387.000000	64.621901 
2386.000000	64.631175 
2385.000000	64.634251 
2384.000000	64.631319 
2383.000000	64.623355 
2382.000000	64.611911 
2381.000000	64.598488 
2380.000000	64.584875 
2379.000000	64.572381 
2378.000000	64.562106 
2377.000000	64.554667 
2376.000000	64.550042 
2375.000000	64.547634 
2374.000000	64.546442 
2373.000000	64.545249 
2372.000000	64.543056 
2371.000000	64.539361 
2370.000000	64.534091 
2369.000000	64.527964 
2368.000000	64.522051 
2367.000000	64.517712 
2366.000000	64.516091 
2365.000000	64.517879 
2364.000000	64.522981 
2363.000000	64.530563 
2362.000000	64.539217 
2361.000000	64.547300 
2360.000000	64.553284 
2359.000000	64.556074 
2358.000000	64.555168 
2357.000000	64.550805 
2356.000000	64.543819 
2355.000000	64.535236 
2354.000000	64.526271 
2353.000000	64.517903 
2352.000000	64.510846 
2351.000000	64.505386 
2350.000000	64.501643 
2349.000000	64.499354 
2348.000000	64.498376 
2347.000000	64.498519 
2346.000000	64.499974 
2345.000000	64.502954 
2344.000000	64.508080 
2343.000000	64.515781 
2342.000000	64.526343 
2341.000000	64.539694 
2340.000000	64.555287 
2339.000000	64.572024 
2338.000000	64.588403 
2337.000000	64.602708 
2336.000000	64.613318 
2335.000000	64.618992 
2334.000000	64.618968 
2333.000000	64.613199 
2332.000000	64.602422 
2331.000000	64.587926 
2330.000000	64.571452 
2329.000000	64.554834 
2328.000000	64.539933 
2327.000000	64.528131 
2326.000000	64.520335 
2325.000000	64.516758 
2324.000000	64.516878 
2323.000000	64.519572 
2322.000000	64.523315 
2321.000000	64.526319 
2320.000000	64.526844 
2319.000000	64.523816 
2318.000000	64.516711 
2317.000000	64.506053 
2316.000000	64.493036 
2315.000000	64.479541 
2314.000000	64.467573 
2313.000000	64.458727 
2312.000000	64.454126 
2311.000000	64.453959 
2310.000000	64.457702 
2309.000000	64.464116 
2308.000000	64.471745 
2307.000000	64.479470 
2306.000000	64.486742 
2305.000000	64.493584 
2304.000000	64.500546 
2303.000000	64.508509 
2302.000000	64.518094 
2301.000000	64.529490 
2300.000000	64.542031 
2299.000000	64.554357 
2298.000000	64.564466 
2297.000000	64.570546 
2296.000000	64.570999 
2295.000000	64.565038 
2294.000000	64.552831 
2293.000000	64.535593 
2292.000000	64.515352 
2291.000000	64.494585 
2290.000000	64.475846 
2289.000000	64.461421 
2288.000000	64.452815 
2287.000000	64.450669 
2286.000000	64.454507 
2285.000000	64.463019 
2284.000000	64.473891 
2283.000000	64.484524 
2282.000000	64.492273 
2281.000000	64.494919 
2280.000000	64.491128 
2279.000000	64.480781 
2278.000000	64.465045 
2277.000000	64.446020 
2276.000000	64.426445 
2275.000000	64.409112 
2274.000000	64.396142 
2273.000000	64.388751 
2272.000000	64.386987 
2271.000000	64.389920 
2270.000000	64.395904 
2269.000000	64.403295 
2268.000000	64.410734 
2267.000000	64.417552 
2266.000000	64.423632 
2265.000000	64.429593 
2264.000000	64.436125 
2263.000000	64.443898 
2262.000000	64.452934 
2261.000000	64.462685 
2260.000000	64.471936 
2259.000000	64.479255 
2258.000000	64.483404 
2257.000000	64.483475 
2256.000000	64.479351 
2255.000000	64.471650 
2254.000000	64.461946 
2253.000000	64.452195 
2252.000000	64.444494 
2251.000000	64.440679 
2250.000000	64.441871 
2249.000000	64.448189 
2248.000000	64.458894 
2247.000000	64.472270 
2246.000000	64.486122 
2245.000000	64.497900 
2244.000000	64.505481 
2243.000000	64.507365 
2242.000000	64.502930 
2241.000000	64.492559 
2240.000000	64.477443 
2239.000000	64.459300 
2238.000000	64.440011 
2237.000000	64.421319 
2236.000000	64.404368 
2235.000000	64.389848 
2234.000000	64.377880 
2233.000000	64.368557 
2232.000000	64.361858 
2231.000000	64.358067 
2230.000000	64.357709 
2229.000000	64.361691 
2228.000000	64.370656 
2227.000000	64.384889 
2226.000000	64.403939 
2225.000000	64.426708 
2224.000000	64.451217 
2223.000000	64.474987 
2222.000000	64.495563 
2221.000000	64.510750 
2220.000000	64.519357 
2219.000000	64.521050 
2218.000000	64.516496 
2217.000000	64.507174 
2216.000000	64.494919 
2215.000000	64.481711 
2214.000000	64.469361 
2213.000000	64.459061 
2212.000000	64.451646 
2211.000000	64.447212 
2210.000000	64.445590 
2209.000000	64.446187 
2208.000000	64.448308 
2207.000000	64.451146 
2206.000000	64.453792 
2205.000000	64.455413 
2204.000000	64.455294 
2203.000000	64.452981 
2202.000000	64.448213 
2201.000000	64.441108 
2200.000000	64.432120 
2199.000000	64.421892 
2198.000000	64.411163 
2197.000000	64.400649 
2196.000000	64.390969 
2195.000000	64.382696 
2194.000000	64.376211 
2193.000000	64.371776 
2192.000000	64.369320 
2191.000000	64.368796 
2190.000000	64.369797 
2189.000000	64.371705 
2188.000000	64.373850 
2187.000000	64.375495 
2186.000000	64.376044 
2185.000000	64.375138 
2184.000000	64.372801 
2183.000000	64.369249 
2182.000000	64.365029 
2181.000000	64.360690 
2180.000000	64.356517 
2179.000000	64.352655 
2178.000000	64.348936 
2177.000000	64.344954 
2176.000000	64.340519 
2175.000000	64.335584 
2174.000000	64.330506 
2173.000000	64.325952 
2172.000000	64.322638 
2171.000000	64.321208 
2170.000000	64.321851 
2169.000000	64.324355 
2168.000000	64.327955 
2167.000000	64.331793 
2166.000000	64.335012 
2165.000000	64.337134 
2164.000000	64.338397 
2163.000000	64.339423 
2162.000000	64.341187 
2161.000000	64.344358 
2160.000000	64.349055 
2159.000000	64.354586 
2158.000000	64.359569 
2157.000000	64.362215 
2156.000000	64.360809 
2155.000000	64.354252 
2154.000000	64.342665 
2153.000000	64.327263 
2152.000000	64.310169 
2151.000000	64.294028 
2150.000000	64.281249 
2149.000000	64.273571 
2148.000000	64.271616 
2147.000000	64.275074 
2146.000000	64.282846 
2145.000000	64.293479 
2144.000000	64.305400 
2143.000000	64.317464 
2142.000000	64.328813 
2141.000000	64.338922 
2140.000000	64.347100 
2139.000000	64.352583 
2138.000000	64.354443 
2137.000000	64.351749 
2136.000000	64.343905 
2135.000000	64.331007 
2134.000000	64.314007 
2133.000000	64.294815 
2132.000000	64.275741 
2131.000000	64.259171 
2130.000000	64.246892 
2129.000000	64.239621 
2128.000000	64.236927 
2127.000000	64.237189 
2126.000000	64.238548 
2125.000000	64.239239 
2124.000000	64.238333 
2123.000000	64.235973 
2122.000000	64.233517 
2121.000000	64.232730 
2120.000000	64.235448 
2119.000000	64.242720 
2118.000000	64.254355 
2117.000000	64.268755 
2116.000000	64.283394 
2115.000000	64.295363 
2114.000000	64.302253 
2113.000000	64.302730 
2112.000000	64.296913 
2111.000000	64.286184 
2110.000000	64.273023 
2109.000000	64.259886 
2108.000000	64.248776 
2107.000000	64.240622 
2106.000000	64.235186 
2105.000000	64.231276 
2104.000000	64.227271 
2103.000000	64.221763 
2102.000000	64.213824 
2101.000000	64.203572 
2100.000000	64.191985 
2099.000000	64.180803 
2098.000000	64.171934 
2097.000000	64.167070 
2096.000000	64.167237 
2095.000000	64.172554 
2094.000000	64.182043 
2093.000000	64.194035 
2092.000000	64.206624 
2091.000000	64.218115 
2090.000000	64.227485 
2089.000000	64.234423 
2088.000000	64.239335 
2087.000000	64.242935 
2086.000000	64.245963 
2085.000000	64.248657 
2084.000000	64.250802 
2083.000000	64.251828 
2082.000000	64.250898 
2081.000000	64.247441 
2080.000000	64.241170 
2079.000000	64.232468 
2078.000000	64.222288 
2077.000000	64.211893 
2076.000000	64.202690 
2075.000000	64.195680 
2074.000000	64.191675 
2073.000000	64.190816 
2072.000000	64.192819 
2071.000000	64.196968 
2070.000000	64.202451 
2069.000000	64.208507 
2068.000000	64.214253 
2067.000000	64.218974 
2066.000000	64.221954 
2065.000000	64.222621 
2064.000000	64.220499 
2063.000000	64.215326 
2062.000000	64.207196 
2061.000000	64.196372 
2060.000000	64.183664 
2059.000000	64.170074 
2058.000000	64.156723 
2057.000000	64.144444 
2056.000000	64.133739 
2055.000000	64.124679 
2054.000000	64.116740 
2053.000000	64.109230 
2052.000000	64.101529 
2051.000000	64.093208 
2050.000000	64.084362 
2049.000000	64.075493 
2048.000000	64.067482 
2047.000000	64.061379 
2046.000000	64.057993 
2045.000000	64.057922 
2044.000000	64.061212 
2043.000000	64.067673 
2042.000000	64.076685 
2041.000000	64.087367 
2040.000000	64.098811 
2039.000000	64.110016 
2038.000000	64.119935 
2037.000000	64.127755 
2036.000000	64.132761 
2035.000000	64.134526 
2034.000000	64.133024 
2033.000000	64.128232 
2032.000000	64.120674 
2031.000000	64.111042 
2030.000000	64.100265 
2029.000000	64.089345 
2028.000000	64.079236 
2027.000000	64.070725 
2026.000000	64.064550 
2025.000000	64.061021 
2024.000000	64.060378 
2023.000000	64.062595 
2022.000000	64.067316 
2021.000000	64.074063 
2020.000000	64.082074 
2019.000000	64.090394 
2018.000000	64.098143 
2017.000000	64.104485 
2016.000000	64.108753 
2015.000000	64.110541 
2014.000000	64.109683 
2013.000000	64.106345 
2012.000000	64.100837 
2011.000000	64.093661 
2010.000000	64.085578 
2009.000000	64.077544 
2008.000000	64.070606 
2007.000000	64.065861 
2006.000000	64.064288 
2005.000000	64.066600 
2004.000000	64.073061 
2003.000000	64.083313 
2002.000000	64.096355 
2001.000000	64.110565 
2000.000000	64.124131 
1999.000000	64.135122 
1998.000000	64.141845 
1997.000000	64.143157 
1996.000000	64.138722 
1995.000000	64.128780 
1994.000000	64.114308 
1993.000000	64.096689 
1992.000000	64.077401 
1991.000000	64.057946 
1990.000000	64.039683 
1989.000000	64.023518 
1988.000000	64.010024 
1987.000000	63.999366 
1986.000000	63.991522 
1985.000000	63.986206 
1984.000000	63.982868 
1983.000000	63.981103 
1982.000000	63.980746 
1981.000000	63.981914 
1980.000000	63.985109 
1979.000000	63.991093 
1978.000000	64.000749 
1977.000000	64.014935 
1976.000000	64.033818 
1975.000000	64.056873 
1974.000000	64.082527 
1973.000000	64.108371 
1972.000000	64.131450 
1971.000000	64.148974 
1970.000000	64.158558 
1969.000000	64.159154 
1968.000000	64.150929 
1967.000000	64.135599 
1966.000000	64.115762 
1965.000000	64.094591 
1964.000000	64.074587 
1963.000000	64.057588 
1962.000000	64.043998 
1961.000000	64.033079 
1960.000000	64.023303 
1959.000000	64.012932 
1958.000000	64.000725 
1957.000000	63.986563 
1956.000000	63.971304 
1955.000000	63.956856 
1954.000000	63.945460 
1953.000000	63.939309 
1952.000000	63.939762 
1951.000000	63.947248 
1950.000000	63.960981 
1949.000000	63.979244 
1948.000000	63.999772 
1947.000000	64.020276 
1946.000000	64.038848 
1945.000000	64.054369 
1944.000000	64.066457 
1943.000000	64.075350 
1942.000000	64.081621 
1941.000000	64.086008 
1940.000000	64.088869 
1939.000000	64.090204 
1938.000000	64.089751 
1937.000000	64.086890 
1936.000000	64.081072 
1935.000000	64.071893 
1934.000000	64.059472 
1933.000000	64.044427 
1932.000000	64.027976 
1931.000000	64.011597 
1930.000000	63.996791 
1929.000000	63.984990 
1928.000000	63.977074 
1927.000000	63.973283 
1926.000000	63.973307 
1925.000000	63.976526 
1924.000000	63.981986 
1923.000000	63.988685 
1922.000000	63.995814 
1921.000000	64.002537 
1920.000000	64.008378 
1919.000000	64.012765 
1918.000000	64.015483 
1917.000000	64.016461 
1916.000000	64.016127 
1915.000000	64.015102 
1914.000000	64.014410 
1913.000000	64.015340 
1912.000000	64.019107 
1911.000000	64.026618 
1910.000000	64.037966 
1909.000000	64.052462 
1908.000000	64.068484 
1907.000000	64.083719 
1906.000000	64.095568 
1905.000000	64.101815 
1904.000000	64.100933 
1903.000000	64.092493 
1902.000000	64.077186 
1901.000000	64.056801 
1900.000000	64.033746 
1899.000000	64.010643 
1898.000000	63.989853 
1897.000000	63.973188 
1896.000000	63.961744 
1895.000000	63.955831 
1894.000000	63.955020 
1893.000000	63.958501 
1892.000000	63.965034 
1891.000000	63.973546 
1890.000000	63.983106 
1889.000000	63.993096 
1888.000000	64.003109 
1887.000000	64.012932 
1886.000000	64.022374 
1885.000000	64.031076 
1884.000000	64.038634 
1883.000000	64.044404 
1882.000000	64.047670 
1881.000000	64.047813 
1880.000000	64.044427 
1879.000000	64.037442 
1878.000000	64.027190 
1877.000000	64.014363 
1876.000000	64.000034 
1875.000000	63.985347 
1874.000000	63.971567 
1873.000000	63.959908 
1872.000000	63.951182 
1871.000000	63.945960 
1870.000000	63.944458 
1869.000000	63.946485 
1868.000000	63.951468 
1867.000000	63.958406 
1866.000000	63.965868 
1865.000000	63.972282 
1864.000000	63.976287 
1863.000000	63.976716 
1862.000000	63.973093 
1861.000000	63.965630 
1860.000000	63.955354 
1859.000000	63.943982 
1858.000000	63.933491 
1857.000000	63.925814 
1856.000000	63.922381 
1855.000000	63.923740 
1854.000000	63.929390 
1853.000000	63.937902 
1852.000000	63.946914 
1851.000000	63.953828 
1850.000000	63.956046 
1849.000000	63.951706 
1848.000000	63.940072 
1847.000000	63.921499 
1846.000000	63.897633 
1845.000000	63.871002 
1844.000000	63.844490 
1843.000000	63.820910 
1842.000000	63.802528 
1841.000000	63.790655 
1840.000000	63.785600 
1839.000000	63.786649 
1838.000000	63.792467 
1837.000000	63.801407 
1836.000000	63.811707 
1835.000000	63.822007 
1834.000000	63.831210 
1833.000000	63.838791 
1832.000000	63.844656 
1831.000000	63.848948 
1830.000000	63.852095 
1829.000000	63.854455 
1828.000000	63.856363 
1827.000000	63.858079 
1826.000000	63.859724 
1825.000000	63.861298 
1824.000000	63.862562 
1823.000000	63.863301 
1822.000000	63.863253 
1821.000000	63.862180 
1820.000000	63.860058 
1819.000000	63.857054 
1818.000000	63.853621 
1817.000000	63.850355 
1816.000000	63.847994 
1815.000000	63.847351 
1814.000000	63.848924 
1813.000000	63.852739 
1812.000000	63.858246 
1811.000000	63.864517 
1810.000000	63.870453 
1809.000000	63.874912 
1808.000000	63.876938 
1807.000000	63.876199 
1806.000000	63.872766 
1805.000000	63.867115 
1804.000000	63.859939 
1803.000000	63.851833 
1802.000000	63.843250 
1801.000000	63.834595 
1800.000000	63.825941 
1799.000000	63.817310 
1798.000000	63.808608 
1797.000000	63.799810 
1796.000000	63.791012 
1795.000000	63.782167 
1794.000000	63.773536 
1793.000000	63.765573 
1792.000000	63.758730 
1791.000000	63.753628 
1790.000000	63.750720 
1789.000000	63.750600 
1788.000000	63.753485 
1787.000000	63.759517 
1786.000000	63.768553 
1785.000000	63.780403 
1784.000000	63.794445 
1783.000000	63.809967 
1782.000000	63.826084 
1781.000000	63.841700 
1780.000000	63.855385 
1779.000000	63.865590 
1778.000000	63.871145 
1777.000000	63.870954 
1776.000000	63.864040 
1775.000000	63.849997 
1774.000000	63.829350 
1773.000000	63.802909 
1772.000000	63.771772 
1771.000000	63.737297 
1770.000000	63.701176 
1769.000000	63.664817 
1768.000000	63.629221 
1767.000000	63.595318 
1766.000000	63.564300 
1765.000000	63.536977 
1764.000000	63.513994 
1763.000000	63.495898 
1762.000000	63.482832 
1761.000000	63.474440 
1760.000000	63.469505 
1759.000000	63.466453 
1758.000000	63.462877 
1757.000000	63.456654 
1756.000000	63.445448 
1755.000000	63.426995 
1754.000000	63.399171 
1753.000000	63.361167 
1752.000000	63.312244 
1751.000000	63.252282 
1750.000000	63.181376 
1749.000000	63.100934 
1748.000000	63.012218 
1747.000000	62.916779 
1746.000000	62.816166 
1745.000000	62.712454 
1744.000000	62.607383 
1743.000000	62.502431 
1742.000000	62.399101 
1741.000000	62.299013 
1740.000000	62.203884 
1739.000000	62.115669 
1738.000000	62.036609 
1737.000000	61.969637 
1736.000000	61.917185 
1735.000000	61.882138 
1734.000000	61.866092 
1733.000000	61.870765 
1732.000000	61.896061 
1731.000000	61.941695 
1730.000000	62.005853 
1729.000000	62.086653 
1728.000000	62.180924 
1727.000000	62.285995 
1726.000000	62.398457 
1725.000000	62.515544 
1724.000000	62.634015 
1723.000000	62.750959 
1722.000000	62.863898 
1721.000000	62.970304 
1720.000000	63.067770 
1719.000000	63.154268 
1718.000000	63.228702 
1717.000000	63.290309 
1716.000000	63.338637 
1715.000000	63.374161 
1714.000000	63.398504 
1713.000000	63.413405 
1712.000000	63.420844 
1711.000000	63.423299 
1710.000000	63.423228 
1709.000000	63.422846 
1708.000000	63.423442 
1707.000000	63.426280 
1706.000000	63.431906 
1705.000000	63.440394 
1704.000000	63.451266 
1703.000000	63.463902 
1702.000000	63.477468 
1701.000000	63.491320 
1700.000000	63.505077 
1699.000000	63.518023 
1698.000000	63.530015 
1697.000000	63.541388 
1696.000000	63.552498 
1695.000000	63.563537 
1694.000000	63.574743 
1693.000000	63.586878 
1692.000000	63.600206 
1691.000000	63.614511 
1690.000000	63.629269 
1689.000000	63.643860 
1688.000000	63.657045 
1687.000000	63.667249 
1686.000000	63.673257 
1685.000000	63.674497 
1684.000000	63.670969 
1683.000000	63.663411 
1682.000000	63.653540 
1681.000000	63.643455 
1680.000000	63.635349 
1679.000000	63.630962 
1678.000000	63.631224 
1677.000000	63.635921 
1676.000000	63.644003 
1675.000000	63.653469 
1674.000000	63.661885 
1673.000000	63.666987 
1672.000000	63.667058 
1671.000000	63.661241 
1670.000000	63.649773 
1669.000000	63.633775 
1668.000000	63.615131 
1667.000000	63.595890 
1666.000000	63.578033 
1665.000000	63.562941 
1664.000000	63.551354 
1663.000000	63.543248 
1662.000000	63.537883 
1661.000000	63.534069 
1660.000000	63.530468 
1659.000000	63.525748 
1658.000000	63.518977 
1657.000000	63.509511 
1656.000000	63.497328 
1655.000000	63.482880 
1654.000000	63.467383 
1653.000000	63.452219 
1652.000000	63.439035 
1651.000000	63.429260 
1650.000000	63.423967 
1649.000000	63.423681 
1648.000000	63.428139 
1647.000000	63.436484 
1646.000000	63.447332 
1645.000000	63.459038 
1644.000000	63.470220 
1643.000000	63.479852 
1642.000000	63.487553 
1641.000000	63.493537 
1640.000000	63.498520 
1639.000000	63.503527 
1638.000000	63.509535 
1637.000000	63.517141 
1636.000000	63.526296 
1635.000000	63.536429 
1634.000000	63.546323 
1633.000000	63.554644 
1632.000000	63.559889 
1631.000000	63.560891 
1630.000000	63.556957 
1629.000000	63.548040 
1628.000000	63.534832 
1627.000000	63.518548 
1626.000000	63.500905 
1625.000000	63.483595 
1624.000000	63.468241 
1623.000000	63.456130 
1622.000000	63.447952 
1621.000000	63.443994 
1620.000000	63.444042 
1619.000000	63.447427 
1618.000000	63.453388 
1617.000000	63.460946 
1616.000000	63.469076 
1615.000000	63.476705 
1614.000000	63.482737 
1613.000000	63.486218 
1612.000000	63.486433 
1611.000000	63.483023 
1610.000000	63.475918 
1609.000000	63.465595 
1608.000000	63.452982 
1607.000000	63.439297 
1606.000000	63.425707 
1605.000000	63.413166 
1604.000000	63.402009 
1603.000000	63.392066 
1602.000000	63.382816 
1601.000000	63.373517 
1600.000000	63.363647 
1599.000000	63.353085 
1598.000000	63.342452 
1597.000000	63.332509 
1596.000000	63.324594 
1595.000000	63.319683 
1594.000000	63.318634 
1593.000000	63.321590 
1592.000000	63.328266 
1591.000000	63.337850 
1590.000000	63.349270 
1589.000000	63.361334 
1588.000000	63.373017 
1587.000000	63.383364 
1586.000000	63.391685 
1585.000000	63.397622 
1584.000000	63.400959 
1583.000000	63.401627 
1582.000000	63.399791 
1581.000000	63.395905 
1580.000000	63.390612 
1579.000000	63.384842 
1578.000000	63.379669 
1577.000000	63.376164 
1576.000000	63.375210 
1575.000000	63.377642 
1574.000000	63.383793 
1573.000000	63.393688 
1572.000000	63.406991 
1571.000000	63.422870 
1570.000000	63.440251 
1569.000000	63.457679 
1568.000000	63.473510 
1567.000000	63.486099 
1566.000000	63.494038 
1565.000000	63.496422 
1564.000000	63.493013 
1563.000000	63.484311 
1562.000000	63.471603 
1561.000000	63.456606 
1560.000000	63.441348 
1559.000000	63.427472 
1558.000000	63.416218 
1557.000000	63.408064 
1556.000000	63.402605 
1555.000000	63.398957 
1554.000000	63.395905 
1553.000000	63.392353 
1552.000000	63.387775 
1551.000000	63.382244 
1550.000000	63.376283 
1549.000000	63.370680 
1548.000000	63.366317 
1547.000000	63.363623 
1546.000000	63.362526 
1545.000000	63.362360 
1544.000000	63.362050 
1543.000000	63.360619 
1542.000000	63.357067 
1541.000000	63.351106 
1540.000000	63.342976 
1539.000000	63.333511 
1538.000000	63.323783 
1537.000000	63.314890 
1536.000000	63.307619 
1535.000000	63.302373 
1534.000000	63.299012 
1533.000000	63.297033 
1532.000000	63.295841 
1531.000000	63.295006 
1530.000000	63.294410 
1529.000000	63.294410 
1528.000000	63.295722 
1527.000000	63.299202 
1526.000000	63.305592 
1525.000000	63.315057 
1524.000000	63.327097 
1523.000000	63.340449 
1522.000000	63.353276 
1521.000000	63.363575 
1520.000000	63.369774 
1519.000000	63.370895 
1518.000000	63.367056 
1517.000000	63.359308 
1516.000000	63.349676 
1515.000000	63.340568 
1514.000000	63.334441 
1513.000000	63.332939 
1512.000000	63.336873 
1511.000000	63.345909 
1510.000000	63.358712 
1509.000000	63.373160 
1508.000000	63.387084 
1507.000000	63.398313 
1506.000000	63.405179 
1505.000000	63.406705 
1504.000000	63.402462 
1503.000000	63.392591 
1502.000000	63.377642 
1501.000000	63.358640 
1500.000000	63.337182 
1499.000000	63.315153 
1498.000000	63.294529 
1497.000000	63.277316 
1496.000000	63.265180 
1495.000000	63.258862 
1494.000000	63.258242 
1493.000000	63.262224 
1492.000000	63.268923 
1491.000000	63.275980 
1490.000000	63.281106 
1489.000000	63.282442 
1488.000000	63.279080 
1487.000000	63.270950 
1486.000000	63.258981 
1485.000000	63.244509 
1484.000000	63.229227 
1483.000000	63.214588 
1482.000000	63.201665 
1481.000000	63.191127 
1480.000000	63.183093 
1479.000000	63.177514 
1478.000000	63.174033 
1477.000000	63.172173 
1476.000000	63.171339 
1475.000000	63.170814 
1474.000000	63.169980 
1473.000000	63.168287 
1472.000000	63.165330 
1471.000000	63.160824 
1470.000000	63.154745 
1469.000000	63.147354 
1468.000000	63.138961 
1467.000000	63.130021 
1466.000000	63.121080 
1465.000000	63.112711 
1464.000000	63.105487 
1463.000000	63.099861 
1462.000000	63.096189 
1461.000000	63.094711 
1460.000000	63.095378 
1459.000000	63.098025 
1458.000000	63.102197 
1457.000000	63.107538 
1456.000000	63.113570 
1455.000000	63.120079 
1454.000000	63.127088 
1453.000000	63.135004 
1452.000000	63.144373 
1451.000000	63.155794 
1450.000000	63.169336 
1449.000000	63.184571 
1448.000000	63.200354 
1447.000000	63.214802 
1446.000000	63.225698 
1445.000000	63.230872 
1444.000000	63.228678 
1443.000000	63.218498 
1442.000000	63.200902 
1441.000000	63.177704 
1440.000000	63.151431 
1439.000000	63.125157 
1438.000000	63.101720 
1437.000000	63.083314 
1436.000000	63.071107 
1435.000000	63.064932 
1434.000000	63.063788 
1433.000000	63.065814 
1432.000000	63.069295 
1431.000000	63.072752 
1430.000000	63.075661 
1429.000000	63.078117 
1428.000000	63.081002 
1427.000000	63.085198 
1426.000000	63.091754 
1425.000000	63.101005 
1424.000000	63.112783 
1423.000000	63.126277 
1422.000000	63.140153 
1421.000000	63.152790 
1420.000000	63.162636 
1419.000000	63.168716 
1418.000000	63.170218 
1417.000000	63.166952 
1416.000000	63.159275 
1415.000000	63.148021 
1414.000000	63.134598 
1413.000000	63.120508 
1412.000000	63.107514 
1411.000000	63.097190 
1410.000000	63.090729 
1409.000000	63.088560 
1408.000000	63.089990 
1407.000000	63.093447 
1406.000000	63.096570 
1405.000000	63.097238 
1404.000000	63.093900 
1403.000000	63.086199 
1402.000000	63.075423 
1401.000000	63.063907 
1400.000000	63.054490 
1399.000000	63.049435 
1398.000000	63.049769 
1397.000000	63.054537 
1396.000000	63.061070 
1395.000000	63.065433 
1394.000000	63.063454 
1393.000000	63.051700 
1392.000000	63.028597 
1391.000000	62.994718 
1390.000000	62.952947 
1389.000000	62.907767 
1388.000000	62.864303 
1387.000000	62.827205 
1386.000000	62.799763 
1385.000000	62.783265 
1384.000000	62.777209 
1383.000000	62.779426 
1382.000000	62.787175 
1381.000000	62.797546 
1380.000000	62.808585 
1379.000000	62.819075 
1378.000000	62.829375 
1377.000000	62.840414 
1376.000000	62.853717 
1375.000000	62.870383 
1374.000000	62.890887 
1373.000000	62.914848 
1372.000000	62.940692 
1371.000000	62.966251 
1370.000000	62.989115 
1369.000000	63.007116 
1368.000000	63.018941 
1367.000000	63.024401 
1366.000000	63.024330 
1365.000000	63.020467 
1364.000000	63.015127 
1363.000000	63.010501 
1362.000000	63.008213 
1361.000000	63.009071 
1360.000000	63.012933 
1359.000000	63.018918 
1358.000000	63.025712 
1357.000000	63.032007 
1356.000000	63.036942 
1355.000000	63.040184 
1354.000000	63.041806 
1353.000000	63.042306 
1352.000000	63.042187 
1351.000000	63.041901 
1350.000000	63.041543 
1349.000000	63.040924 
1348.000000	63.039731 
1347.000000	63.037443 
1346.000000	63.033843 
1345.000000	63.028907 
1344.000000	63.022828 
1343.000000	63.015985 
1342.000000	63.008856 
1341.000000	63.001894 
1340.000000	62.995266 
1339.000000	62.989187 
1338.000000	62.984108 
1337.000000	62.980365 
1336.000000	62.978267 
1335.000000	62.977957 
1334.000000	62.979412 
1333.000000	62.982177 
1332.000000	62.985515 
1331.000000	62.988424 
1330.000000	62.990069 
1329.000000	62.989902 
1328.000000	62.987875 
1327.000000	62.984585 
1326.000000	62.981057 
1325.000000	62.978482 
1324.000000	62.977862 
1323.000000	62.979936 
1322.000000	62.984943 
1321.000000	62.992596 
1320.000000	63.002109 
1319.000000	63.012742 
1318.000000	63.023400 
1317.000000	63.033270 
1316.000000	63.041520 
1315.000000	63.047266 
1314.000000	63.049435 
1313.000000	63.046956 
1312.000000	63.038945 
1311.000000	63.024926 
1310.000000	63.005185 
1309.000000	62.980890 
1308.000000	62.954068 
1307.000000	62.927436 
1306.000000	62.903738 
1305.000000	62.885284 
1304.000000	62.873411 
1303.000000	62.868165 
1302.000000	62.868213 
1301.000000	62.871289 
1300.000000	62.874865 
1299.000000	62.876725 
1298.000000	62.875390 
1297.000000	62.870621 
1296.000000	62.863111 
1295.000000	62.854480 
1294.000000	62.846279 
1293.000000	62.839770 
1292.000000	62.835597 
1291.000000	62.833547 
1290.000000	62.832784 
1289.000000	62.831902 
1288.000000	62.829494 
1287.000000	62.824225 
1286.000000	62.815237 
1285.000000	62.802171 
1284.000000	62.785363 
1283.000000	62.765502 
1282.000000	62.743520 
1281.000000	62.720394 
1280.000000	62.697172 
1279.000000	62.674689 
1278.000000	62.653708 
1277.000000	62.634825 
1276.000000	62.618374 
1275.000000	62.604665 
1274.000000	62.593579 
1273.000000	62.584471 
1272.000000	62.576270 
1271.000000	62.567615 
1270.000000	62.557315 
1269.000000	62.544441 
1268.000000	62.528800 
1267.000000	62.510895 
1266.000000	62.491989 
1265.000000	62.473750 
1264.000000	62.457847 
1263.000000	62.445449 
1262.000000	62.436842 
1261.000000	62.431502 
1260.000000	62.427997 
1259.000000	62.424540 
1258.000000	62.419390 
1257.000000	62.411284 
1256.000000	62.399697 
1255.000000	62.385010 
1254.000000	62.368178 
1253.000000	62.350559 
1252.000000	62.333631 
1251.000000	62.319016 
1250.000000	62.308001 
1249.000000	62.301588 
1248.000000	62.300777 
1247.000000	62.306094 
1246.000000	62.317276 
1245.000000	62.333250 
1244.000000	62.352132 
1243.000000	62.371563 
1242.000000	62.388634 
1241.000000	62.400698 
1240.000000	62.405967 
1239.000000	62.403655 
1238.000000	62.394213 
1237.000000	62.379050 
1236.000000	62.360477 
1235.000000	62.340927 
1234.000000	62.322545 
1233.000000	62.306928 
1232.000000	62.295031 
1231.000000	62.287235 
1230.000000	62.283658 
1229.000000	62.284255 
1228.000000	62.289094 
1227.000000	62.298297 
1226.000000	62.311935 
1225.000000	62.329697 
1224.000000	62.350821 
1223.000000	62.374043 
1222.000000	62.398052 
1221.000000	62.421321 
1220.000000	62.442803 
1219.000000	62.462210 
1218.000000	62.479972 
1217.000000	62.497162 
1216.000000	62.514758 
1215.000000	62.533664 
1214.000000	62.553858 
1213.000000	62.574338 
1212.000000	62.593245 
1211.000000	62.608337 
1210.000000	62.617397 
1209.000000	62.618875 
1208.000000	62.612342 
1207.000000	62.598633 
1206.000000	62.579584 
1205.000000	62.557649 
1204.000000	62.535572 
1203.000000	62.515640 
1202.000000	62.499451 
1201.000000	62.487626 
1200.000000	62.479805 
1199.000000	62.474751 
1198.000000	62.470698 
1197.000000	62.465548 
1196.000000	62.457442 
1195.000000	62.445092 
1194.000000	62.427854 
1193.000000	62.405896 
1192.000000	62.380361 
1191.000000	62.353157 
1190.000000	62.326645 
1189.000000	62.302947 
1188.000000	62.284064 
1187.000000	62.270951 
1186.000000	62.263607 
1185.000000	62.260746 
1184.000000	62.260222 
1183.000000	62.259268 
1182.000000	62.255191 
1181.000000	62.245726 
1180.000000	62.229466 
1179.000000	62.206172 
1178.000000	62.176728 
1177.000000	62.142944 
1176.000000	62.107062 
1175.000000	62.071347 
1174.000000	62.038064 
1173.000000	62.008595 
1172.000000	61.983537 
1171.000000	61.962890 
1170.000000	61.946511 
1169.000000	61.933660 
1168.000000	61.923742 
1167.000000	61.916351 
1166.000000	61.911654 
1165.000000	61.909770 
1164.000000	61.911416 
1163.000000	61.916923 
1162.000000	61.926841 
1161.000000	61.941123 
1160.000000	61.959719 
1159.000000	61.981868 
1158.000000	62.006902 
1157.000000	62.033843 
1156.000000	62.062096 
1155.000000	62.090945 
1154.000000	62.120246 
1153.000000	62.150192 
1152.000000	62.181258 
1151.000000	62.213993 
1150.000000	62.249112 
1149.000000	62.287211 
1148.000000	62.328600 
1147.000000	62.373328 
1146.000000	62.421011 
1145.000000	62.470650 
1144.000000	62.521076 
1143.000000	62.570762 
1142.000000	62.617969 
1141.000000	62.660527 
1140.000000	62.696862 
1139.000000	62.725305 
1138.000000	62.744784 
1137.000000	62.754487 
1136.000000	62.754583 
1135.000000	62.745428 
1134.000000	62.728118 
1133.000000	62.703633 
1132.000000	62.673473 
1131.000000	62.638640 
1130.000000	62.600517 
1129.000000	62.559986 
1128.000000	62.517976 
1127.000000	62.475252 
1126.000000	62.432956 
1125.000000	62.392067 
1124.000000	62.353539 
1123.000000	62.318515 
1122.000000	62.288355 
1121.000000	62.264084 
1120.000000	62.246203 
1119.000000	62.235140 
1118.000000	62.231111 
1117.000000	62.233710 
1116.000000	62.242150 
1115.000000	62.255501 
1114.000000	62.273097 
1113.000000	62.293863 
1112.000000	62.317085 
1111.000000	62.341952 
1110.000000	62.367916 
1109.000000	62.394070 
1108.000000	62.419271 
1107.000000	62.442183 
1106.000000	62.461185 
1105.000000	62.474799 
1104.000000	62.481856 
1103.000000	62.481975 
1102.000000	62.475609 
1101.000000	62.464523 
1100.000000	62.450504 
1099.000000	62.435221 
1098.000000	62.419581 
1097.000000	62.403869 
1096.000000	62.387156 
1095.000000	62.367963 
1094.000000	62.344813 
1093.000000	62.317156 
1092.000000	62.285280 
1091.000000	62.250828 
1090.000000	62.216544 
1089.000000	62.186050 
1088.000000	62.162947 
1087.000000	62.150049 
1086.000000	62.148857 
1085.000000	62.158942 
1084.000000	62.178063 
1083.000000	62.202382 
1082.000000	62.226986 
1081.000000	62.247228 
1080.000000	62.259650 
1079.000000	62.262868 
1078.000000	62.257456 
1077.000000	62.246274 
1076.000000	62.233638 
1075.000000	62.224364 
1074.000000	62.222576 
1073.000000	62.230658 
1072.000000	62.248945 
1071.000000	62.275576 
1070.000000	62.307167 
1069.000000	62.339591 
1068.000000	62.369275 
1067.000000	62.393760 
1066.000000	62.412285 
1065.000000	62.425518 
1064.000000	62.434959 
1063.000000	62.442326 
1062.000000	62.448787 
1061.000000	62.454557 
1060.000000	62.458729 
1059.000000	62.459969 
1058.000000	62.456655 
1057.000000	62.447714 
1056.000000	62.432670 
1055.000000	62.412428 
1054.000000	62.388658 
1053.000000	62.363839 
1052.000000	62.340283 
1051.000000	62.320065 
1050.000000	62.304568 
1049.000000	62.294387 
1048.000000	62.289142 
1047.000000	62.287855 
1046.000000	62.289142 
1045.000000	62.291574 
1044.000000	62.293863 
1043.000000	62.295126 
1042.000000	62.294912 
1041.000000	62.293171 
1040.000000	62.290453 
1039.000000	62.287425 
1038.000000	62.285065 
1037.000000	62.284278 
1036.000000	62.285876 
1035.000000	62.290048 
1034.000000	62.296843 
1033.000000	62.306022 
1032.000000	62.316989 
1031.000000	62.328958 
1030.000000	62.341380 
1029.000000	62.353730 
1028.000000	62.365698 
1027.000000	62.377262 
1026.000000	62.388610 
1025.000000	62.399959 
1024.000000	62.411522 
1023.000000	62.423253 
1022.000000	62.434864 
1021.000000	62.445855 
1020.000000	62.455654 
1019.000000	62.463855 
1018.000000	62.470221 
1017.000000	62.474775 
1016.000000	62.477993 
1015.000000	62.480473 
1014.000000	62.483024 
1013.000000	62.486219 
1012.000000	62.490272 
1011.000000	62.495017 
1010.000000	62.499761 
1009.000000	62.503552 
1008.000000	62.505292 
1007.000000	62.503910 
1006.000000	62.498688 
1005.000000	62.489438 
1004.000000	62.476587 
1003.000000	62.461018 
1002.000000	62.444162 
1001.000000	62.427496 
1000.000000	62.412714 
999.000000	 62.401175 
998.000000	 62.393999 
997.000000	 62.391734 
996.000000	 62.394309 
995.000000	 62.401080 
994.000000	 62.410831 
993.000000	 62.421941 
992.000000	 62.432718 
991.000000	 62.441658 
990.000000	 62.447619 
989.000000	 62.449812 
988.000000	 62.447881 
987.000000	 62.441778 
986.000000	 62.431716 
985.000000	 62.418055 
984.000000	 62.401652 
983.000000	 62.383651 
982.000000	 62.365651 
981.000000	 62.349557 
980.000000	 62.337160 
979.000000	 62.329888 
978.000000	 62.328457 
977.000000	 62.332892 
976.000000	 62.342166 
975.000000	 62.354588 
974.000000	 62.367916 
973.000000	 62.380170 
972.000000	 62.389683 
971.000000	 62.395668 
970.000000	 62.398076 
969.000000	 62.397623 
968.000000	 62.395381 
967.000000	 62.392497 
966.000000	 62.389874 
965.000000	 62.387919 
964.000000	 62.386584 
963.000000	 62.385416 
962.000000	 62.383866 
961.000000	 62.381219 
960.000000	 62.376809 
959.000000	 62.370204 
958.000000	 62.361574 
957.000000	 62.351727 
956.000000	 62.342071 
955.000000	 62.334632 
954.000000	 62.331604 
953.000000	 62.334537 
952.000000	 62.343883 
951.000000	 62.358856 
950.000000	 62.377285 
949.000000	 62.395739 
948.000000	 62.410354 
947.000000	 62.417840 
946.000000	 62.416052 
945.000000	 62.404441 
944.000000	 62.384176 
943.000000	 62.357878 
942.000000	 62.328767 
941.000000	 62.300229 
940.000000	 62.275099 
939.000000	 62.254953 
938.000000	 62.240839 
937.000000	 62.233209 
936.000000	 62.232494 
935.000000	 62.239146 
934.000000	 62.253665 
933.000000	 62.276315 
932.000000	 62.306666 
931.000000	 62.343287 
930.000000	 62.383699 
929.000000	 62.424826 
928.000000	 62.463474 
927.000000	 62.497091 
926.000000	 62.524437 
925.000000	 62.545633 
924.000000	 62.562346 
923.000000	 62.576961 
922.000000	 62.592077 
921.000000	 62.609267 
920.000000	 62.629079 
919.000000	 62.650036 
918.000000	 62.669539 
917.000000	 62.683820 
916.000000	 62.689685 
915.000000	 62.684679 
914.000000	 62.667965 
913.000000	 62.640500 
912.000000	 62.605047 
911.000000	 62.565279 
910.000000	 62.525296 
909.000000	 62.488746 
908.000000	 62.458038 
907.000000	 62.434434 
906.000000	 62.418007 
905.000000	 62.407755 
904.000000	 62.402200 
903.000000	 62.399816 
902.000000	 62.399435 
901.000000	 62.399983 
900.000000	 62.400627 
899.000000	 62.400698 
898.000000	 62.399506 
897.000000	 62.396144 
896.000000	 62.389945 
895.000000	 62.380623 
894.000000	 62.368965 
893.000000	 62.356376 
892.000000	 62.345314 
891.000000	 62.338805 
890.000000	 62.339758 
889.000000	 62.350225 
888.000000	 62.370634 
887.000000	 62.399506 
886.000000	 62.433195 
885.000000	 62.466692 
884.000000	 62.494206 
883.000000	 62.510132 
882.000000	 62.510466 
881.000000	 62.493753 
880.000000	 62.461352 
879.000000	 62.417078 
878.000000	 62.366867 
877.000000	 62.317299 
876.000000	 62.274193 
875.000000	 62.241435 
874.000000	 62.220478 
873.000000	 62.210369 
872.000000	 62.208533 
871.000000	 62.211656 
870.000000	 62.216615 
869.000000	 62.221360 
868.000000	 62.224864 
867.000000	 62.227344 
866.000000	 62.229156 
865.000000	 62.231040 
864.000000	 62.233185 
863.000000	 62.235975 
862.000000	 62.239432 
861.000000	 62.244248 
860.000000	 62.251877 
859.000000	 62.264370 
858.000000	 62.283897 
857.000000	 62.312006 
856.000000	 62.349009 
855.000000	 62.393164 
854.000000	 62.440586 
853.000000	 62.485885 
852.000000	 62.523174 
851.000000	 62.547469 
850.000000	 62.555813 
849.000000	 62.547826 
848.000000	 62.525725 
847.000000	 62.493920 
846.000000	 62.457776 
845.000000	 62.422370 
844.000000	 62.391400 
843.000000	 62.366890 
842.000000	 62.349200 
841.000000	 62.337565 
840.000000	 62.330508 
839.000000	 62.326622 
838.000000	 62.324976 
837.000000	 62.325239 
836.000000	 62.327027 
835.000000	 62.329673 
834.000000	 62.331843 
833.000000	 62.331271 
832.000000	 62.325620 
831.000000	 62.312674 
830.000000	 62.291669 
829.000000	 62.263679 
828.000000	 62.231826 
827.000000	 62.200689 
826.000000	 62.175440 
825.000000	 62.160634 
824.000000	 62.158894 
823.000000	 62.170338 
822.000000	 62.193036 
821.000000	 62.223696 
820.000000	 62.258434 
819.000000	 62.293386 
818.000000	 62.325549 
817.000000	 62.353014 
816.000000	 62.374567 
815.000000	 62.389492 
814.000000	 62.397313 
813.000000	 62.397718 
812.000000	 62.390804 
811.000000	 62.377214 
810.000000	 62.358522 
809.000000	 62.336850 
808.000000	 62.315225 
807.000000	 62.296414 
806.000000	 62.282848 
805.000000	 62.275624 
804.000000	 62.274503 
803.000000	 62.277889 
802.000000	 62.283396 
801.000000	 62.288188 
800.000000	 62.289714 
799.000000	 62.285900 
798.000000	 62.275457 
797.000000	 62.257862 
796.000000	 62.233281 
795.000000	 62.202501 
794.000000	 62.167000 
793.000000	 62.128853 
792.000000	 62.090706 
791.000000	 62.055611 
790.000000	 62.026190 
789.000000	 62.004661 
788.000000	 61.991930 
787.000000	 61.987543 
786.000000	 61.989641 
785.000000	 61.995005 
784.000000	 62.000274 
783.000000	 62.002706 
782.000000	 62.000679 
781.000000	 61.994099 
780.000000	 61.984062 
779.000000	 61.972260 
778.000000	 61.960172 
777.000000	 61.948418 
776.000000	 61.936450 
775.000000	 61.922931 
774.000000	 61.906099 
773.000000	 61.884808 
772.000000	 61.858701 
771.000000	 61.828732 
770.000000	 61.796998 
769.000000	 61.766505 
768.000000	 61.740541 
767.000000	 61.721920 
766.000000	 61.712694 
765.000000	 61.713671 
764.000000	 61.724495 
763.000000	 61.743712 
762.000000	 61.769175 
761.000000	 61.798095 
760.000000	 61.827564 
759.000000	 61.854386 
758.000000	 61.875581 
757.000000	 61.888861 
756.000000	 61.892485 
755.000000	 61.886096 
754.000000	 61.870551 
753.000000	 61.847710 
752.000000	 61.820340 
751.000000	 61.791658 
750.000000	 61.764860 
749.000000	 61.742901 
748.000000	 61.728310 
747.000000	 61.723160 
746.000000	 61.728739 
745.000000	 61.745476 
744.000000	 61.772847 
743.000000	 61.809110 
742.000000	 61.851453 
741.000000	 61.896228 
740.000000	 61.939334 
739.000000	 61.976647 
738.000000	 62.004542 
737.000000	 62.020564 
736.000000	 62.023401 
735.000000	 62.013769 
734.000000	 61.993598 
733.000000	 61.965775 
732.000000	 61.933565 
731.000000	 61.900544 
730.000000	 61.869549 
729.000000	 61.842846 
728.000000	 61.821413 
727.000000	 61.805725 
726.000000	 61.795163 
725.000000	 61.788296 
724.000000	 61.783432 
723.000000	 61.778688 
722.000000	 61.772608 
721.000000	 61.764097 
720.000000	 61.752629 
719.000000	 61.738395 
718.000000	 61.721658 
717.000000	 61.702585 
716.000000	 61.680912 
715.000000	 61.656093 
714.000000	 61.627864 
713.000000	 61.596870 
712.000000	 61.564493 
711.000000	 61.533355 
710.000000	 61.507391 
709.000000	 61.491370 
708.000000	 61.489057 
707.000000	 61.503148 
706.000000	 61.534619 
705.000000	 61.582684 
704.000000	 61.644029 
703.000000	 61.714124 
702.000000	 61.787414 
701.000000	 61.858892 
700.000000	 61.924624 
699.000000	 61.982369 
698.000000	 62.031292 
697.000000	 62.072014 
696.000000	 62.106418 
695.000000	 62.135982 
694.000000	 62.161636 
693.000000	 62.182664 
692.000000	 62.197422 
691.000000	 62.203407 
690.000000	 62.198615 
689.000000	 62.181162 
688.000000	 62.150001 
687.000000	 62.105393 
686.000000	 62.048625 
685.000000	 61.981272 
684.000000	 61.904931 
683.000000	 61.821222 
682.000000	 61.731886 
681.000000	 61.638593 
680.000000	 61.543798 
679.000000	 61.450362 
678.000000	 61.362576 
677.000000	 61.284947 
676.000000	 61.223220 
675.000000	 61.182308 
674.000000	 61.167097 
673.000000	 61.180472 
672.000000	 61.223411 
671.000000	 61.293983 
670.000000	 61.386775 
669.000000	 61.493492 
668.000000	 61.602139 
667.000000	 61.698651 
666.000000	 61.767840 
665.000000	 61.796331 
664.000000	 61.774039 
663.000000	 61.696505 
662.000000	 61.566329 
661.000000	 61.393594 
660.000000	 61.193871 
659.000000	 60.985875 
658.000000	 60.788750 
657.000000	 60.618782 
656.000000	 60.487341 
655.000000	 60.399699 
654.000000	 60.354542 
653.000000	 60.346293 
652.000000	 60.366559 
651.000000	 60.407781 
650.000000	 60.462713 
649.000000	 60.527992 
648.000000	 60.601186 
647.000000	 60.683155 
646.000000	 60.774111 
645.000000	 60.874819 
644.000000	 60.983586 
643.000000	 61.097574 
642.000000	 61.213135 
641.000000	 61.325502 
640.000000	 61.429643 
639.000000	 61.521530 
638.000000	 61.598968 
637.000000	 61.662340 
636.000000	 61.714363 
635.000000	 61.759400 
634.000000	 61.802053 
633.000000	 61.845302 
632.000000	 61.888527 
631.000000	 61.927604 
630.000000	 61.954522 
629.000000	 61.958479 
628.000000	 61.928224 
627.000000	 61.856055 
626.000000	 61.740326 
625.000000	 61.585998 
624.000000	 61.406135 
623.000000	 61.219120 
622.000000	 61.047267 
621.000000	 60.911583 
620.000000	 60.829734 
619.000000	 60.810995 
618.000000	 60.857510 
617.000000	 60.964345 
616.000000	 61.120820 
615.000000	 61.311650 
614.000000	 61.519956 
613.000000	 61.729049 
612.000000	 61.923718 
611.000000	 62.090420 
610.000000	 62.219357 
609.000000	 62.304425 
608.000000	 62.344455 
607.000000	 62.342858 
606.000000	 62.307906 
605.000000	 62.251186 
604.000000	 62.186169 
603.000000	 62.125396 
602.000000	 62.079191 
601.000000	 62.053132 
600.000000	 62.048482 
599.000000	 62.061119 
598.000000	 62.083482 
597.000000	 62.105464 
596.000000	 62.118291 
595.000000	 62.114620 
594.000000	 62.089538 
593.000000	 62.040925 
592.000000	 61.968946 
591.000000	 61.876535 
590.000000	 61.768198 
589.000000	 61.650896 
588.000000	 61.532711 
587.000000	 61.423945 
586.000000	 61.336064 
585.000000	 61.279988 
584.000000	 61.263680 
583.000000	 61.290955 
582.000000	 61.360216 
581.000000	 61.462092 
580.000000	 61.580538 
579.000000	 61.694717 
578.000000	 61.783838 
577.000000	 61.830472 
576.000000	 61.826157 
575.000000	 61.773681 
574.000000	 61.688065 
573.000000	 61.594414 
572.000000	 61.521530 
571.000000	 61.495423 
570.000000	 61.531043 
569.000000	 61.630749 
568.000000	 61.779952 
567.000000	 61.952066 
566.000000	 62.112331 
565.000000	 62.227272 
564.000000	 62.270832 
563.000000	 62.231397 
562.000000	 62.112665 
561.000000	 61.932015 
560.000000	 61.715841 
559.000000	 61.492633 
558.000000	 61.287379 
557.000000	 61.116766 
556.000000	 60.989022 
555.000000	 60.904812 
554.000000	 60.860157 
553.000000	 60.850024 
552.000000	 60.869717 
551.000000	 60.916924 
550.000000	 60.989403 
549.000000	 61.085605 
548.000000	 61.203384 
547.000000	 61.339902 
546.000000	 61.490440 
545.000000	 61.648392 
544.000000	 61.806201 
543.000000	 61.954450 
542.000000	 62.084364 
541.000000	 62.185835 
540.000000	 62.250232 
539.000000	 62.269473 
538.000000	 62.239623 
537.000000	 62.159681 
536.000000	 62.034440 
535.000000	 61.872339 
534.000000	 61.686420 
533.000000	 61.490941 
532.000000	 61.300706 
531.000000	 61.127614 
530.000000	 60.979938 
529.000000	 60.860872 
528.000000	 60.769248 
527.000000	 60.701298 
526.000000	 60.652565 
525.000000	 60.618448 
524.000000	 60.595440 
523.000000	 60.581207 
522.000000	 60.575342 
521.000000	 60.578560 
520.000000	 60.592889 
519.000000	 60.619688 
518.000000	 60.659551 
517.000000	 60.711789 
516.000000	 60.773944 
515.000000	 60.841751 
514.000000	 60.908913 
513.000000	 60.968732 
512.000000	 61.013865 
511.000000	 61.037707 
510.000000	 61.035394 
509.000000	 61.005139 
508.000000	 60.948586 
507.000000	 60.870766 
506.000000	 60.780048 
505.000000	 60.686945 
504.000000	 60.602736 
503.000000	 60.537981 
502.000000	 60.500407 
501.000000	 60.493493 
500.000000	 60.516595 
499.000000	 60.565233 
498.000000	 60.630011 
497.000000	 60.698699 
496.000000	 60.758519 
495.000000	 60.799336 
494.000000	 60.815262 
493.000000	 60.806679 
492.000000	 60.778999 
491.000000	 60.741782 
490.000000	 60.706782 
489.000000	 60.684394 
488.000000	 60.680842 
487.000000	 60.696506 
486.000000	 60.727667 
485.000000	 60.765504 
484.000000	 60.800361 
483.000000	 60.821461 
482.000000	 60.820031 
481.000000	 60.789966 
480.000000	 60.729289 
479.000000	 60.640382 
478.000000	 60.528326 
477.000000	 60.402941 
476.000000	 60.276269 
475.000000	 60.163927 
474.000000	 60.082197 
473.000000	 60.046792 
472.000000	 60.069036 
471.000000	 60.151767 
470.000000	 60.286855 
469.000000	 60.454893 
468.000000	 60.627460 
467.000000	 60.771942 
466.000000	 60.857367 
465.000000	 60.860824 
464.000000	 60.771870 
463.000000	 60.592579 
462.000000	 60.339212 
461.000000	 60.037565 
460.000000	 59.721422 
459.000000	 59.425950 
458.000000	 59.184217 
457.000000	 59.023475 
456.000000	 58.960461 
455.000000	 59.000396 
454.000000	 59.134531 
453.000000	 59.340405 
452.000000	 59.587597 
451.000000	 59.842324 
450.000000	 60.073494 
449.000000	 60.255885 
448.000000	 60.375833 
447.000000	 60.431289 
446.000000	 60.431742 
445.000000	 60.394096 
444.000000	 60.338568 
443.000000	 60.283660 
442.000000	 60.242581 
441.000000	 60.221910 
440.000000	 60.221600 
439.000000	 60.238051 
438.000000	 60.268688 
437.000000	 60.314178 
436.000000	 60.378265 
435.000000	 60.466527 
434.000000	 60.587620 
433.000000	 60.743713 
432.000000	 60.928940 
431.000000	 61.123228 
430.000000	 61.295771 
429.000000	 61.407709 
428.000000	 61.423635 
427.000000	 61.317348 
426.000000	 61.078715 
425.000000	 60.720872 
424.000000	 60.280776 
423.000000	 59.811997 
422.000000	 59.375119 
421.000000	 59.023952 
420.000000	 58.793640 
419.000000	 58.696436 
418.000000	 58.722162 
417.000000	 58.831906 
416.000000	 58.972167 
415.000000	 59.090924 
414.000000	 59.157156 
413.000000	 59.168052 
412.000000	 59.155726 
411.000000	 59.177875 
410.000000	 59.301400 
409.000000	 59.588170 
408.000000	 60.065889 
407.000000	 60.711002 
406.000000	 61.444664 
405.000000	 62.168192 
404.000000	 62.757945 
403.000000	 63.093161 
402.000000	 63.077569 
401.000000	 62.670660 
400.000000	 61.888194 
399.000000	 60.791063 
398.000000	 59.496212 
397.000000	 58.148145 
396.000000	 56.922554 
395.000000	 55.998444 
394.000000	 55.534863 
393.000000	 55.640983 
392.000000	 56.369066 
391.000000	 57.699656 
390.000000	 59.552049 
389.000000	 61.786794 
388.000000	 64.210629 
387.000000	 66.592860 
386.000000	 68.700432 
385.000000	 70.311260 
384.000000	 71.263504 
383.000000	 71.441936 
382.000000	 70.805954 
381.000000	 69.353389 
380.000000	 67.157840 
379.000000	 64.309287 
378.000000	 60.925483 
377.000000	 57.128596 
376.000000	 53.073000 
375.000000	 48.937082 
374.000000	 44.897150 
373.000000	 41.188788 
372.000000	 38.046860 
371.000000	 35.777854 
370.000000	 34.709072 

