PE IR       SPECTRUM    SPECTRUM    ASCII       PEDS        1.60        
  -1
BZ4CFB~1.ASC
17/04/07
22:43:44.00
17/04/07
22:43:44.00
tln
$BZ1503107-1_t0115$<tbV0>[2.6,13.0,8.0,0.0,27,1,0]
370.000000
64









2002,4.07    
MIRTGS : RIGHTBACK : INTERNAL 2
MIR : ON : INTERNAL 2
OPTKBR

0.200000
8
8.000000
FILLER
RATIO
SPECTRUM
UNLOCKED 256

DOUBLE
64
COMBINED
1
0
0


1.000000
RATIO


1
0
TRUE
51149
0
LEFT NOT FITTED RIGHT NOT FITTED 0
NONE
NONE
15600
12.000000
4.427000
51148
TRUE
1 0 8 72 0 0 0 0 

15798.010000






#HDR
-1
-1
#GR
CM-1
%T
0.00002384185791015625
0.0
5000.000000
-1.000000
4631
8
68.015837
40.617179
#DATA
5000.000000	65.996241 
4999.000000	65.698933 
4998.000000	65.399932 
4997.000000	65.132212 
4996.000000	64.930486 
4995.000000	64.822196 
4994.000000	64.823007 
4993.000000	64.930438 
4992.000000	65.126490 
4991.000000	65.380716 
4990.000000	65.656304 
4989.000000	65.917134 
4988.000000	66.132974 
4987.000000	66.283273 
4986.000000	66.357922 
4985.000000	66.356039 
4984.000000	66.284942 
4983.000000	66.157078 
4982.000000	65.987110 
4981.000000	65.789628 
4980.000000	65.580177 
4979.000000	65.373778 
4978.000000	65.184783 
4977.000000	65.025568 
4976.000000	64.906835 
4975.000000	64.835643 
4974.000000	64.813399 
4973.000000	64.836120 
4972.000000	64.893078 
4971.000000	64.970803 
4970.000000	65.052652 
4969.000000	65.126276 
4968.000000	65.181708 
4967.000000	65.218949 
4966.000000	65.244865 
4965.000000	65.274477 
4964.000000	65.325307 
4963.000000	65.413498 
4962.000000	65.549826 
4961.000000	65.733051 
4960.000000	65.949392 
4959.000000	66.172695 
4958.000000	66.370081 
4957.000000	66.509747 
4956.000000	66.568779 
4955.000000	66.538238 
4954.000000	66.425180 
4953.000000	66.249966 
4952.000000	66.040706 
4951.000000	65.827107 
4950.000000	65.633201 
4949.000000	65.473294 
4948.000000	65.350055 
4947.000000	65.258526 
4946.000000	65.189003 
4945.000000	65.131473 
4944.000000	65.080499 
4943.000000	65.035605 
4942.000000	65.003514 
4941.000000	64.992809 
4940.000000	65.013742 
4939.000000	65.071177 
4938.000000	65.165495 
4937.000000	65.290904 
4936.000000	65.435910 
4935.000000	65.585446 
4934.000000	65.722703 
4933.000000	65.832662 
4932.000000	65.903687 
4931.000000	65.929150 
4930.000000	65.910077 
4929.000000	65.854692 
4928.000000	65.777087 
4927.000000	65.694022 
4926.000000	65.621829 
4925.000000	65.572500 
4924.000000	65.551328 
4923.000000	65.555882 
4922.000000	65.577507 
4921.000000	65.604281 
4920.000000	65.625190 
4919.000000	65.633058 
4918.000000	65.625691 
4917.000000	65.606713 
4916.000000	65.584063 
4915.000000	65.567183 
4914.000000	65.562772 
4913.000000	65.573334 
4912.000000	65.595912 
4911.000000	65.623211 
4910.000000	65.646553 
4909.000000	65.657329 
4908.000000	65.650534 
4907.000000	65.624213 
4906.000000	65.580248 
4905.000000	65.522217 
4904.000000	65.454101 
4903.000000	65.380644 
4902.000000	65.306735 
4901.000000	65.237164 
4900.000000	65.176153 
4899.000000	65.127372 
4898.000000	65.093541 
4897.000000	65.075230 
4896.000000	65.071439 
4895.000000	65.078306 
4894.000000	65.091419 
4893.000000	65.106248 
4892.000000	65.120244 
4891.000000	65.132832 
4890.000000	65.146040 
4889.000000	65.163612 
4888.000000	65.189170 
4887.000000	65.224385 
4886.000000	65.267491 
4885.000000	65.313100 
4884.000000	65.353107 
4883.000000	65.378785 
4882.000000	65.382909 
4881.000000	65.362620 
4880.000000	65.318679 
4879.000000	65.255594 
4878.000000	65.179848 
4877.000000	65.098237 
4876.000000	65.016317 
4875.000000	64.937639 
4874.000000	64.864230 
4873.000000	64.797329 
4872.000000	64.738154 
4871.000000	64.689064 
4870.000000	64.653706 
4869.000000	64.637017 
4868.000000	64.643859 
4867.000000	64.678001 
4866.000000	64.740109 
4865.000000	64.827489 
4864.000000	64.933562 
4863.000000	65.049290 
4862.000000	65.164303 
4861.000000	65.268778 
4860.000000	65.355348 
4859.000000	65.419840 
4858.000000	65.461611 
4857.000000	65.482878 
4856.000000	65.488171 
4855.000000	65.482187 
4854.000000	65.469217 
4853.000000	65.452218 
4852.000000	65.433287 
4851.000000	65.413546 
4850.000000	65.394043 
4849.000000	65.375995 
4848.000000	65.361285 
4847.000000	65.351939 
4846.000000	65.349555 
4845.000000	65.353965 
4844.000000	65.363216 
4843.000000	65.373086 
4842.000000	65.378522 
4841.000000	65.374350 
4840.000000	65.357422 
4839.000000	65.327596 
4838.000000	65.288472 
4837.000000	65.246438 
4836.000000	65.209579 
4835.000000	65.185379 
4834.000000	65.178489 
4833.000000	65.189766 
4832.000000	65.214896 
4831.000000	65.245747 
4830.000000	65.271258 
4829.000000	65.280580 
4828.000000	65.265154 
4827.000000	65.220880 
4826.000000	65.149307 
4825.000000	65.057325 
4824.000000	64.955711 
4823.000000	64.856529 
4822.000000	64.770197 
4821.000000	64.703321 
4820.000000	64.657473 
4819.000000	64.629769 
4818.000000	64.614081 
4817.000000	64.603495 
4816.000000	64.592432 
4815.000000	64.578509 
4814.000000	64.562749 
4813.000000	64.549660 
4812.000000	64.544153 
4811.000000	64.551162 
4810.000000	64.572548 
4809.000000	64.607834 
4808.000000	64.652943 
4807.000000	64.702820 
4806.000000	64.752984 
4805.000000	64.800786 
4804.000000	64.846277 
4803.000000	64.891767 
4802.000000	64.940142 
4801.000000	64.993691 
4800.000000	65.052390 
4799.000000	65.113830 
4798.000000	65.173482 
4797.000000	65.226125 
4796.000000	65.267515 
4795.000000	65.294909 
4794.000000	65.307736 
4793.000000	65.307569 
4792.000000	65.297532 
4791.000000	65.280604 
4790.000000	65.258717 
4789.000000	65.233016 
4788.000000	65.203595 
4787.000000	65.170240 
4786.000000	65.132570 
4785.000000	65.091490 
4784.000000	65.048670 
4783.000000	65.006709 
4782.000000	64.968109 
4781.000000	64.934420 
4780.000000	64.906167 
4779.000000	64.882516 
4778.000000	64.862036 
4777.000000	64.842629 
4776.000000	64.823246 
4775.000000	64.804100 
4774.000000	64.787054 
4773.000000	64.774346 
4772.000000	64.769172 
4771.000000	64.774441 
4770.000000	64.792156 
4769.000000	64.822411 
4768.000000	64.863586 
4767.000000	64.912605 
4766.000000	64.965343 
4765.000000	65.017437 
4764.000000	65.065288 
4763.000000	65.106463 
4762.000000	65.140223 
4761.000000	65.166974 
4760.000000	65.187692 
4759.000000	65.203547 
4758.000000	65.215706 
4757.000000	65.224814 
4756.000000	65.231299 
4755.000000	65.234661 
4754.000000	65.235042 
4753.000000	65.231513 
4752.000000	65.222787 
4751.000000	65.207123 
4750.000000	65.182924 
4749.000000	65.149378 
4748.000000	65.106725 
4747.000000	65.057063 
4746.000000	65.004253 
4745.000000	64.953684 
4744.000000	64.911317 
4743.000000	64.882063 
4742.000000	64.868617 
4741.000000	64.870929 
4740.000000	64.886379 
4739.000000	64.910244 
4738.000000	64.937019 
4737.000000	64.962649 
4736.000000	64.985442 
4735.000000	65.006184 
4734.000000	65.027427 
4733.000000	65.052056 
4732.000000	65.081834 
4731.000000	65.115666 
4730.000000	65.150189 
4729.000000	65.180611 
4728.000000	65.202403 
4727.000000	65.213179 
4726.000000	65.213251 
4725.000000	65.206170 
4724.000000	65.196919 
4723.000000	65.191221 
4722.000000	65.192294 
4721.000000	65.200161 
4720.000000	65.210652 
4719.000000	65.217113 
4718.000000	65.211272 
4717.000000	65.186142 
4716.000000	65.137934 
4715.000000	65.067863 
4714.000000	64.981722 
4713.000000	64.888834 
4712.000000	64.800071 
4711.000000	64.725518 
4710.000000	64.672589 
4709.000000	64.644646 
4708.000000	64.640831 
4707.000000	64.656639 
4706.000000	64.685297 
4705.000000	64.719462 
4704.000000	64.751958 
4703.000000	64.777708 
4702.000000	64.793682 
4701.000000	64.799952 
4700.000000	64.798021 
4699.000000	64.791202 
4698.000000	64.783000 
4697.000000	64.777040 
4696.000000	64.775991 
4695.000000	64.781451 
4694.000000	64.793777 
4693.000000	64.812254 
4692.000000	64.835548 
4691.000000	64.861893 
4690.000000	64.889550 
4689.000000	64.917135 
4688.000000	64.943766 
4687.000000	64.969134 
4686.000000	64.993071 
4685.000000	65.015673 
4684.000000	65.036845 
4683.000000	65.055799 
4682.000000	65.071082 
4681.000000	65.081167 
4680.000000	65.084767 
4679.000000	65.080881 
4678.000000	65.069293 
4677.000000	65.051102 
4676.000000	65.028524 
4675.000000	65.004444 
4674.000000	64.982175 
4673.000000	64.964771 
4672.000000	64.954495 
4671.000000	64.952683 
4670.000000	64.959335 
4669.000000	64.973545 
4668.000000	64.993500 
4667.000000	65.016698 
4666.000000	65.040349 
4665.000000	65.061569 
4664.000000	65.077877 
4663.000000	65.087342 
4662.000000	65.089297 
4661.000000	65.084028 
4660.000000	65.074014 
4659.000000	65.063428 
4658.000000	65.057516 
4657.000000	65.061259 
4656.000000	65.078258 
4655.000000	65.109467 
4654.000000	65.152239 
4653.000000	65.200948 
4652.000000	65.247726 
4651.000000	65.284895 
4650.000000	65.306353 
4649.000000	65.310144 
4648.000000	65.298509 
4647.000000	65.277981 
4646.000000	65.257787 
4645.000000	65.247488 
4644.000000	65.254521 
4643.000000	65.281844 
4642.000000	65.327906 
4641.000000	65.385937 
4640.000000	65.446305 
4639.000000	65.498042 
4638.000000	65.531945 
4637.000000	65.541720 
4636.000000	65.525293 
4635.000000	65.484690 
4634.000000	65.425372 
4633.000000	65.354776 
4632.000000	65.281128 
4631.000000	65.211987 
4630.000000	65.153312 
4629.000000	65.109348 
4628.000000	65.082502 
4627.000000	65.073227 
4626.000000	65.080738 
4625.000000	65.103077 
4624.000000	65.137982 
4623.000000	65.182423 
4622.000000	65.233540 
4621.000000	65.288329 
4620.000000	65.344285 
4619.000000	65.398979 
4618.000000	65.450334 
4617.000000	65.496492 
4616.000000	65.535640 
4615.000000	65.566253 
4614.000000	65.587043 
4613.000000	65.597414 
4612.000000	65.597724 
4611.000000	65.589761 
4610.000000	65.576386 
4609.000000	65.561556 
4608.000000	65.549325 
4607.000000	65.543222 
4606.000000	65.544867 
4605.000000	65.553593 
4604.000000	65.566468 
4603.000000	65.578985 
4602.000000	65.585780 
4601.000000	65.582418 
4600.000000	65.566778 
4599.000000	65.540027 
4598.000000	65.506052 
4597.000000	65.471220 
4596.000000	65.442967 
4595.000000	65.427923 
4594.000000	65.430068 
4593.000000	65.449810 
4592.000000	65.483951 
4591.000000	65.526342 
4590.000000	65.569400 
4589.000000	65.605401 
4588.000000	65.628075 
4587.000000	65.633869 
4586.000000	65.622091 
4585.000000	65.595197 
4584.000000	65.557479 
4583.000000	65.515351 
4582.000000	65.475726 
4581.000000	65.445446 
4580.000000	65.429854 
4579.000000	65.432095 
4578.000000	65.452718 
4577.000000	65.489149 
4576.000000	65.536594 
4575.000000	65.588450 
4574.000000	65.638375 
4573.000000	65.681242 
4572.000000	65.715217 
4571.000000	65.742206 
4570.000000	65.767502 
4569.000000	65.798330 
4568.000000	65.841531 
4567.000000	65.901374 
4566.000000	65.977787 
4565.000000	66.066002 
4564.000000	66.157507 
4563.000000	66.242194 
4562.000000	66.310620 
4561.000000	66.357374 
4560.000000	66.380691 
4559.000000	66.383242 
4558.000000	66.369843 
4557.000000	66.346168 
4556.000000	66.316723 
4555.000000	66.284084 
4554.000000	66.248774 
4553.000000	66.210198 
4552.000000	66.168093 
4551.000000	66.123795 
4550.000000	66.080856 
4549.000000	66.044616 
4548.000000	66.020631 
4547.000000	66.013097 
4546.000000	66.022610 
4545.000000	66.045713 
4544.000000	66.074776 
4543.000000	66.100192 
4542.000000	66.112041 
4541.000000	66.103839 
4540.000000	66.073846 
4539.000000	66.026639 
4538.000000	65.971589 
4537.000000	65.921139 
4536.000000	65.887641 
4535.000000	65.880346 
4534.000000	65.903186 
4533.000000	65.953302 
4532.000000	66.022491 
4531.000000	66.098237 
4530.000000	66.167426 
4529.000000	66.218662 
4528.000000	66.244792 
4527.000000	66.244006 
4526.000000	66.219377 
4525.000000	66.177463 
4524.000000	66.126132 
4523.000000	66.073179 
4522.000000	66.024661 
4521.000000	65.984845 
4520.000000	65.955901 
4519.000000	65.938997 
4518.000000	65.934514 
4517.000000	65.942215 
4516.000000	65.961575 
4515.000000	65.990853 
4514.000000	66.027951 
4513.000000	66.069483 
4512.000000	66.112351 
4511.000000	66.153573 
4510.000000	66.191267 
4509.000000	66.224336 
4508.000000	66.252875 
4507.000000	66.277623 
4506.000000	66.300058 
4505.000000	66.322064 
4504.000000	66.345119 
4503.000000	66.370558 
4502.000000	66.397833 
4501.000000	66.424608 
4500.000000	66.447186 
4499.000000	66.461658 
4498.000000	66.465258 
4497.000000	66.457247 
4496.000000	66.439318 
4495.000000	66.415095 
4494.000000	66.387128 
4493.000000	66.356611 
4492.000000	66.323018 
4491.000000	66.285395 
4490.000000	66.243124 
4489.000000	66.198015 
4488.000000	66.155552 
4487.000000	66.124081 
4486.000000	66.113543 
4485.000000	66.131830 
4484.000000	66.181015 
4483.000000	66.256570 
4482.000000	66.347622 
4481.000000	66.439580 
4480.000000	66.515779 
4479.000000	66.564178 
4478.000000	66.580748 
4477.000000	66.570281 
4476.000000	66.545128 
4475.000000	66.521072 
4474.000000	66.512870 
4473.000000	66.528868 
4472.000000	66.567444 
4471.000000	66.624498 
4470.000000	66.696524 
4469.000000	66.779804 
4468.000000	66.871643 
4467.000000	66.977071 
4466.000000	67.105317 
4465.000000	67.257499 
4464.000000	67.425727 
4463.000000	67.601132 
4462.000000	67.768716 
4461.000000	67.908525 
4460.000000	67.997264 
4459.000000	68.015837 
4458.000000	67.950868 
4457.000000	67.797732 
4456.000000	67.563605 
4455.000000	67.268252 
4454.000000	66.941618 
4453.000000	66.622233 
4452.000000	66.346096 
4451.000000	66.141510 
4450.000000	66.019535 
4449.000000	65.978693 
4448.000000	65.990352 
4447.000000	66.005158 
4446.000000	65.960264 
4445.000000	65.795707 
4444.000000	65.451264 
4443.000000	64.876794 
4442.000000	64.042377 
4441.000000	62.942671 
4440.000000	61.585903 
4439.000000	59.997272 
4438.000000	58.218955 
4437.000000	56.314921 
4436.000000	54.367399 
4435.000000	52.478456 
4434.000000	50.760340 
4433.000000	49.325633 
4432.000000	48.262381 
4431.000000	47.628259 
4430.000000	47.421073 
4429.000000	47.601151 
4428.000000	48.077178 
4427.000000	48.752951 
4426.000000	49.518036 
4425.000000	50.304722 
4424.000000	51.075100 
4423.000000	51.848602 
4422.000000	52.668595 
4421.000000	53.602600 
4420.000000	54.703617 
4419.000000	56.001329 
4418.000000	57.482504 
4417.000000	59.094429 
4416.000000	60.751056 
4415.000000	62.356400 
4414.000000	63.821601 
4413.000000	65.076828 
4412.000000	66.078948 
4411.000000	66.819310 
4410.000000	67.315554 
4409.000000	67.601609 
4408.000000	67.715525 
4407.000000	67.709445 
4406.000000	67.627596 
4405.000000	67.509651 
4404.000000	67.378282 
4403.000000	67.261648 
4402.000000	67.171669 
4401.000000	67.112088 
4400.000000	67.073488 
4399.000000	67.043209 
4398.000000	67.004156 
4397.000000	66.941070 
4396.000000	66.844820 
4395.000000	66.712427 
4394.000000	66.554355 
4393.000000	66.393804 
4392.000000	66.256713 
4391.000000	66.162967 
4390.000000	66.126799 
4389.000000	66.153383 
4388.000000	66.231989 
4387.000000	66.338968 
4386.000000	66.449761 
4385.000000	66.544604 
4384.000000	66.607189 
4383.000000	66.630077 
4382.000000	66.619896 
4381.000000	66.592669 
4380.000000	66.562819 
4379.000000	66.542220 
4378.000000	66.538476 
4377.000000	66.552925 
4376.000000	66.581344 
4375.000000	66.616106 
4374.000000	66.650319 
4373.000000	66.678619 
4372.000000	66.700482 
4371.000000	66.717553 
4370.000000	66.732573 
4369.000000	66.746973 
4368.000000	66.759824 
4367.000000	66.766357 
4366.000000	66.758894 
4365.000000	66.729092 
4364.000000	66.671109 
4363.000000	66.582894 
4362.000000	66.467809 
4361.000000	66.334772 
4360.000000	66.197037 
4359.000000	66.069316 
4358.000000	65.964794 
4357.000000	65.892887 
4356.000000	65.857386 
4355.000000	65.856146 
4354.000000	65.881872 
4353.000000	65.923380 
4352.000000	65.968585 
4351.000000	66.007113 
4350.000000	66.032338 
4349.000000	66.041040 
4348.000000	66.034412 
4347.000000	66.015839 
4346.000000	65.990638 
4345.000000	65.963435 
4344.000000	65.938305 
4343.000000	65.918040 
4342.000000	65.904545 
4341.000000	65.898990 
4340.000000	65.902400 
4339.000000	65.916061 
4338.000000	65.940904 
4337.000000	65.977120 
4336.000000	66.023564 
4335.000000	66.077470 
4334.000000	66.134524 
4333.000000	66.189479 
4332.000000	66.237115 
4331.000000	66.273236 
4330.000000	66.295957 
4329.000000	66.305565 
4328.000000	66.304230 
4327.000000	66.294693 
4326.000000	66.280293 
4325.000000	66.262936 
4324.000000	66.243028 
4323.000000	66.219115 
4322.000000	66.189312 
4321.000000	66.151762 
4320.000000	66.106414 
4319.000000	66.055130 
4318.000000	66.001939 
4317.000000	65.952062 
4316.000000	65.910720 
4315.000000	65.881705 
4314.000000	65.866422 
4313.000000	65.863251 
4312.000000	65.867805 
4311.000000	65.874338 
4310.000000	65.877008 
4309.000000	65.871524 
4308.000000	65.855956 
4307.000000	65.830969 
4306.000000	65.799522 
4305.000000	65.765762 
4304.000000	65.733933 
4303.000000	65.706992 
4302.000000	65.685987 
4301.000000	65.670371 
4300.000000	65.658211 
4299.000000	65.647006 
4298.000000	65.634608 
4297.000000	65.619754 
4296.000000	65.602755 
4295.000000	65.584850 
4294.000000	65.568494 
4293.000000	65.556335 
4292.000000	65.551161 
4291.000000	65.554785 
4290.000000	65.568304 
4289.000000	65.591597 
4288.000000	65.623497 
4287.000000	65.661859 
4286.000000	65.703701 
4285.000000	65.745425 
4284.000000	65.783429 
4283.000000	65.814661 
4282.000000	65.836882 
4281.000000	65.848970 
4280.000000	65.851116 
4279.000000	65.844607 
4278.000000	65.831542 
4277.000000	65.814065 
4276.000000	65.794253 
4275.000000	65.773510 
4274.000000	65.752649 
4273.000000	65.731906 
4272.000000	65.711426 
4271.000000	65.691280 
4270.000000	65.671491 
4269.000000	65.652108 
4268.000000	65.632939 
4267.000000	65.613746 
4266.000000	65.593695 
4265.000000	65.572142 
4264.000000	65.548229 
4263.000000	65.522265 
4262.000000	65.495491 
4261.000000	65.470409 
4260.000000	65.450048 
4259.000000	65.437626 
4258.000000	65.435481 
4257.000000	65.444231 
4256.000000	65.462088 
4255.000000	65.485358 
4254.000000	65.509414 
4253.000000	65.529274 
4252.000000	65.541005 
4251.000000	65.542674 
4250.000000	65.534830 
4249.000000	65.520000 
4248.000000	65.501976 
4247.000000	65.484738 
4246.000000	65.471458 
4245.000000	65.464067 
4244.000000	65.463018 
4243.000000	65.467309 
4242.000000	65.475010 
4241.000000	65.484690 
4240.000000	65.494990 
4239.000000	65.505099 
4238.000000	65.514206 
4237.000000	65.521550 
4236.000000	65.525841 
4235.000000	65.525197 
4234.000000	65.517449 
4233.000000	65.500712 
4232.000000	65.473651 
4231.000000	65.436124 
4230.000000	65.389418 
4229.000000	65.336322 
4228.000000	65.280818 
4227.000000	65.227389 
4226.000000	65.180087 
4225.000000	65.142107 
4224.000000	65.115404 
4223.000000	65.100693 
4222.000000	65.097403 
4221.000000	65.104579 
4220.000000	65.121316 
4219.000000	65.147495 
4218.000000	65.182924 
4217.000000	65.227484 
4216.000000	65.280532 
4215.000000	65.340328 
4214.000000	65.403509 
4213.000000	65.465235 
4212.000000	65.519714 
4211.000000	65.561318 
4210.000000	65.585756 
4209.000000	65.591192 
4208.000000	65.579175 
4207.000000	65.553975 
4206.000000	65.522241 
4205.000000	65.490651 
4204.000000	65.464663 
4203.000000	65.446996 
4202.000000	65.437626 
4201.000000	65.433716 
4200.000000	65.430903 
4199.000000	65.424776 
4198.000000	65.412187 
4197.000000	65.391635 
4196.000000	65.363430 
4195.000000	65.328931 
4194.000000	65.290164 
4193.000000	65.248584 
4192.000000	65.205311 
4191.000000	65.160870 
4190.000000	65.115976 
4189.000000	65.072345 
4188.000000	65.032529 
4187.000000	65.000152 
4186.000000	64.978647 
4185.000000	64.970254 
4184.000000	64.975428 
4183.000000	64.991450 
4182.000000	65.014195 
4181.000000	65.038442 
4180.000000	65.059757 
4179.000000	65.075254 
4178.000000	65.084624 
4177.000000	65.089774 
4176.000000	65.093636 
4175.000000	65.099024 
4174.000000	65.107369 
4173.000000	65.118002 
4172.000000	65.128302 
4171.000000	65.134286 
4170.000000	65.131807 
4169.000000	65.117835 
4168.000000	65.091729 
4167.000000	65.055465 
4166.000000	65.012645 
4165.000000	64.968299 
4164.000000	64.927363 
4163.000000	64.894247 
4162.000000	64.871668 
4161.000000	64.860939 
4160.000000	64.862322 
4159.000000	64.875030 
4158.000000	64.897155 
4157.000000	64.926362 
4156.000000	64.959836 
4155.000000	64.994645 
4154.000000	65.027546 
4153.000000	65.055632 
4152.000000	65.076255 
4151.000000	65.087008 
4150.000000	65.086126 
4149.000000	65.072441 
4148.000000	65.045762 
4147.000000	65.007400 
4146.000000	64.960503 
4145.000000	64.909839 
4144.000000	64.861488 
4143.000000	64.821934 
4142.000000	64.796948 
4141.000000	64.790654 
4140.000000	64.804577 
4139.000000	64.837384 
4138.000000	64.885091 
4137.000000	64.941525 
4136.000000	65.000152 
4135.000000	65.054535 
4134.000000	65.100145 
4133.000000	65.134716 
4132.000000	65.158605 
4131.000000	65.174078 
4130.000000	65.184259 
4129.000000	65.192437 
4128.000000	65.200591 
4127.000000	65.209126 
4126.000000	65.216398 
4125.000000	65.219879 
4124.000000	65.216612 
4123.000000	65.204715 
4122.000000	65.183806 
4121.000000	65.155720 
4120.000000	65.124106 
4119.000000	65.093755 
4118.000000	65.069389 
4117.000000	65.054535 
4116.000000	65.050745 
4115.000000	65.057301 
4114.000000	65.071392 
4113.000000	65.088939 
4112.000000	65.105247 
4111.000000	65.116381 
4110.000000	65.119719 
4109.000000	65.114879 
4108.000000	65.103411 
4107.000000	65.088629 
4106.000000	65.074419 
4105.000000	65.064430 
4104.000000	65.061545 
4103.000000	65.066862 
4102.000000	65.079474 
4101.000000	65.096902 
4100.000000	65.116262 
4099.000000	65.134310 
4098.000000	65.148639 
4097.000000	65.157699 
4096.000000	65.160799 
4095.000000	65.158176 
4094.000000	65.150570 
4093.000000	65.139222 
4092.000000	65.125656 
4091.000000	65.111565 
4090.000000	65.098762 
4089.000000	65.088939 
4088.000000	65.083456 
4087.000000	65.083289 
4086.000000	65.088772 
4085.000000	65.099668 
4084.000000	65.115022 
4083.000000	65.133428 
4082.000000	65.152812 
4081.000000	65.171146 
4080.000000	65.186071 
4079.000000	65.195322 
4078.000000	65.197205 
4077.000000	65.191006 
4076.000000	65.177178 
4075.000000	65.157151 
4074.000000	65.133619 
4073.000000	65.110135 
4072.000000	65.090560 
4071.000000	65.078496 
4070.000000	65.076613 
4069.000000	65.085887 
4068.000000	65.105557 
4067.000000	65.133142 
4066.000000	65.164899 
4065.000000	65.196704 
4064.000000	65.224623 
4063.000000	65.245771 
4062.000000	65.258455 
4061.000000	65.262436 
4060.000000	65.258717 
4059.000000	65.249228 
4058.000000	65.236568 
4057.000000	65.223169 
4056.000000	65.211153 
4055.000000	65.201210 
4054.000000	65.192985 
4053.000000	65.184545 
4052.000000	65.173125 
4051.000000	65.155839 
4050.000000	65.130639 
4049.000000	65.097212 
4048.000000	65.057229 
4047.000000	65.014576 
4046.000000	64.974284 
4045.000000	64.941811 
4044.000000	64.921617 
4043.000000	64.916396 
4042.000000	64.926171 
4041.000000	64.948749 
4040.000000	64.980125 
4039.000000	65.015649 
4038.000000	65.051078 
4037.000000	65.083360 
4036.000000	65.110659 
4035.000000	65.132045 
4034.000000	65.146899 
4033.000000	65.154075 
4032.000000	65.152096 
4031.000000	65.139174 
4030.000000	65.114164 
4029.000000	65.077352 
4028.000000	65.031051 
4027.000000	64.979457 
4026.000000	64.928340 
4025.000000	64.884114 
4024.000000	64.852643 
4023.000000	64.837980 
4022.000000	64.841723 
4021.000000	64.862561 
4020.000000	64.896750 
4019.000000	64.938759 
4018.000000	64.982414 
4017.000000	65.022063 
4016.000000	65.053462 
4015.000000	65.074133 
4014.000000	65.083837 
4013.000000	65.084004 
4012.000000	65.077567 
4011.000000	65.067815 
4010.000000	65.058255 
4009.000000	65.051698 
4008.000000	65.050101 
4007.000000	65.054178 
4006.000000	65.063357 
4005.000000	65.076184 
4004.000000	65.090799 
4003.000000	65.105414 
4002.000000	65.118432 
4001.000000	65.129137 
4000.000000	65.137481 
3999.000000	65.144014 
3998.000000	65.149593 
3997.000000	65.155148 
3996.000000	65.161228 
3995.000000	65.167880 
3994.000000	65.174865 
3993.000000	65.181589 
3992.000000	65.187191 
3991.000000	65.191125 
3990.000000	65.193390 
3989.000000	65.194511 
3988.000000	65.195488 
3987.000000	65.197515 
3986.000000	65.201711 
3985.000000	65.208888 
3984.000000	65.219044 
3983.000000	65.231490 
3982.000000	65.244674 
3981.000000	65.256690 
3980.000000	65.265536 
3979.000000	65.269637 
3978.000000	65.268254 
3977.000000	65.261530 
3976.000000	65.250444 
3975.000000	65.236711 
3974.000000	65.222191 
3973.000000	65.208792 
3972.000000	65.197873 
3971.000000	65.190076 
3970.000000	65.185379 
3969.000000	65.183448 
3968.000000	65.184092 
3967.000000	65.187001 
3966.000000	65.192675 
3965.000000	65.201783 
3964.000000	65.215516 
3963.000000	65.234780 
3962.000000	65.260267 
3961.000000	65.291404 
3960.000000	65.326833 
3959.000000	65.364289 
3958.000000	65.401315 
3957.000000	65.435862 
3956.000000	65.466451 
3955.000000	65.492558 
3954.000000	65.514731 
3953.000000	65.533971 
3952.000000	65.551567 
3951.000000	65.568423 
3950.000000	65.584802 
3949.000000	65.600013 
3948.000000	65.612816 
3947.000000	65.621423 
3946.000000	65.624141 
3945.000000	65.619778 
3944.000000	65.607881 
3943.000000	65.589213 
3942.000000	65.565681 
3941.000000	65.540456 
3940.000000	65.517425 
3939.000000	65.500855 
3938.000000	65.495014 
3937.000000	65.502905 
3936.000000	65.525913 
3935.000000	65.562629 
3934.000000	65.608978 
3933.000000	65.658307 
3932.000000	65.702486 
3931.000000	65.733575 
3930.000000	65.745759 
3929.000000	65.736365 
3928.000000	65.706777 
3927.000000	65.662264 
3926.000000	65.610766 
3925.000000	65.561032 
3924.000000	65.520477 
3923.000000	65.494132 
3922.000000	65.482997 
3921.000000	65.484833 
3920.000000	65.494298 
3919.000000	65.504741 
3918.000000	65.509891 
3917.000000	65.505146 
3916.000000	65.488815 
3915.000000	65.461897 
3914.000000	65.428137 
3913.000000	65.392374 
3912.000000	65.360212 
3911.000000	65.336227 
3910.000000	65.323638 
3909.000000	65.323734 
3908.000000	65.335464 
3907.000000	65.355992 
3906.000000	65.381145 
3905.000000	65.406107 
3904.000000	65.426301 
3903.000000	65.438151 
3902.000000	65.439414 
3901.000000	65.429401 
3900.000000	65.409135 
3899.000000	65.381002 
3898.000000	65.348291 
3897.000000	65.314793 
3896.000000	65.284180 
3895.000000	65.259695 
3894.000000	65.244150 
3893.000000	65.239405 
3892.000000	65.246009 
3891.000000	65.263462 
3890.000000	65.290379 
3889.000000	65.324521 
3888.000000	65.362715 
3887.000000	65.401768 
3886.000000	65.438270 
3885.000000	65.469574 
3884.000000	65.494155 
3883.000000	65.511584 
3882.000000	65.522623 
3881.000000	65.528678 
3880.000000	65.531516 
3879.000000	65.532517 
3878.000000	65.532493 
3877.000000	65.531492 
3876.000000	65.529155 
3875.000000	65.524744 
3874.000000	65.517807 
3873.000000	65.508341 
3872.000000	65.497088 
3871.000000	65.485262 
3870.000000	65.474748 
3869.000000	65.467453 
3868.000000	65.465164 
3867.000000	65.469312 
3866.000000	65.480804 
3865.000000	65.499663 
3864.000000	65.525197 
3863.000000	65.556216 
3862.000000	65.590858 
3861.000000	65.626764 
3860.000000	65.661096 
3859.000000	65.690970 
3858.000000	65.713214 
3857.000000	65.725088 
3856.000000	65.724134 
3855.000000	65.708732 
3854.000000	65.678119 
3853.000000	65.632939 
3852.000000	65.575218 
3851.000000	65.508270 
3850.000000	65.436720 
3849.000000	65.366291 
3848.000000	65.302991 
3847.000000	65.252399 
3846.000000	65.219092 
3845.000000	65.205955 
3844.000000	65.213656 
3843.000000	65.240550 
3842.000000	65.282630 
3841.000000	65.334725 
3840.000000	65.390777 
3839.000000	65.445208 
3838.000000	65.493273 
3837.000000	65.532112 
3836.000000	65.560626 
3835.000000	65.578961 
3834.000000	65.588259 
3833.000000	65.589857 
3832.000000	65.584993 
3831.000000	65.574288 
3830.000000	65.558552 
3829.000000	65.538239 
3828.000000	65.514349 
3827.000000	65.487742 
3826.000000	65.459561 
3825.000000	65.430593 
3824.000000	65.401434 
3823.000000	65.372228 
3822.000000	65.342879 
3821.000000	65.313482 
3820.000000	65.284729 
3819.000000	65.258097 
3818.000000	65.235972 
3817.000000	65.221285 
3816.000000	65.217113 
3815.000000	65.225815 
3814.000000	65.248513 
3813.000000	65.284299 
3812.000000	65.330433 
3811.000000	65.382456 
3810.000000	65.434956 
3809.000000	65.482211 
3808.000000	65.519118 
3807.000000	65.541839 
3806.000000	65.548563 
3805.000000	65.539383 
3804.000000	65.516543 
3803.000000	65.483736 
3802.000000	65.446019 
3801.000000	65.408945 
3800.000000	65.377759 
3799.000000	65.356755 
3798.000000	65.348315 
3797.000000	65.352678 
3796.000000	65.367341 
3795.000000	65.387558 
3794.000000	65.407037 
3793.000000	65.419220 
3792.000000	65.418481 
3791.000000	65.401387 
3790.000000	65.367627 
3789.000000	65.320038 
3788.000000	65.263819 
3787.000000	65.205812 
3786.000000	65.152764 
3785.000000	65.110468 
3784.000000	65.082621 
3783.000000	65.070748 
3782.000000	65.074300 
3781.000000	65.091562 
3780.000000	65.120267 
3779.000000	65.158534 
3778.000000	65.204167 
3777.000000	65.255260 
3776.000000	65.309190 
3775.000000	65.362644 
3774.000000	65.411400 
3773.000000	65.450906 
3772.000000	65.477180 
3771.000000	65.487790 
3770.000000	65.482664 
3769.000000	65.464043 
3768.000000	65.436029 
3767.000000	65.403819 
3766.000000	65.372657 
3765.000000	65.346837 
3764.000000	65.328764 
3763.000000	65.319037 
3762.000000	65.316390 
3761.000000	65.318536 
3760.000000	65.322804 
3759.000000	65.326690 
3758.000000	65.328216 
3757.000000	65.325903 
3756.000000	65.319061 
3755.000000	65.307378 
3754.000000	65.291333 
3753.000000	65.271997 
3752.000000	65.251231 
3751.000000	65.231657 
3750.000000	65.216112 
3749.000000	65.207290 
3748.000000	65.206789 
3747.000000	65.214824 
3746.000000	65.230131 
3745.000000	65.250229 
3744.000000	65.271687 
3743.000000	65.290784 
3742.000000	65.304279 
3741.000000	65.310049 
3740.000000	65.307211 
3739.000000	65.296196 
3738.000000	65.278434 
3737.000000	65.256094 
3736.000000	65.231657 
3735.000000	65.207505 
3734.000000	65.185832 
3733.000000	65.167999 
3732.000000	65.155053 
3731.000000	65.147256 
3730.000000	65.144205 
3729.000000	65.145254 
3728.000000	65.149164 
3727.000000	65.155100 
3726.000000	65.162563 
3725.000000	65.171742 
3724.000000	65.183329 
3723.000000	65.197992 
3722.000000	65.215992 
3721.000000	65.236544 
3720.000000	65.257787 
3719.000000	65.276789 
3718.000000	65.290069 
3717.000000	65.294599 
3716.000000	65.288567 
3715.000000	65.272235 
3714.000000	65.248084 
3713.000000	65.220403 
3712.000000	65.194249 
3711.000000	65.174150 
3710.000000	65.163016 
3709.000000	65.161371 
3708.000000	65.167260 
3707.000000	65.176892 
3706.000000	65.185642 
3705.000000	65.189671 
3704.000000	65.186643 
3703.000000	65.176010 
3702.000000	65.159368 
3701.000000	65.139341 
3700.000000	65.119266 
3699.000000	65.102052 
3698.000000	65.089988 
3697.000000	65.084195 
3696.000000	65.084862 
3695.000000	65.091729 
3694.000000	65.103983 
3693.000000	65.120553 
3692.000000	65.139985 
3691.000000	65.160155 
3690.000000	65.178585 
3689.000000	65.192389 
3688.000000	65.199160 
3687.000000	65.197372 
3686.000000	65.187263 
3685.000000	65.170693 
3684.000000	65.151333 
3683.000000	65.133857 
3682.000000	65.122890 
3681.000000	65.122079 
3680.000000	65.133237 
3679.000000	65.155982 
3678.000000	65.187740 
3677.000000	65.224385 
3676.000000	65.261149 
3675.000000	65.293288 
3674.000000	65.317010 
3673.000000	65.329837 
3672.000000	65.330767 
3671.000000	65.320491 
3670.000000	65.300917 
3669.000000	65.275239 
3668.000000	65.247201 
3667.000000	65.220904 
3666.000000	65.200567 
3665.000000	65.189170 
3664.000000	65.188217 
3663.000000	65.197014 
3662.000000	65.212965 
3661.000000	65.231704 
3660.000000	65.248274 
3659.000000	65.257906 
3658.000000	65.257406 
3657.000000	65.245914 
3656.000000	65.225052 
3655.000000	65.198421 
3654.000000	65.170574 
3653.000000	65.145802 
3652.000000	65.126967 
3651.000000	65.114760 
3650.000000	65.107965 
3649.000000	65.103983 
3648.000000	65.100312 
3647.000000	65.095090 
3646.000000	65.088438 
3645.000000	65.082502 
3644.000000	65.081167 
3643.000000	65.088319 
3642.000000	65.107417 
3641.000000	65.139985 
3640.000000	65.185332 
3639.000000	65.240216 
3638.000000	65.299725 
3637.000000	65.358257 
3636.000000	65.410566 
3635.000000	65.452599 
3634.000000	65.482091 
3633.000000	65.498471 
3632.000000	65.502691 
3631.000000	65.496492 
3630.000000	65.482044 
3629.000000	65.461349 
3628.000000	65.436506 
3627.000000	65.408992 
3626.000000	65.380334 
3625.000000	65.351486 
3624.000000	65.323448 
3623.000000	65.296673 
3622.000000	65.271234 
3621.000000	65.247035 
3620.000000	65.223717 
3619.000000	65.201234 
3618.000000	65.180134 
3617.000000	65.161705 
3616.000000	65.147686 
3615.000000	65.140008 
3614.000000	65.140271 
3613.000000	65.148735 
3612.000000	65.164065 
3611.000000	65.183162 
3610.000000	65.201568 
3609.000000	65.214419 
3608.000000	65.217375 
3607.000000	65.208005 
3606.000000	65.186619 
3605.000000	65.156054 
3604.000000	65.121197 
3603.000000	65.088009 
3602.000000	65.062093 
3601.000000	65.047526 
3600.000000	65.045833 
3599.000000	65.055918 
3598.000000	65.074157 
3597.000000	65.095996 
3596.000000	65.116572 
3595.000000	65.131592 
3594.000000	65.138411 
3593.000000	65.135955 
3592.000000	65.125370 
3591.000000	65.108752 
3590.000000	65.089344 
3589.000000	65.070557 
3588.000000	65.055537 
3587.000000	65.046620 
3586.000000	65.044927 
3585.000000	65.050363 
3584.000000	65.061569 
3583.000000	65.076160 
3582.000000	65.091133 
3581.000000	65.103316 
3580.000000	65.110206 
3579.000000	65.110588 
3578.000000	65.104866 
3577.000000	65.095019 
3576.000000	65.084481 
3575.000000	65.077304 
3574.000000	65.077519 
3573.000000	65.088009 
3572.000000	65.109920 
3571.000000	65.142154 
3570.000000	65.181875 
3569.000000	65.224957 
3568.000000	65.266728 
3567.000000	65.303182 
3566.000000	65.331411 
3565.000000	65.350246 
3564.000000	65.360236 
3563.000000	65.363049 
3562.000000	65.360879 
3561.000000	65.355420 
3560.000000	65.347695 
3559.000000	65.337610 
3558.000000	65.324234 
3557.000000	65.306305 
3556.000000	65.282917 
3555.000000	65.254139 
3554.000000	65.221428 
3553.000000	65.187501 
3552.000000	65.156030 
3551.000000	65.130758 
3550.000000	65.114784 
3549.000000	65.110015 
3548.000000	65.116620 
3547.000000	65.133118 
3546.000000	65.156650 
3545.000000	65.183401 
3544.000000	65.209293 
3543.000000	65.230822 
3542.000000	65.245318 
3541.000000	65.250968 
3540.000000	65.247106 
3539.000000	65.233969 
3538.000000	65.212559 
3537.000000	65.184640 
3536.000000	65.152215 
3535.000000	65.117621 
3534.000000	65.082979 
3533.000000	65.050220 
3532.000000	65.020871 
3531.000000	64.995980 
3530.000000	64.976000 
3529.000000	64.960885 
3528.000000	64.950251 
3527.000000	64.943504 
3526.000000	64.939785 
3525.000000	64.938116 
3524.000000	64.937663 
3523.000000	64.937806 
3522.000000	64.938211 
3521.000000	64.939117 
3520.000000	64.941334 
3519.000000	64.946317 
3518.000000	64.955687 
3517.000000	64.970803 
3516.000000	64.992451 
3515.000000	65.020132 
3514.000000	65.051937 
3513.000000	65.084576 
3512.000000	65.113830 
3511.000000	65.135502 
3510.000000	65.146327 
3509.000000	65.144944 
3508.000000	65.132474 
3507.000000	65.112137 
3506.000000	65.088582 
3505.000000	65.066719 
3504.000000	65.050840 
3503.000000	65.043568 
3502.000000	65.045261 
3501.000000	65.054297 
3500.000000	65.067815 
3499.000000	65.082430 
3498.000000	65.095281 
3497.000000	65.104889 
3496.000000	65.111231 
3495.000000	65.115642 
3494.000000	65.120291 
3493.000000	65.127182 
3492.000000	65.137362 
3491.000000	65.150451 
3490.000000	65.164661 
3489.000000	65.177178 
3488.000000	65.185141 
3487.000000	65.186429 
3486.000000	65.180587 
3485.000000	65.169143 
3484.000000	65.155339 
3483.000000	65.143561 
3482.000000	65.138030 
3481.000000	65.141940 
3480.000000	65.156245 
3479.000000	65.179419 
3478.000000	65.207600 
3477.000000	65.235590 
3476.000000	65.258073 
3475.000000	65.271186 
3474.000000	65.273165 
3473.000000	65.264868 
3472.000000	65.249156 
3471.000000	65.229964 
3470.000000	65.211200 
3469.000000	65.195918 
3468.000000	65.185666 
3467.000000	65.180253 
3466.000000	65.178680 
3465.000000	65.179371 
3464.000000	65.181088 
3463.000000	65.183138 
3462.000000	65.185737 
3461.000000	65.189719 
3460.000000	65.195822 
3459.000000	65.204715 
3458.000000	65.216183 
3457.000000	65.229582 
3456.000000	65.243983 
3455.000000	65.258097 
3454.000000	65.270876 
3453.000000	65.281224 
3452.000000	65.288496 
3451.000000	65.291976 
3450.000000	65.290951 
3449.000000	65.284943 
3448.000000	65.273904 
3447.000000	65.258431 
3446.000000	65.239953 
3445.000000	65.220618 
3444.000000	65.203142 
3443.000000	65.190052 
3442.000000	65.183424 
3441.000000	65.184235 
3440.000000	65.192532 
3439.000000	65.207123 
3438.000000	65.226316 
3437.000000	65.248298 
3436.000000	65.271639 
3435.000000	65.295600 
3434.000000	65.319991 
3433.000000	65.345215 
3432.000000	65.371251 
3431.000000	65.397524 
3430.000000	65.422058 
3429.000000	65.442037 
3428.000000	65.453791 
3427.000000	65.454030 
3426.000000	65.440440 
3425.000000	65.412735 
3424.000000	65.372753 
3423.000000	65.324711 
3422.000000	65.274405 
3421.000000	65.228295 
3420.000000	65.192151 
3419.000000	65.169930 
3418.000000	65.162992 
3417.000000	65.170049 
3416.000000	65.187549 
3415.000000	65.210556 
3414.000000	65.233874 
3413.000000	65.253257 
3412.000000	65.265727 
3411.000000	65.269994 
3410.000000	65.266013 
3409.000000	65.254855 
3408.000000	65.237641 
3407.000000	65.215754 
3406.000000	65.190410 
3405.000000	65.163040 
3404.000000	65.135550 
3403.000000	65.110349 
3402.000000	65.090394 
3401.000000	65.078592 
3400.000000	65.077209 
3399.000000	65.087246 
3398.000000	65.107583 
3397.000000	65.135312 
3396.000000	65.165901 
3395.000000	65.194368 
3394.000000	65.216183 
3393.000000	65.228486 
3392.000000	65.230369 
3391.000000	65.223050 
3390.000000	65.209007 
3389.000000	65.191388 
3388.000000	65.172886 
3387.000000	65.155124 
3386.000000	65.138411 
3385.000000	65.122151 
3384.000000	65.105772 
3383.000000	65.089249 
3382.000000	65.073680 
3381.000000	65.061187 
3380.000000	65.054607 
3379.000000	65.056633 
3378.000000	65.068984 
3377.000000	65.091323 
3376.000000	65.121579 
3375.000000	65.156030 
3374.000000	65.190362 
3373.000000	65.220499 
3372.000000	65.243625 
3371.000000	65.258502 
3370.000000	65.265512 
3369.000000	65.266346 
3368.000000	65.263080 
3367.000000	65.257573 
3366.000000	65.250897 
3365.000000	65.243244 
3364.000000	65.233874 
3363.000000	65.222048 
3362.000000	65.207242 
3361.000000	65.189862 
3360.000000	65.171265 
3359.000000	65.153813 
3358.000000	65.140318 
3357.000000	65.133190 
3356.000000	65.133857 
3355.000000	65.142226 
3354.000000	65.156602 
3353.000000	65.173912 
3352.000000	65.190172 
3351.000000	65.201425 
3350.000000	65.204191 
3349.000000	65.196824 
3348.000000	65.179443 
3347.000000	65.154218 
3346.000000	65.124654 
3345.000000	65.095138 
3344.000000	65.069937 
3343.000000	65.052247 
3342.000000	65.043640 
3341.000000	65.044045 
3340.000000	65.052080 
3339.000000	65.065383 
3338.000000	65.081143 
3337.000000	65.096735 
3336.000000	65.110182 
3335.000000	65.120220 
3334.000000	65.126657 
3333.000000	65.130019 
3332.000000	65.131425 
3331.000000	65.132260 
3330.000000	65.133953 
3329.000000	65.137648 
3328.000000	65.143871 
3327.000000	65.152454 
3326.000000	65.162611 
3325.000000	65.172886 
3324.000000	65.181446 
3323.000000	65.186572 
3322.000000	65.186905 
3321.000000	65.181899 
3320.000000	65.171670 
3319.000000	65.157151 
3318.000000	65.139651 
3317.000000	65.120410 
3316.000000	65.100264 
3315.000000	65.079593 
3314.000000	65.058422 
3313.000000	65.036582 
3312.000000	65.014266 
3311.000000	64.992356 
3310.000000	64.972257 
3309.000000	64.955806 
3308.000000	64.944601 
3307.000000	64.939761 
3306.000000	64.941263 
3305.000000	64.947748 
3304.000000	64.956808 
3303.000000	64.965343 
3302.000000	64.970469 
3301.000000	64.970135 
3300.000000	64.963603 
3299.000000	64.951825 
3298.000000	64.937138 
3297.000000	64.922595 
3296.000000	64.911127 
3295.000000	64.904808 
3294.000000	64.904284 
3293.000000	64.908576 
3292.000000	64.915561 
3291.000000	64.922714 
3290.000000	64.927887 
3289.000000	64.930081 
3288.000000	64.929699 
3287.000000	64.928436 
3286.000000	64.928698 
3285.000000	64.932918 
3284.000000	64.942693 
3283.000000	64.958572 
3282.000000	64.979672 
3281.000000	65.004205 
3280.000000	65.029931 
3279.000000	65.054631 
3278.000000	65.076732 
3277.000000	65.095448 
3276.000000	65.110826 
3275.000000	65.123152 
3274.000000	65.132665 
3273.000000	65.139532 
3272.000000	65.143561 
3271.000000	65.144586 
3270.000000	65.142321 
3269.000000	65.137219 
3268.000000	65.129804 
3267.000000	65.121221 
3266.000000	65.112519 
3265.000000	65.104818 
3264.000000	65.098500 
3263.000000	65.093302 
3262.000000	65.088367 
3261.000000	65.082454 
3260.000000	65.074276 
3259.000000	65.063023 
3258.000000	65.048432 
3257.000000	65.030837 
3256.000000	65.011167 
3255.000000	64.990806 
3254.000000	64.971184 
3253.000000	64.953732 
3252.000000	64.939975 
3251.000000	64.931416 
3250.000000	64.929318 
3249.000000	64.934659 
3248.000000	64.947676 
3247.000000	64.967846 
3246.000000	64.993309 
3245.000000	65.021419 
3244.000000	65.048909 
3243.000000	65.072679 
3242.000000	65.090370 
3241.000000	65.100884 
3240.000000	65.104556 
3239.000000	65.102672 
3238.000000	65.097618 
3237.000000	65.091681 
3236.000000	65.086627 
3235.000000	65.082931 
3234.000000	65.080070 
3233.000000	65.076518 
3232.000000	65.070343 
3231.000000	65.059876 
3230.000000	65.044331 
3229.000000	65.023946 
3228.000000	64.999985 
3227.000000	64.974164 
3226.000000	64.948487 
3225.000000	64.924407 
3224.000000	64.902639 
3223.000000	64.883089 
3222.000000	64.865303 
3221.000000	64.848494 
3220.000000	64.832329 
3219.000000	64.817070 
3218.000000	64.803957 
3217.000000	64.795160 
3216.000000	64.793276 
3215.000000	64.800333 
3214.000000	64.817523 
3213.000000	64.844322 
3212.000000	64.878773 
3211.000000	64.916968 
3210.000000	64.954304 
3209.000000	64.986228 
3208.000000	65.009403 
3207.000000	65.022039 
3206.000000	65.024471 
3205.000000	65.018701 
3204.000000	65.008115 
3203.000000	64.996528 
3202.000000	64.987277 
3201.000000	64.982771 
3200.000000	64.984059 
3199.000000	64.990901 
3198.000000	65.001916 
3197.000000	65.015053 
3196.000000	65.028142 
3195.000000	65.039420 
3194.000000	65.047383 
3193.000000	65.051054 
3192.000000	65.050077 
3191.000000	65.044498 
3190.000000	65.034675 
3189.000000	65.021181 
3188.000000	65.004873 
3187.000000	64.986681 
3186.000000	64.967608 
3185.000000	64.948606 
3184.000000	64.930534 
3183.000000	64.914178 
3182.000000	64.900469 
3181.000000	64.890193 
3180.000000	64.883828 
3179.000000	64.881658 
3178.000000	64.883708 
3177.000000	64.889597 
3176.000000	64.898467 
3175.000000	64.909267 
3174.000000	64.920878 
3173.000000	64.932489 
3172.000000	64.943647 
3171.000000	64.954209 
3170.000000	64.964509 
3169.000000	64.975214 
3168.000000	64.986944 
3167.000000	65.000152 
3166.000000	65.014672 
3165.000000	65.030193 
3164.000000	65.045762 
3163.000000	65.060496 
3162.000000	65.073418 
3161.000000	65.083909 
3160.000000	65.091443 
3159.000000	65.095686 
3158.000000	65.096235 
3157.000000	65.092849 
3156.000000	65.085029 
3155.000000	65.072274 
3154.000000	65.054297 
3153.000000	65.031576 
3152.000000	65.005326 
3151.000000	64.977717 
3150.000000	64.951562 
3149.000000	64.929795 
3148.000000	64.914798 
3147.000000	64.908123 
3146.000000	64.909863 
3145.000000	64.918589 
3144.000000	64.932179 
3143.000000	64.947962 
3142.000000	64.963579 
3141.000000	64.977264 
3140.000000	64.987993 
3139.000000	64.995360 
3138.000000	64.999079 
3137.000000	64.998698 
3136.000000	64.993405 
3135.000000	64.982342 
3134.000000	64.964890 
3133.000000	64.941143 
3132.000000	64.912629 
3131.000000	64.882159 
3130.000000	64.853811 
3129.000000	64.831900 
3128.000000	64.819908 
3127.000000	64.819645 
3126.000000	64.830517 
3125.000000	64.849734 
3124.000000	64.872694 
3123.000000	64.894342 
3122.000000	64.910244 
3121.000000	64.917635 
3120.000000	64.916014 
3119.000000	64.907026 
3118.000000	64.893674 
3117.000000	64.879274 
3116.000000	64.866328 
3115.000000	64.856028 
3114.000000	64.847874 
3113.000000	64.840126 
3112.000000	64.830493 
3111.000000	64.817309 
3110.000000	64.800238 
3109.000000	64.780497 
3108.000000	64.760923 
3107.000000	64.745020 
3106.000000	64.736509 
3105.000000	64.738178 
3104.000000	64.751458 
3103.000000	64.775705 
3102.000000	64.808535 
3101.000000	64.846205 
3100.000000	64.884209 
3099.000000	64.918303 
3098.000000	64.945101 
3097.000000	64.962434 
3096.000000	64.969873 
3095.000000	64.968419 
3094.000000	64.960265 
3093.000000	64.948081 
3092.000000	64.934587 
3091.000000	64.922142 
3090.000000	64.912438 
3089.000000	64.906477 
3088.000000	64.904499 
3087.000000	64.906334 
3086.000000	64.911603 
3085.000000	64.919805 
3084.000000	64.930272 
3083.000000	64.942264 
3082.000000	64.954566 
3081.000000	64.965701 
3080.000000	64.973616 
3079.000000	64.976501 
3078.000000	64.972877 
3077.000000	64.962267 
3076.000000	64.945411 
3075.000000	64.924407 
3074.000000	64.902400 
3073.000000	64.883041 
3072.000000	64.869737 
3071.000000	64.865136 
3070.000000	64.870429 
3069.000000	64.885187 
3068.000000	64.907455 
3067.000000	64.934158 
3066.000000	64.961838 
3065.000000	64.987182 
3064.000000	65.007686 
3063.000000	65.021824 
3062.000000	65.029072 
3061.000000	65.029954 
3060.000000	65.025496 
3059.000000	65.017104 
3058.000000	65.006017 
3057.000000	64.993548 
3056.000000	64.980554 
3055.000000	64.967870 
3054.000000	64.956068 
3053.000000	64.945673 
3052.000000	64.937162 
3051.000000	64.930987 
3050.000000	64.927673 
3049.000000	64.927506 
3048.000000	64.930486 
3047.000000	64.936280 
3046.000000	64.944291 
3045.000000	64.953589 
3044.000000	64.963293 
3043.000000	64.972853 
3042.000000	64.982080 
3041.000000	64.991259 
3040.000000	65.000987 
3039.000000	65.011763 
3038.000000	65.023970 
3037.000000	65.037488 
3036.000000	65.051651 
3035.000000	65.065336 
3034.000000	65.077257 
3033.000000	65.085959 
3032.000000	65.090465 
3031.000000	65.090227 
3030.000000	65.085411 
3029.000000	65.076613 
3028.000000	65.064859 
3027.000000	65.051317 
3026.000000	65.037226 
3025.000000	65.023589 
3024.000000	65.011143 
3023.000000	65.000081 
3022.000000	64.990329 
3021.000000	64.981389 
3020.000000	64.972543 
3019.000000	64.962792 
3018.000000	64.951038 
3017.000000	64.936685 
3016.000000	64.919543 
3015.000000	64.900135 
3014.000000	64.879512 
3013.000000	64.859056 
3012.000000	64.840412 
3011.000000	64.824891 
3010.000000	64.813327 
3009.000000	64.806008 
3008.000000	64.802765 
3007.000000	64.802956 
3006.000000	64.805865 
3005.000000	64.810872 
3004.000000	64.817857 
3003.000000	64.826846 
3002.000000	64.838218 
3001.000000	64.852499 
3000.000000	64.870023 
2999.000000	64.890837 
2998.000000	64.914202 
2997.000000	64.938855 
2996.000000	64.962697 
2995.000000	64.983463 
2994.000000	64.998483 
2993.000000	65.005517 
2992.000000	65.002775 
2991.000000	64.989590 
2990.000000	64.966511 
2989.000000	64.935255 
2988.000000	64.898610 
2987.000000	64.860081 
2986.000000	64.823246 
2985.000000	64.791083 
2984.000000	64.765524 
2983.000000	64.747238 
2982.000000	64.735484 
2981.000000	64.728403 
2980.000000	64.723539 
2979.000000	64.718365 
2978.000000	64.710927 
2977.000000	64.700126 
2976.000000	64.685797 
2975.000000	64.668822 
2974.000000	64.650559 
2973.000000	64.632821 
2972.000000	64.617061 
2971.000000	64.604449 
2970.000000	64.595580 
2969.000000	64.590549 
2968.000000	64.588975 
2967.000000	64.590215 
2966.000000	64.593434 
2965.000000	64.597654 
2964.000000	64.601850 
2963.000000	64.605021 
2962.000000	64.606475 
2961.000000	64.605593 
2960.000000	64.602065 
2959.000000	64.595651 
2958.000000	64.586472 
2957.000000	64.574694 
2956.000000	64.560818 
2955.000000	64.545345 
2954.000000	64.528894 
2953.000000	64.512300 
2952.000000	64.496636 
2951.000000	64.483022 
2950.000000	64.472675 
2949.000000	64.466667 
2948.000000	64.465928 
2947.000000	64.470767 
2946.000000	64.481234 
2945.000000	64.496588 
2944.000000	64.515900 
2943.000000	64.537882 
2942.000000	64.561247 
2941.000000	64.584779 
2940.000000	64.607262 
2939.000000	64.627242 
2938.000000	64.643168 
2937.000000	64.653587 
2936.000000	64.657163 
2935.000000	64.652848 
2934.000000	64.640426 
2933.000000	64.620661 
2932.000000	64.595246 
2931.000000	64.566659 
2930.000000	64.537787 
2929.000000	64.511513 
2928.000000	64.490222 
2927.000000	64.475226 
2926.000000	64.467048 
2925.000000	64.465045 
2924.000000	64.467763 
2923.000000	64.473342 
2922.000000	64.479827 
2921.000000	64.485979 
2920.000000	64.490628 
2919.000000	64.493489 
2918.000000	64.494609 
2917.000000	64.494800 
2916.000000	64.494848 
2915.000000	64.496016 
2914.000000	64.499282 
2913.000000	64.505529 
2912.000000	64.515399 
2911.000000	64.529085 
2910.000000	64.546036 
2909.000000	64.565443 
2908.000000	64.586114 
2907.000000	64.606690 
2906.000000	64.625692 
2905.000000	64.641785 
2904.000000	64.653897 
2903.000000	64.661431 
2902.000000	64.664506 
2901.000000	64.663863 
2900.000000	64.661192 
2899.000000	64.658761 
2898.000000	64.659237 
2897.000000	64.665150 
2896.000000	64.678382 
2895.000000	64.700031 
2894.000000	64.729809 
2893.000000	64.766168 
2892.000000	64.806270 
2891.000000	64.846754 
2890.000000	64.883756 
2889.000000	64.913845 
2888.000000	64.934062 
2887.000000	64.942669 
2886.000000	64.939045 
2885.000000	64.923954 
2884.000000	64.899015 
2883.000000	64.866852 
2882.000000	64.830493 
2881.000000	64.793157 
2880.000000	64.757752 
2879.000000	64.726758 
2878.000000	64.701700 
2877.000000	64.683365 
2876.000000	64.671492 
2875.000000	64.665102 
2874.000000	64.662623 
2873.000000	64.662337 
2872.000000	64.662551 
2871.000000	64.662051 
2870.000000	64.660143 
2869.000000	64.656925 
2868.000000	64.652895 
2867.000000	64.648842 
2866.000000	64.645671 
2865.000000	64.644265 
2864.000000	64.645004 
2863.000000	64.647936 
2862.000000	64.652943 
2861.000000	64.659714 
2860.000000	64.667701 
2859.000000	64.676380 
2858.000000	64.685201 
2857.000000	64.693665 
2856.000000	64.701151 
2855.000000	64.707326 
2854.000000	64.711642 
2853.000000	64.714074 
2852.000000	64.714860 
2851.000000	64.714694 
2850.000000	64.714503 
2849.000000	64.715409 
2848.000000	64.718580 
2847.000000	64.724731 
2846.000000	64.733862 
2845.000000	64.745187 
2844.000000	64.757323 
2843.000000	64.768385 
2842.000000	64.776277 
2841.000000	64.779376 
2840.000000	64.776587 
2839.000000	64.767718 
2838.000000	64.753127 
2837.000000	64.734077 
2836.000000	64.712166 
2835.000000	64.689159 
2834.000000	64.666938 
2833.000000	64.647030 
2832.000000	64.630913 
2831.000000	64.619874 
2830.000000	64.614939 
2829.000000	64.616751 
2828.000000	64.625358 
2827.000000	64.640164 
2826.000000	64.659786 
2825.000000	64.681935 
2824.000000	64.703798 
2823.000000	64.722466 
2822.000000	64.735460 
2821.000000	64.741349 
2820.000000	64.739990 
2819.000000	64.732861 
2818.000000	64.722633 
2817.000000	64.712953 
2816.000000	64.707565 
2815.000000	64.709639 
2814.000000	64.721155 
2813.000000	64.742136 
2812.000000	64.770960 
2811.000000	64.803934 
2810.000000	64.836478 
2809.000000	64.863634 
2808.000000	64.881038 
2807.000000	64.885663 
2806.000000	64.876365 
2805.000000	64.854216 
2804.000000	64.821958 
2803.000000	64.783883 
2802.000000	64.744806 
2801.000000	64.709401 
2800.000000	64.681386 
2799.000000	64.662957 
2798.000000	64.654660 
2797.000000	64.655137 
2796.000000	64.661765 
2795.000000	64.670872 
2794.000000	64.678788 
2793.000000	64.682459 
2792.000000	64.680290 
2791.000000	64.672088 
2790.000000	64.659452 
2789.000000	64.645147 
2788.000000	64.632749 
2787.000000	64.625644 
2786.000000	64.626240 
2785.000000	64.635682 
2784.000000	64.653348 
2783.000000	64.677214 
2782.000000	64.703965 
2781.000000	64.729928 
2780.000000	64.751791 
2779.000000	64.766931 
2778.000000	64.774203 
2777.000000	64.773964 
2776.000000	64.767956 
2775.000000	64.758753 
2774.000000	64.749169 
2773.000000	64.741563 
2772.000000	64.737486 
2771.000000	64.737486 
2770.000000	64.740967 
2769.000000	64.746451 
2768.000000	64.752173 
2767.000000	64.756655 
2766.000000	64.759016 
2765.000000	64.758944 
2764.000000	64.756846 
2763.000000	64.753532 
2762.000000	64.749860 
2761.000000	64.746403 
2760.000000	64.743208 
2759.000000	64.739727 
2758.000000	64.735007 
2757.000000	64.728021 
2756.000000	64.718151 
2755.000000	64.705300 
2754.000000	64.690160 
2753.000000	64.674186 
2752.000000	64.659070 
2751.000000	64.646911 
2750.000000	64.639306 
2749.000000	64.637422 
2748.000000	64.641213 
2747.000000	64.650011 
2746.000000	64.662384 
2745.000000	64.676475 
2744.000000	64.690446 
2743.000000	64.702653 
2742.000000	64.711999 
2741.000000	64.718031 
2740.000000	64.720964 
2739.000000	64.721465 
2738.000000	64.720463 
2737.000000	64.718914 
2736.000000	64.717817 
2735.000000	64.717912 
2734.000000	64.719629 
2733.000000	64.723324 
2732.000000	64.729261 
2731.000000	64.737462 
2730.000000	64.747786 
2729.000000	64.759850 
2728.000000	64.773225 
2727.000000	64.786839 
2726.000000	64.799523 
2725.000000	64.809918 
2724.000000	64.816641 
2723.000000	64.818668 
2722.000000	64.815473 
2721.000000	64.807248 
2720.000000	64.795017 
2719.000000	64.780545 
2718.000000	64.765954 
2717.000000	64.753341 
2716.000000	64.744281 
2715.000000	64.739632 
2714.000000	64.739370 
2713.000000	64.742660 
2712.000000	64.748287 
2711.000000	64.755058 
2710.000000	64.762187 
2709.000000	64.769291 
2708.000000	64.776420 
2707.000000	64.783811 
2706.000000	64.791488 
2705.000000	64.799141 
2704.000000	64.805960 
2703.000000	64.810705 
2702.000000	64.812254 
2701.000000	64.809823 
2700.000000	64.803338 
2699.000000	64.793181 
2698.000000	64.780712 
2697.000000	64.767241 
2696.000000	64.754271 
2695.000000	64.742445 
2694.000000	64.731955 
2693.000000	64.722132 
2692.000000	64.711952 
2691.000000	64.700365 
2690.000000	64.686870 
2689.000000	64.671874 
2688.000000	64.656591 
2687.000000	64.642953 
2686.000000	64.633059 
2685.000000	64.628529 
2684.000000	64.630079 
2683.000000	64.637398 
2682.000000	64.648962 
2681.000000	64.662432 
2680.000000	64.675259 
2679.000000	64.685320 
2678.000000	64.691257 
2677.000000	64.692974 
2676.000000	64.691305 
2675.000000	64.687776 
2674.000000	64.684247 
2673.000000	64.682269 
2672.000000	64.682793 
2671.000000	64.686107 
2670.000000	64.691781 
2669.000000	64.699101 
2668.000000	64.707231 
2667.000000	64.715456 
2666.000000	64.722919 
2665.000000	64.728760 
2664.000000	64.731836 
2663.000000	64.731097 
2662.000000	64.725637 
2661.000000	64.715123 
2660.000000	64.700245 
2659.000000	64.682650 
2658.000000	64.664983 
2657.000000	64.650130 
2656.000000	64.640927 
2655.000000	64.639258 
2654.000000	64.645743 
2653.000000	64.659404 
2652.000000	64.677882 
2651.000000	64.697837 
2650.000000	64.715886 
2649.000000	64.729070 
2648.000000	64.735555 
2647.000000	64.734697 
2646.000000	64.726996 
2645.000000	64.713907 
2644.000000	64.697289 
2643.000000	64.679145 
2642.000000	64.661240 
2641.000000	64.644956 
2640.000000	64.631366 
2639.000000	64.620995 
2638.000000	64.614105 
2637.000000	64.610433 
2636.000000	64.609551 
2635.000000	64.611196 
2634.000000	64.615225 
2633.000000	64.621829 
2632.000000	64.631152 
2631.000000	64.643406 
2630.000000	64.658498 
2629.000000	64.675641 
2628.000000	64.693474 
2627.000000	64.709973 
2626.000000	64.722847 
2625.000000	64.730000 
2624.000000	64.730119 
2623.000000	64.723086 
2622.000000	64.710140 
2621.000000	64.693880 
2620.000000	64.677429 
2619.000000	64.664149 
2618.000000	64.656591 
2617.000000	64.656090 
2616.000000	64.662456 
2615.000000	64.674210 
2614.000000	64.689064 
2613.000000	64.704513 
2612.000000	64.718222 
2611.000000	64.728331 
2610.000000	64.733862 
2609.000000	64.734673 
2608.000000	64.731550 
2607.000000	64.725661 
2606.000000	64.718747 
2605.000000	64.712476 
2604.000000	64.708471 
2603.000000	64.707732 
2602.000000	64.710593 
2601.000000	64.716529 
2600.000000	64.724254 
2599.000000	64.731693 
2598.000000	64.736533 
2597.000000	64.736509 
2596.000000	64.729952 
2595.000000	64.716196 
2594.000000	64.695620 
2593.000000	64.669919 
2592.000000	64.641594 
2591.000000	64.613652 
2590.000000	64.589166 
2589.000000	64.570736 
2588.000000	64.560270 
2587.000000	64.558482 
2586.000000	64.565157 
2585.000000	64.578700 
2584.000000	64.596939 
2583.000000	64.616870 
2582.000000	64.635324 
2581.000000	64.649653 
2580.000000	64.657878 
2579.000000	64.659309 
2578.000000	64.654326 
2577.000000	64.644455 
2576.000000	64.631748 
2575.000000	64.618611 
2574.000000	64.607000 
2573.000000	64.598274 
2572.000000	64.592862 
2571.000000	64.590501 
2570.000000	64.590239 
2569.000000	64.591169 
2568.000000	64.592552 
2567.000000	64.594078 
2566.000000	64.595890 
2565.000000	64.598345 
2564.000000	64.602041 
2563.000000	64.607167 
2562.000000	64.613604 
2561.000000	64.620661 
2560.000000	64.627599 
2559.000000	64.633512 
2558.000000	64.637827 
2557.000000	64.640259 
2556.000000	64.641237 
2555.000000	64.641499 
2554.000000	64.642286 
2553.000000	64.644837 
2552.000000	64.650225 
2551.000000	64.658904 
2550.000000	64.670610 
2549.000000	64.684224 
2548.000000	64.697885 
2547.000000	64.709353 
2546.000000	64.716219 
2545.000000	64.716362 
2544.000000	64.708614 
2543.000000	64.692854 
2542.000000	64.670109 
2541.000000	64.642405 
2540.000000	64.612555 
2539.000000	64.583396 
2538.000000	64.557433 
2537.000000	64.536046 
2536.000000	64.519786 
2535.000000	64.507961 
2534.000000	64.499068 
2533.000000	64.491558 
2532.000000	64.484119 
2531.000000	64.476251 
2530.000000	64.468264 
2529.000000	64.461350 
2528.000000	64.457011 
2527.000000	64.456868 
2526.000000	64.462065 
2525.000000	64.472770 
2524.000000	64.488196 
2523.000000	64.506649 
2522.000000	64.525985 
2521.000000	64.544105 
2520.000000	64.559292 
2519.000000	64.570474 
2518.000000	64.577555 
2517.000000	64.581084 
2516.000000	64.582014 
2515.000000	64.581370 
2514.000000	64.580130 
2513.000000	64.578866 
2512.000000	64.578008 
2511.000000	64.577865 
2510.000000	64.578723 
2509.000000	64.581298 
2508.000000	64.586257 
2507.000000	64.594268 
2506.000000	64.605522 
2505.000000	64.619779 
2504.000000	64.635753 
2503.000000	64.651489 
2502.000000	64.664554 
2501.000000	64.672398 
2500.000000	64.673304 
2499.000000	64.666485 
2498.000000	64.652514 
2497.000000	64.633250 
2496.000000	64.611577 
2495.000000	64.590620 
2494.000000	64.573287 
2493.000000	64.561557 
2492.000000	64.556503 
2491.000000	64.558029 
2490.000000	64.565181 
2489.000000	64.576363 
2488.000000	64.589977 
2487.000000	64.604568 
2486.000000	64.618992 
2485.000000	64.632391 
2484.000000	64.643859 
2483.000000	64.652776 
2482.000000	64.658498 
2481.000000	64.660668 
2480.000000	64.659261 
2479.000000	64.654779 
2478.000000	64.648437 
2477.000000	64.641952 
2476.000000	64.637255 
2475.000000	64.636063 
2474.000000	64.639568 
2473.000000	64.647865 
2472.000000	64.660048 
2471.000000	64.674115 
2470.000000	64.687442 
2469.000000	64.697265 
2468.000000	64.701271 
2467.000000	64.697980 
2466.000000	64.687061 
2465.000000	64.669322 
2464.000000	64.646625 
2463.000000	64.621496 
2462.000000	64.596605 
2461.000000	64.574575 
2460.000000	64.557409 
2459.000000	64.546418 
2458.000000	64.541912 
2457.000000	64.543318 
2456.000000	64.549255 
2455.000000	64.557576 
2454.000000	64.565920 
2453.000000	64.572119 
2452.000000	64.574599 
2451.000000	64.572525 
2450.000000	64.566087 
2449.000000	64.556336 
2448.000000	64.545106 
2447.000000	64.534401 
2446.000000	64.526176 
2445.000000	64.521980 
2444.000000	64.522552 
2443.000000	64.527678 
2442.000000	64.536476 
2441.000000	64.547395 
2440.000000	64.558696 
2439.000000	64.568662 
2438.000000	64.575958 
2437.000000	64.579820 
2436.000000	64.580011 
2435.000000	64.576721 
2434.000000	64.570331 
2433.000000	64.561176 
2432.000000	64.549803 
2431.000000	64.536643 
2430.000000	64.521980 
2429.000000	64.506053 
2428.000000	64.489412 
2427.000000	64.472770 
2426.000000	64.456939 
2425.000000	64.442682 
2424.000000	64.430618 
2423.000000	64.420962 
2422.000000	64.413404 
2421.000000	64.407134 
2420.000000	64.401054 
2419.000000	64.394140 
2418.000000	64.385628 
2417.000000	64.375376 
2416.000000	64.363980 
2415.000000	64.352536 
2414.000000	64.342617 
2413.000000	64.335656 
2412.000000	64.332771 
2411.000000	64.334487 
2410.000000	64.340877 
2409.000000	64.351344 
2408.000000	64.365100 
2407.000000	64.381241 
2406.000000	64.398980 
2405.000000	64.417719 
2404.000000	64.436936 
2403.000000	64.456009 
2402.000000	64.474129 
2401.000000	64.490389 
2400.000000	64.503622 
2399.000000	64.512705 
2398.000000	64.516949 
2397.000000	64.516210 
2396.000000	64.511108 
2395.000000	64.502930 
2394.000000	64.493513 
2393.000000	64.484882 
2392.000000	64.478683 
2391.000000	64.475727 
2390.000000	64.475846 
2389.000000	64.478087 
2388.000000	64.480757 
2387.000000	64.481949 
2386.000000	64.480090 
2385.000000	64.474391 
2384.000000	64.464950 
2383.000000	64.453029 
2382.000000	64.440584 
2381.000000	64.429807 
2380.000000	64.422941 
2379.000000	64.421343 
2378.000000	64.425587 
2377.000000	64.435005 
2376.000000	64.447951 
2375.000000	64.462089 
2374.000000	64.474821 
2373.000000	64.483737 
2372.000000	64.487195 
2371.000000	64.484667 
2370.000000	64.476585 
2369.000000	64.464426 
2368.000000	64.450335 
2367.000000	64.436602 
2366.000000	64.425206 
2365.000000	64.417219 
2364.000000	64.412879 
2363.000000	64.411473 
2362.000000	64.411616 
2361.000000	64.411544 
2360.000000	64.409637 
2359.000000	64.404845 
2358.000000	64.396905 
2357.000000	64.386320 
2356.000000	64.374256 
2355.000000	64.362144 
2354.000000	64.351415 
2353.000000	64.343237 
2352.000000	64.338374 
2351.000000	64.337086 
2350.000000	64.339113 
2349.000000	64.344072 
2348.000000	64.351391 
2347.000000	64.360499 
2346.000000	64.370870 
2345.000000	64.382100 
2344.000000	64.393758 
2343.000000	64.405250 
2342.000000	64.415812 
2341.000000	64.424729 
2340.000000	64.431214 
2339.000000	64.434742 
2338.000000	64.435172 
2337.000000	64.432811 
2336.000000	64.428353 
2335.000000	64.422798 
2334.000000	64.417266 
2333.000000	64.412593 
2332.000000	64.409279 
2331.000000	64.407253 
2330.000000	64.405989 
2329.000000	64.404726 
2328.000000	64.402556 
2327.000000	64.398908 
2326.000000	64.393711 
2325.000000	64.387321 
2324.000000	64.380598 
2323.000000	64.374518 
2322.000000	64.369797 
2321.000000	64.366436 
2320.000000	64.364004 
2319.000000	64.361619 
2318.000000	64.358043 
2317.000000	64.352512 
2316.000000	64.344668 
2315.000000	64.335060 
2314.000000	64.324903 
2313.000000	64.315795 
2312.000000	64.309358 
2311.000000	64.306664 
2310.000000	64.307904 
2309.000000	64.312410 
2308.000000	64.318680 
2307.000000	64.324879 
2306.000000	64.329266 
2305.000000	64.330649 
2304.000000	64.328694 
2303.000000	64.323878 
2302.000000	64.317369 
2301.000000	64.310503 
2300.000000	64.304733 
2299.000000	64.301037 
2298.000000	64.299941 
2297.000000	64.301395 
2296.000000	64.305186 
2295.000000	64.310836 
2294.000000	64.318013 
2293.000000	64.326429 
2292.000000	64.336204 
2291.000000	64.347577 
2290.000000	64.360833 
2289.000000	64.376020 
2288.000000	64.392948 
2287.000000	64.411020 
2286.000000	64.429140 
2285.000000	64.445972 
2284.000000	64.459943 
2283.000000	64.469599 
2282.000000	64.473891 
2281.000000	64.472341 
2280.000000	64.464998 
2279.000000	64.452481 
2278.000000	64.436054 
2277.000000	64.417290 
2276.000000	64.397835 
2275.000000	64.379143 
2274.000000	64.362502 
2273.000000	64.348649 
2272.000000	64.337921 
2271.000000	64.330339 
2270.000000	64.325571 
2269.000000	64.322876 
2268.000000	64.321470 
2267.000000	64.320278 
2266.000000	64.318180 
2265.000000	64.314055 
2264.000000	64.307141 
2263.000000	64.297127 
2262.000000	64.283943 
2261.000000	64.268183 
2260.000000	64.250922 
2259.000000	64.233756 
2258.000000	64.218187 
2257.000000	64.205837 
2256.000000	64.197921 
2255.000000	64.195322 
2254.000000	64.198493 
2253.000000	64.207386 
2252.000000	64.221620 
2251.000000	64.240455 
2250.000000	64.263057 
2249.000000	64.288306 
2248.000000	64.314770 
2247.000000	64.340829 
2246.000000	64.364695 
2245.000000	64.384627 
2244.000000	64.398574 
2243.000000	64.405274 
2242.000000	64.403700 
2241.000000	64.393639 
2240.000000	64.375472 
2239.000000	64.350461 
2238.000000	64.320325 
2237.000000	64.287209 
2236.000000	64.253425 
2235.000000	64.221215 
2234.000000	64.192795 
2233.000000	64.170002 
2232.000000	64.154434 
2231.000000	64.147138 
2230.000000	64.148855 
2229.000000	64.159727 
2228.000000	64.179134 
2227.000000	64.205694 
2226.000000	64.237380 
2225.000000	64.271688 
2224.000000	64.305830 
2223.000000	64.337158 
2222.000000	64.363622 
2221.000000	64.384031 
2220.000000	64.398074 
2219.000000	64.406394 
2218.000000	64.410233 
2217.000000	64.411163 
2216.000000	64.410662 
2215.000000	64.409828 
2214.000000	64.409232 
2213.000000	64.408922 
2212.000000	64.408707 
2211.000000	64.408135 
2210.000000	64.406919 
2209.000000	64.404797 
2208.000000	64.401817 
2207.000000	64.397883 
2206.000000	64.392709 
2205.000000	64.385676 
2204.000000	64.376068 
2203.000000	64.363026 
2202.000000	64.345860 
2201.000000	64.324378 
2200.000000	64.299130 
2199.000000	64.271521 
2198.000000	64.243626 
2197.000000	64.217829 
2196.000000	64.196419 
2195.000000	64.181280 
2194.000000	64.173555 
2193.000000	64.173364 
2192.000000	64.179968 
2191.000000	64.192128 
2190.000000	64.208269 
2189.000000	64.226651 
2188.000000	64.245843 
2187.000000	64.264464 
2186.000000	64.281582 
2185.000000	64.296412 
2184.000000	64.308238 
2183.000000	64.316558 
2182.000000	64.321017 
2181.000000	64.321470 
2180.000000	64.317965 
2179.000000	64.310812 
2178.000000	64.300560 
2177.000000	64.288043 
2176.000000	64.274239 
2175.000000	64.260244 
2174.000000	64.247035 
2173.000000	64.235568 
2172.000000	64.226531 
2171.000000	64.220237 
2170.000000	64.216732 
2169.000000	64.215731 
2168.000000	64.216518 
2167.000000	64.218258 
2166.000000	64.220046 
2165.000000	64.221239 
2164.000000	64.221453 
2163.000000	64.221000 
2162.000000	64.220285 
2161.000000	64.220190 
2160.000000	64.221549 
2159.000000	64.225101 
2158.000000	64.231038 
2157.000000	64.239144 
2156.000000	64.248776 
2155.000000	64.259076 
2154.000000	64.269137 
2153.000000	64.278221 
2152.000000	64.285874 
2151.000000	64.291977 
2150.000000	64.296555 
2149.000000	64.299750 
2148.000000	64.301657 
2147.000000	64.302372 
2146.000000	64.302062 
2145.000000	64.301013 
2144.000000	64.299559 
2143.000000	64.298129 
2142.000000	64.297199 
2141.000000	64.296984 
2140.000000	64.297366 
2139.000000	64.297842 
2138.000000	64.297604 
2137.000000	64.295673 
2136.000000	64.291501 
2135.000000	64.285063 
2134.000000	64.277195 
2133.000000	64.269542 
2132.000000	64.264106 
2131.000000	64.262866 
2130.000000	64.266991 
2129.000000	64.276385 
2128.000000	64.289569 
2127.000000	64.303636 
2126.000000	64.315366 
2125.000000	64.321875 
2124.000000	64.321398 
2123.000000	64.313817 
2122.000000	64.300727 
2121.000000	64.284729 
2120.000000	64.268922 
2119.000000	64.255714 
2118.000000	64.246463 
2117.000000	64.240932 
2116.000000	64.237833 
2115.000000	64.235067 
2114.000000	64.230704 
2113.000000	64.223694 
2112.000000	64.214181 
2111.000000	64.203476 
2110.000000	64.193701 
2109.000000	64.187049 
2108.000000	64.185070 
2107.000000	64.188194 
2106.000000	64.195466 
2105.000000	64.204955 
2104.000000	64.214062 
2103.000000	64.220309 
2102.000000	64.221668 
2101.000000	64.217185 
2100.000000	64.207100 
2099.000000	64.192891 
2098.000000	64.176726 
2097.000000	64.161157 
2096.000000	64.148545 
2095.000000	64.140439 
2094.000000	64.137315 
2093.000000	64.138722 
2092.000000	64.143276 
2091.000000	64.149403 
2090.000000	64.155602 
2089.000000	64.160919 
2088.000000	64.165139 
2087.000000	64.168405 
2086.000000	64.171147 
2085.000000	64.173722 
2084.000000	64.176321 
2083.000000	64.178895 
2082.000000	64.181160 
2081.000000	64.182901 
2080.000000	64.184165 
2079.000000	64.185190 
2078.000000	64.186429 
2077.000000	64.188408 
2076.000000	64.191436 
2075.000000	64.195489 
2074.000000	64.199900 
2073.000000	64.203763 
2072.000000	64.205813 
2071.000000	64.204883 
2070.000000	64.200162 
2069.000000	64.191436 
2068.000000	64.178991 
2067.000000	64.163565 
2066.000000	64.146304 
2065.000000	64.128565 
2064.000000	64.111614 
2063.000000	64.096689 
2062.000000	64.084959 
2061.000000	64.077401 
2060.000000	64.074540 
2059.000000	64.076566 
2058.000000	64.082980 
2057.000000	64.092493 
2056.000000	64.103341 
2055.000000	64.113330 
2054.000000	64.120054 
2053.000000	64.121484 
2052.000000	64.116525 
2051.000000	64.104986 
2050.000000	64.088058 
2049.000000	64.067840 
2048.000000	64.047002 
2047.000000	64.028358 
2046.000000	64.014220 
2045.000000	64.006066 
2044.000000	64.004421 
2043.000000	64.008784 
2042.000000	64.017915 
2041.000000	64.029979 
2040.000000	64.042973 
2039.000000	64.055085 
2038.000000	64.064860 
2037.000000	64.071559 
2036.000000	64.074969 
2035.000000	64.075565 
2034.000000	64.074087 
2033.000000	64.071369 
2032.000000	64.067983 
2031.000000	64.064335 
2030.000000	64.060258 
2029.000000	64.055562 
2028.000000	64.049887 
2027.000000	64.043283 
2026.000000	64.036083 
2025.000000	64.029169 
2024.000000	64.023661 
2023.000000	64.020633 
2022.000000	64.020824 
2021.000000	64.024376 
2020.000000	64.030504 
2019.000000	64.037752 
2018.000000	64.044189 
2017.000000	64.047861 
2016.000000	64.047336 
2015.000000	64.042139 
2014.000000	64.032697 
2013.000000	64.020538 
2012.000000	64.007568 
2011.000000	63.995814 
2010.000000	63.986945 
2009.000000	63.981962 
2008.000000	63.980984 
2007.000000	63.983488 
2006.000000	63.988423 
2005.000000	63.994693 
2004.000000	64.001321 
2003.000000	64.007735 
2002.000000	64.013576 
2001.000000	64.018845 
2000.000000	64.023399 
1999.000000	64.026904 
1998.000000	64.028787 
1997.000000	64.028358 
1996.000000	64.024853 
1995.000000	64.017724 
1994.000000	64.006996 
1993.000000	63.993096 
1992.000000	63.977122 
1991.000000	63.960313 
1990.000000	63.943910 
1989.000000	63.928890 
1988.000000	63.915681 
1987.000000	63.904380 
1986.000000	63.894748 
1985.000000	63.886475 
1984.000000	63.879466 
1983.000000	63.873934 
1982.000000	63.870382 
1981.000000	63.869524 
1980.000000	63.872170 
1979.000000	63.878631 
1978.000000	63.888812 
1977.000000	63.901972 
1976.000000	63.916826 
1975.000000	63.931584 
1974.000000	63.944339 
1973.000000	63.953399 
1972.000000	63.957786 
1971.000000	63.957238 
1970.000000	63.952422 
1969.000000	63.944911 
1968.000000	63.936638 
1967.000000	63.929629 
1966.000000	63.925480 
1965.000000	63.925099 
1964.000000	63.928389 
1963.000000	63.934206 
1962.000000	63.940620 
1961.000000	63.945555 
1960.000000	63.947105 
1959.000000	63.944125 
1958.000000	63.936567 
1957.000000	63.925409 
1956.000000	63.912367 
1955.000000	63.899564 
1954.000000	63.888812 
1953.000000	63.881421 
1952.000000	63.877892 
1951.000000	63.877964 
1950.000000	63.880872 
1949.000000	63.885521 
1948.000000	63.891172 
1947.000000	63.897371 
1946.000000	63.903999 
1945.000000	63.911342 
1944.000000	63.919782 
1943.000000	63.929748 
1942.000000	63.941216 
1941.000000	63.953948 
1940.000000	63.967466 
1939.000000	63.981175 
1938.000000	63.994669 
1937.000000	64.007496 
1936.000000	64.019227 
1935.000000	64.029479 
1934.000000	64.037871 
1933.000000	64.043831 
1932.000000	64.046692 
1931.000000	64.045786 
1930.000000	64.040613 
1929.000000	64.030933 
1928.000000	64.017152 
1927.000000	64.000105 
1926.000000	63.980937 
1925.000000	63.961076 
1924.000000	63.941812 
1923.000000	63.924121 
1922.000000	63.908672 
1921.000000	63.895559 
1920.000000	63.884615 
1919.000000	63.875365 
1918.000000	63.867402 
1917.000000	63.860416 
1916.000000	63.854622 
1915.000000	63.850331 
1914.000000	63.848447 
1913.000000	63.850021 
1912.000000	63.856101 
1911.000000	63.867497 
1910.000000	63.884305 
1909.000000	63.905811 
1908.000000	63.930368 
1907.000000	63.955593 
1906.000000	63.978385 
1905.000000	63.995647 
1904.000000	64.004635 
1903.000000	64.003729 
1902.000000	63.992738 
1901.000000	63.972997 
1900.000000	63.947272 
1899.000000	63.919138 
1898.000000	63.892459 
1897.000000	63.870549 
1896.000000	63.855695 
1895.000000	63.848543 
1894.000000	63.848495 
1893.000000	63.853502 
1892.000000	63.861131 
1891.000000	63.868594 
1890.000000	63.873577 
1889.000000	63.874650 
1888.000000	63.871169 
1887.000000	63.863611 
1886.000000	63.853144 
1885.000000	63.841629 
1884.000000	63.830900 
1883.000000	63.823056 
1882.000000	63.819670 
1881.000000	63.821816 
1880.000000	63.829851 
1879.000000	63.843178 
1878.000000	63.860487 
1877.000000	63.879513 
1876.000000	63.897466 
1875.000000	63.911700 
1874.000000	63.919973 
1873.000000	63.921093 
1872.000000	63.914942 
1871.000000	63.902735 
1870.000000	63.886737 
1869.000000	63.869810 
1868.000000	63.854765 
1867.000000	63.843822 
1866.000000	63.838195 
1865.000000	63.837862 
1864.000000	63.841795 
1863.000000	63.848137 
1862.000000	63.854837 
1861.000000	63.859963 
1860.000000	63.862371 
1859.000000	63.861823 
1858.000000	63.858985 
1857.000000	63.855075 
1856.000000	63.851451 
1855.000000	63.849401 
1854.000000	63.849449 
1853.000000	63.851475 
1852.000000	63.854646 
1851.000000	63.857460 
1850.000000	63.858366 
1849.000000	63.856148 
1848.000000	63.850235 
1847.000000	63.840889 
1846.000000	63.829135 
1845.000000	63.816714 
1844.000000	63.805627 
1843.000000	63.797712 
1842.000000	63.794136 
1841.000000	63.795328 
1840.000000	63.800501 
1839.000000	63.808083 
1838.000000	63.815903 
1837.000000	63.821864 
1836.000000	63.824081 
1835.000000	63.821601 
1834.000000	63.814353 
1833.000000	63.803482 
1832.000000	63.790917 
1831.000000	63.778853 
1830.000000	63.769364 
1829.000000	63.763999 
1828.000000	63.763523 
1827.000000	63.767910 
1826.000000	63.776111 
1825.000000	63.786745 
1824.000000	63.798499 
1823.000000	63.810086 
1822.000000	63.820672 
1821.000000	63.830137 
1820.000000	63.838815 
1819.000000	63.847279 
1818.000000	63.856172 
1817.000000	63.865923 
1816.000000	63.876652 
1815.000000	63.888263 
1814.000000	63.900399 
1813.000000	63.912582 
1812.000000	63.924169 
1811.000000	63.934636 
1810.000000	63.943362 
1809.000000	63.949728 
1808.000000	63.952732 
1807.000000	63.951635 
1806.000000	63.945436 
1805.000000	63.933587 
1804.000000	63.915896 
1803.000000	63.892936 
1802.000000	63.865923 
1801.000000	63.836526 
1800.000000	63.806748 
1799.000000	63.778495 
1798.000000	63.753175 
1797.000000	63.731431 
1796.000000	63.713216 
1795.000000	63.697886 
1794.000000	63.684725 
1793.000000	63.673281 
1792.000000	63.663649 
1791.000000	63.656377 
1790.000000	63.652634 
1789.000000	63.653683 
1788.000000	63.660216 
1787.000000	63.672113 
1786.000000	63.688349 
1785.000000	63.707065 
1784.000000	63.725662 
1783.000000	63.741707 
1782.000000	63.753223 
1781.000000	63.759279 
1780.000000	63.759851 
1779.000000	63.755941 
1778.000000	63.749265 
1777.000000	63.741779 
1776.000000	63.735032 
1775.000000	63.729977 
1774.000000	63.727092 
1773.000000	63.726186 
1772.000000	63.726687 
1771.000000	63.728117 
1770.000000	63.730168 
1769.000000	63.732767 
1768.000000	63.735914 
1767.000000	63.739609 
1766.000000	63.743591 
1765.000000	63.747167 
1764.000000	63.749289 
1763.000000	63.748860 
1762.000000	63.744878 
1761.000000	63.736891 
1760.000000	63.724923 
1759.000000	63.709616 
1758.000000	63.691639 
1757.000000	63.671994 
1756.000000	63.651061 
1755.000000	63.628554 
1754.000000	63.603401 
1753.000000	63.574385 
1752.000000	63.540196 
1751.000000	63.500094 
1750.000000	63.454055 
1749.000000	63.403391 
1748.000000	63.350129 
1747.000000	63.296484 
1746.000000	63.244676 
1745.000000	63.196396 
1744.000000	63.152313 
1743.000000	63.112068 
1742.000000	63.074803 
1741.000000	63.039374 
1740.000000	63.004922 
1739.000000	62.971329 
1738.000000	62.939119 
1737.000000	62.909913 
1736.000000	62.885546 
1735.000000	62.868142 
1734.000000	62.859225 
1733.000000	62.859988 
1732.000000	62.870407 
1731.000000	62.889933 
1730.000000	62.917065 
1729.000000	62.950205 
1728.000000	62.987208 
1727.000000	63.026428 
1726.000000	63.066244 
1725.000000	63.105702 
1724.000000	63.143944 
1723.000000	63.180637 
1722.000000	63.215994 
1721.000000	63.250279 
1720.000000	63.283586 
1719.000000	63.315939 
1718.000000	63.347554 
1717.000000	63.378262 
1716.000000	63.407683 
1715.000000	63.435506 
1714.000000	63.461518 
1713.000000	63.485527 
1712.000000	63.507294 
1711.000000	63.526749 
1710.000000	63.543939 
1709.000000	63.558602 
1708.000000	63.570523 
1707.000000	63.579583 
1706.000000	63.585638 
1705.000000	63.588786 
1704.000000	63.589382 
1703.000000	63.588094 
1702.000000	63.585853 
1701.000000	63.583755 
1700.000000	63.583064 
1699.000000	63.584589 
1698.000000	63.588976 
1697.000000	63.596534 
1696.000000	63.607239 
1695.000000	63.620567 
1694.000000	63.635754 
1693.000000	63.652157 
1692.000000	63.668799 
1691.000000	63.684535 
1690.000000	63.698005 
1689.000000	63.707900 
1688.000000	63.712763 
1687.000000	63.711524 
1686.000000	63.703799 
1685.000000	63.690280 
1684.000000	63.672733 
1683.000000	63.653635 
1682.000000	63.635969 
1681.000000	63.622212 
1680.000000	63.614106 
1679.000000	63.612008 
1678.000000	63.614916 
1677.000000	63.620829 
1676.000000	63.627266 
1675.000000	63.631868 
1674.000000	63.633084 
1673.000000	63.630461 
1672.000000	63.624525 
1671.000000	63.616657 
1670.000000	63.608455 
1669.000000	63.601255 
1668.000000	63.595867 
1667.000000	63.592290 
1666.000000	63.590145 
1665.000000	63.588643 
1664.000000	63.587045 
1663.000000	63.584780 
1662.000000	63.581705 
1661.000000	63.577675 
1660.000000	63.572621 
1659.000000	63.566446 
1658.000000	63.559079 
1657.000000	63.550519 
1656.000000	63.540744 
1655.000000	63.530254 
1654.000000	63.519883 
1653.000000	63.510608 
1652.000000	63.503694 
1651.000000	63.499855 
1650.000000	63.499379 
1649.000000	63.501763 
1648.000000	63.506150 
1647.000000	63.511371 
1646.000000	63.516545 
1645.000000	63.521027 
1644.000000	63.524937 
1643.000000	63.528704 
1642.000000	63.533115 
1641.000000	63.538694 
1640.000000	63.545560 
1639.000000	63.553071 
1638.000000	63.560056 
1637.000000	63.565039 
1636.000000	63.566398 
1635.000000	63.562798 
1634.000000	63.553547 
1633.000000	63.538789 
1632.000000	63.519430 
1631.000000	63.496851 
1630.000000	63.472890 
1629.000000	63.449239 
1628.000000	63.427591 
1627.000000	63.408970 
1626.000000	63.394212 
1625.000000	63.383388 
1624.000000	63.375854 
1623.000000	63.370513 
1622.000000	63.365721 
1621.000000	63.359999 
1620.000000	63.351988 
1619.000000	63.341093 
1618.000000	63.327240 
1617.000000	63.311529 
1616.000000	63.295650 
1615.000000	63.281941 
1614.000000	63.272500 
1613.000000	63.269138 
1612.000000	63.272929 
1611.000000	63.284087 
1610.000000	63.301753 
1609.000000	63.324236 
1608.000000	63.349175 
1607.000000	63.373827 
1606.000000	63.395619 
1605.000000	63.412189 
1604.000000	63.422012 
1603.000000	63.424301 
1602.000000	63.419461 
1601.000000	63.409090 
1600.000000	63.395547 
1599.000000	63.381981 
1598.000000	63.371515 
1597.000000	63.366603 
1596.000000	63.368487 
1595.000000	63.377141 
1594.000000	63.390922 
1593.000000	63.407063 
1592.000000	63.422322 
1591.000000	63.433456 
1590.000000	63.438153 
1589.000000	63.435268 
1588.000000	63.425302 
1587.000000	63.409900 
1586.000000	63.391661 
1585.000000	63.373351 
1584.000000	63.357639 
1583.000000	63.346433 
1582.000000	63.340687 
1581.000000	63.340520 
1580.000000	63.345313 
1579.000000	63.353991 
1578.000000	63.365268 
1577.000000	63.377881 
1576.000000	63.390564 
1575.000000	63.402390 
1574.000000	63.412547 
1573.000000	63.420605 
1572.000000	63.426399 
1571.000000	63.429737 
1570.000000	63.430714 
1569.000000	63.429212 
1568.000000	63.425254 
1567.000000	63.418936 
1566.000000	63.410449 
1565.000000	63.399982 
1564.000000	63.388204 
1563.000000	63.375973 
1562.000000	63.364601 
1561.000000	63.355541 
1560.000000	63.350176 
1559.000000	63.349485 
1558.000000	63.353967 
1557.000000	63.363242 
1556.000000	63.376164 
1555.000000	63.390970 
1554.000000	63.405680 
1553.000000	63.418483 
1552.000000	63.428092 
1551.000000	63.433814 
1550.000000	63.435697 
1549.000000	63.434362 
1548.000000	63.430738 
1547.000000	63.425803 
1546.000000	63.420200 
1545.000000	63.414311 
1544.000000	63.407993 
1543.000000	63.401103 
1542.000000	63.393378 
1541.000000	63.384795 
1540.000000	63.375377 
1539.000000	63.365745 
1538.000000	63.356542 
1537.000000	63.348460 
1536.000000	63.342070 
1535.000000	63.337612 
1534.000000	63.334965 
1533.000000	63.333702 
1532.000000	63.333201 
1531.000000	63.332724 
1530.000000	63.331794 
1529.000000	63.330388 
1528.000000	63.329029 
1527.000000	63.328671 
1526.000000	63.330721 
1525.000000	63.336443 
1524.000000	63.346862 
1523.000000	63.362216 
1522.000000	63.381791 
1521.000000	63.403773 
1520.000000	63.425850 
1519.000000	63.445305 
1518.000000	63.459849 
1517.000000	63.467550 
1516.000000	63.467669 
1515.000000	63.460588 
1514.000000	63.447546 
1513.000000	63.430547 
1512.000000	63.412046 
1511.000000	63.394403 
1510.000000	63.379621 
1509.000000	63.369274 
1508.000000	63.364315 
1507.000000	63.365125 
1506.000000	63.371562 
1505.000000	63.383340 
1504.000000	63.399887 
1503.000000	63.420557 
1502.000000	63.444495 
1501.000000	63.470625 
1500.000000	63.497567 
1499.000000	63.523483 
1498.000000	63.546252 
1497.000000	63.563752 
1496.000000	63.574123 
1495.000000	63.576078 
1494.000000	63.569140 
1493.000000	63.553643 
1492.000000	63.530921 
1491.000000	63.503074 
1490.000000	63.472580 
1489.000000	63.441896 
1488.000000	63.413071 
1487.000000	63.387632 
1486.000000	63.366246 
1485.000000	63.348984 
1484.000000	63.335227 
1483.000000	63.324046 
1482.000000	63.314461 
1481.000000	63.305521 
1480.000000	63.296651 
1479.000000	63.287544 
1478.000000	63.278150 
1477.000000	63.268518 
1476.000000	63.258647 
1475.000000	63.248395 
1474.000000	63.237214 
1473.000000	63.224363 
1472.000000	63.208913 
1471.000000	63.190174 
1470.000000	63.168096 
1469.000000	63.143658 
1468.000000	63.118743 
1467.000000	63.096117 
1466.000000	63.078999 
1465.000000	63.070368 
1464.000000	63.072323 
1463.000000	63.085460 
1462.000000	63.108658 
1461.000000	63.138985 
1460.000000	63.172245 
1459.000000	63.203692 
1458.000000	63.228487 
1457.000000	63.242864 
1456.000000	63.244652 
1455.000000	63.233876 
1454.000000	63.212347 
1453.000000	63.183665 
1452.000000	63.152480 
1451.000000	63.123440 
1450.000000	63.100409 
1449.000000	63.085794 
1448.000000	63.080239 
1447.000000	63.082671 
1446.000000	63.090825 
1445.000000	63.101649 
1444.000000	63.112354 
1443.000000	63.120579 
1442.000000	63.125133 
1441.000000	63.125681 
1440.000000	63.123011 
1439.000000	63.118529 
1438.000000	63.114047 
1437.000000	63.111281 
1436.000000	63.111400 
1435.000000	63.114881 
1434.000000	63.121390 
1433.000000	63.129878 
1432.000000	63.139033 
1431.000000	63.147592 
1430.000000	63.154697 
1429.000000	63.160085 
1428.000000	63.164091 
1427.000000	63.167500 
1426.000000	63.171267 
1425.000000	63.176059 
1424.000000	63.182139 
1423.000000	63.189291 
1422.000000	63.196945 
1421.000000	63.204264 
1420.000000	63.210368 
1419.000000	63.214492 
1418.000000	63.216257 
1417.000000	63.215637 
1416.000000	63.212871 
1415.000000	63.208150 
1414.000000	63.201737 
1413.000000	63.193845 
1412.000000	63.184762 
1411.000000	63.174724 
1410.000000	63.164091 
1409.000000	63.153433 
1408.000000	63.143205 
1407.000000	63.133931 
1406.000000	63.125848 
1405.000000	63.119435 
1404.000000	63.114833 
1403.000000	63.112258 
1402.000000	63.112115 
1401.000000	63.114476 
1400.000000	63.119459 
1399.000000	63.126516 
1398.000000	63.134694 
1397.000000	63.142514 
1396.000000	63.148045 
1395.000000	63.149261 
1394.000000	63.144516 
1393.000000	63.132929 
1392.000000	63.114881 
1391.000000	63.091969 
1390.000000	63.066816 
1389.000000	63.042688 
1388.000000	63.022732 
1387.000000	63.009452 
1386.000000	63.004064 
1385.000000	63.006424 
1384.000000	63.015079 
1383.000000	63.027715 
1382.000000	63.041710 
1381.000000	63.054466 
1380.000000	63.064193 
1379.000000	63.069844 
1378.000000	63.071274 
1377.000000	63.069128 
1376.000000	63.064646 
1375.000000	63.059115 
1374.000000	63.053750 
1373.000000	63.049316 
1372.000000	63.046169 
1371.000000	63.044261 
1370.000000	63.043379 
1369.000000	63.043212 
1368.000000	63.043427 
1367.000000	63.043880 
1366.000000	63.044524 
1365.000000	63.045430 
1364.000000	63.046646 
1363.000000	63.048171 
1362.000000	63.050007 
1361.000000	63.052082 
1360.000000	63.054442 
1359.000000	63.057255 
1358.000000	63.060855 
1357.000000	63.065361 
1356.000000	63.071060 
1355.000000	63.077855 
1354.000000	63.085198 
1353.000000	63.091969 
1352.000000	63.096833 
1351.000000	63.098430 
1350.000000	63.095879 
1349.000000	63.088917 
1348.000000	63.078331 
1347.000000	63.065433 
1346.000000	63.052177 
1345.000000	63.040375 
1344.000000	63.031411 
1343.000000	63.026046 
1342.000000	63.024091 
1341.000000	63.024783 
1340.000000	63.026857 
1339.000000	63.029193 
1338.000000	63.030982 
1337.000000	63.032007 
1336.000000	63.032341 
1335.000000	63.032364 
1334.000000	63.032531 
1333.000000	63.033080 
1332.000000	63.034057 
1331.000000	63.035511 
1330.000000	63.037395 
1329.000000	63.039898 
1328.000000	63.043355 
1327.000000	63.047957 
1326.000000	63.053679 
1325.000000	63.060045 
1324.000000	63.066267 
1323.000000	63.071489 
1322.000000	63.074994 
1321.000000	63.076472 
1320.000000	63.076162 
1319.000000	63.074851 
1318.000000	63.073539 
1317.000000	63.073253 
1316.000000	63.074421 
1315.000000	63.076925 
1314.000000	63.079833 
1313.000000	63.081789 
1312.000000	63.081240 
1311.000000	63.076877 
1310.000000	63.068151 
1309.000000	63.055491 
1308.000000	63.040280 
1307.000000	63.024616 
1306.000000	63.010811 
1305.000000	63.000965 
1304.000000	62.996459 
1303.000000	62.997603 
1302.000000	63.003730 
1301.000000	63.012981 
1300.000000	63.022971 
1299.000000	63.030982 
1298.000000	63.034415 
1297.000000	63.031387 
1296.000000	63.020992 
1295.000000	63.003492 
1294.000000	62.980055 
1293.000000	62.952733 
1292.000000	62.924146 
1291.000000	62.896752 
1290.000000	62.872695 
1289.000000	62.853169 
1288.000000	62.838578 
1287.000000	62.828421 
1286.000000	62.821650 
1285.000000	62.817072 
1284.000000	62.813878 
1283.000000	62.811636 
1282.000000	62.810516 
1281.000000	62.810969 
1280.000000	62.813496 
1279.000000	62.818217 
1278.000000	62.824630 
1277.000000	62.831616 
1276.000000	62.837505 
1275.000000	62.840723 
1274.000000	62.840008 
1273.000000	62.834811 
1272.000000	62.824988 
1271.000000	62.811255 
1270.000000	62.794589 
1269.000000	62.775993 
1268.000000	62.756299 
1267.000000	62.735939 
1266.000000	62.715387 
1265.000000	62.694907 
1264.000000	62.675070 
1263.000000	62.656903 
1262.000000	62.641644 
1261.000000	62.630462 
1260.000000	62.623953 
1259.000000	62.621998 
1258.000000	62.623500 
1257.000000	62.626695 
1256.000000	62.629365 
1255.000000	62.629556 
1254.000000	62.626099 
1253.000000	62.619066 
1252.000000	62.609720 
1251.000000	62.600421 
1250.000000	62.594079 
1249.000000	62.593197 
1248.000000	62.599301 
1247.000000	62.612414 
1246.000000	62.630939 
1245.000000	62.651896 
1244.000000	62.671804 
1243.000000	62.687492 
1242.000000	62.697005 
1241.000000	62.700247 
1240.000000	62.698864 
1239.000000	62.695741 
1238.000000	62.694168 
1237.000000	62.696599 
1236.000000	62.704229 
1235.000000	62.716197 
1234.000000	62.730097 
1233.000000	62.742400 
1232.000000	62.749671 
1231.000000	62.749505 
1230.000000	62.741208 
1229.000000	62.725949 
1228.000000	62.706589 
1227.000000	62.686872 
1226.000000	62.670397 
1225.000000	62.659978 
1224.000000	62.656879 
1223.000000	62.660908 
1222.000000	62.670564 
1221.000000	62.683796 
1220.000000	62.698531 
1219.000000	62.713265 
1218.000000	62.727403 
1217.000000	62.740921 
1216.000000	62.754273 
1215.000000	62.767815 
1214.000000	62.781476 
1213.000000	62.794423 
1212.000000	62.805247 
1211.000000	62.812376 
1210.000000	62.814307 
1209.000000	62.810063 
1208.000000	62.799310 
1207.000000	62.782573 
1206.000000	62.761020 
1205.000000	62.736201 
1204.000000	62.710189 
1203.000000	62.685203 
1202.000000	62.663483 
1201.000000	62.647032 
1200.000000	62.637472 
1199.000000	62.635779 
1198.000000	62.642002 
1197.000000	62.655162 
1196.000000	62.673068 
1195.000000	62.692761 
1194.000000	62.711000 
1193.000000	62.724804 
1192.000000	62.731790 
1191.000000	62.730765 
1190.000000	62.721824 
1189.000000	62.706089 
1188.000000	62.685465 
1187.000000	62.662076 
1186.000000	62.637877 
1185.000000	62.614083 
1184.000000	62.591266 
1183.000000	62.569284 
1182.000000	62.547826 
1181.000000	62.526249 
1180.000000	62.503957 
1179.000000	62.480568 
1178.000000	62.456035 
1177.000000	62.430477 
1176.000000	62.404227 
1175.000000	62.377905 
1174.000000	62.352514 
1173.000000	62.329339 
1172.000000	62.310099 
1171.000000	62.296533 
1170.000000	62.290477 
1169.000000	62.293124 
1168.000000	62.304902 
1167.000000	62.324953 
1166.000000	62.351274 
1165.000000	62.380743 
1164.000000	62.409806 
1163.000000	62.434816 
1162.000000	62.453031 
1161.000000	62.462759 
1160.000000	62.464094 
1159.000000	62.458395 
1158.000000	62.448477 
1157.000000	62.437462 
1156.000000	62.428689 
1155.000000	62.424921 
1154.000000	62.427949 
1153.000000	62.438249 
1152.000000	62.455224 
1151.000000	62.477326 
1150.000000	62.502527 
1149.000000	62.528491 
1148.000000	62.552833 
1147.000000	62.573623 
1146.000000	62.589478 
1145.000000	62.599587 
1144.000000	62.603926 
1143.000000	62.603163 
1142.000000	62.598466 
1141.000000	62.591457 
1140.000000	62.583947 
1139.000000	62.577509 
1138.000000	62.573695 
1137.000000	62.573361 
1136.000000	62.576842 
1135.000000	62.583613 
1134.000000	62.592720 
1133.000000	62.602877 
1132.000000	62.612628 
1131.000000	62.621045 
1130.000000	62.627744 
1129.000000	62.633109 
1128.000000	62.638020 
1127.000000	62.643408 
1126.000000	62.649989 
1125.000000	62.657666 
1124.000000	62.665653 
1123.000000	62.672281 
1122.000000	62.675690 
1121.000000	62.674045 
1120.000000	62.666225 
1119.000000	62.652206 
1118.000000	62.632942 
1117.000000	62.610316 
1116.000000	62.586474 
1115.000000	62.563323 
1114.000000	62.542271 
1113.000000	62.523889 
1112.000000	62.508082 
1111.000000	62.494492 
1110.000000	62.482857 
1109.000000	62.473392 
1108.000000	62.466883 
1107.000000	62.464380 
1106.000000	62.467026 
1105.000000	62.475061 
1104.000000	62.488365 
1103.000000	62.505769 
1102.000000	62.525701 
1101.000000	62.546181 
1100.000000	62.565374 
1099.000000	62.581706 
1098.000000	62.593960 
1097.000000	62.601685 
1096.000000	62.604713 
1095.000000	62.603139 
1094.000000	62.597036 
1093.000000	62.586569 
1092.000000	62.571859 
1091.000000	62.553238 
1090.000000	62.531375 
1089.000000	62.507820 
1088.000000	62.485122 
1087.000000	62.466669 
1086.000000	62.456202 
1085.000000	62.456750 
1084.000000	62.470006 
1083.000000	62.495160 
1082.000000	62.529039 
1081.000000	62.566351 
1080.000000	62.600612 
1079.000000	62.625741 
1078.000000	62.637162 
1077.000000	62.633252 
1076.000000	62.615394 
1075.000000	62.587904 
1074.000000	62.556958 
1073.000000	62.529110 
1072.000000	62.509989 
1071.000000	62.502765 
1070.000000	62.507867 
1069.000000	62.522983 
1068.000000	62.544131 
1067.000000	62.566399 
1066.000000	62.585330 
1065.000000	62.597489 
1064.000000	62.601113 
1063.000000	62.595915 
1062.000000	62.582945 
1061.000000	62.563800 
1060.000000	62.540459 
1059.000000	62.514829 
1058.000000	62.488555 
1057.000000	62.462925 
1056.000000	62.438941 
1055.000000	62.417721 
1054.000000	62.400507 
1053.000000	62.388753 
1052.000000	62.383818 
1051.000000	62.386775 
1050.000000	62.397861 
1049.000000	62.416481 
1048.000000	62.440824 
1047.000000	62.467813 
1046.000000	62.493658 
1045.000000	62.514543 
1044.000000	62.527298 
1043.000000	62.530016 
1042.000000	62.522530 
1041.000000	62.506270 
1040.000000	62.484049 
1039.000000	62.459516 
1038.000000	62.436151 
1037.000000	62.416410 
1036.000000	62.401461 
1035.000000	62.391090 
1034.000000	62.384271 
1033.000000	62.379789 
1032.000000	62.376737 
1031.000000	62.374973 
1030.000000	62.375020 
1029.000000	62.377715 
1028.000000	62.383747 
1027.000000	62.393116 
1026.000000	62.404394 
1025.000000	62.415194 
1024.000000	62.422513 
1023.000000	62.423563 
1022.000000	62.416768 
1021.000000	62.402367 
1020.000000	62.382555 
1019.000000	62.361240 
1018.000000	62.343144 
1017.000000	62.332868 
1016.000000	62.333536 
1015.000000	62.346529 
1014.000000	62.370944 
1013.000000	62.403964 
1012.000000	62.441325 
1011.000000	62.478041 
1010.000000	62.509346 
1009.000000	62.531256 
1008.000000	62.541532 
1007.000000	62.539696 
1006.000000	62.527298 
1005.000000	62.507438 
1004.000000	62.484478 
1003.000000	62.463068 
1002.000000	62.447309 
1001.000000	62.440204 
1000.000000	62.442779 
999.000000	 62.454199 
998.000000	 62.471771 
997.000000	 62.491679 
996.000000	 62.509679 
995.000000	 62.522125 
994.000000	 62.526893 
993.000000	 62.523412 
992.000000	 62.513256 
991.000000	 62.499260 
990.000000	 62.485361 
989.000000	 62.475442 
988.000000	 62.472724 
987.000000	 62.478995 
986.000000	 62.494587 
985.000000	 62.518286 
984.000000	 62.547516 
983.000000	 62.578582 
982.000000	 62.607502 
981.000000	 62.630295 
980.000000	 62.643861 
979.000000	 62.646222 
978.000000	 62.636733 
977.000000	 62.616109 
976.000000	 62.586522 
975.000000	 62.550854 
974.000000	 62.512636 
973.000000	 62.475156 
972.000000	 62.441229 
971.000000	 62.412738 
970.000000	 62.390494 
969.000000	 62.374520 
968.000000	 62.364196 
967.000000	 62.358927 
966.000000	 62.357831 
965.000000	 62.360715 
964.000000	 62.367701 
963.000000	 62.379240 
962.000000	 62.395501 
961.000000	 62.416338 
960.000000	 62.440872 
959.000000	 62.467575 
958.000000	 62.494301 
957.000000	 62.518477 
956.000000	 62.537550 
955.000000	 62.549662 
954.000000	 62.553811 
953.000000	 62.550091 
952.000000	 62.539720 
951.000000	 62.524843 
950.000000	 62.507724 
949.000000	 62.490868 
948.000000	 62.475800 
947.000000	 62.463521 
946.000000	 62.453818 
945.000000	 62.445902 
944.000000	 62.438273 
943.000000	 62.429571 
942.000000	 62.418723 
941.000000	 62.404942 
940.000000	 62.388205 
939.000000	 62.369132 
938.000000	 62.348961 
937.000000	 62.329339 
936.000000	 62.312078 
935.000000	 62.298870 
934.000000	 62.291169 
933.000000	 62.289905 
932.000000	 62.295460 
931.000000	 62.307500 
930.000000	 62.325239 
929.000000	 62.347412 
928.000000	 62.372493 
927.000000	 62.398481 
926.000000	 62.423372 
925.000000	 62.445306 
924.000000	 62.462496 
923.000000	 62.473630 
922.000000	 62.478160 
921.000000	 62.476754 
920.000000	 62.471055 
919.000000	 62.463569 
918.000000	 62.457203 
917.000000	 62.454748 
916.000000	 62.458443 
915.000000	 62.469100 
914.000000	 62.485933 
913.000000	 62.506866 
912.000000	 62.528896 
911.000000	 62.549042 
910.000000	 62.564635 
909.000000	 62.574291 
908.000000	 62.578320 
907.000000	 62.578272 
906.000000	 62.576317 
905.000000	 62.574672 
904.000000	 62.574744 
903.000000	 62.576508 
902.000000	 62.578368 
901.000000	 62.577605 
900.000000	 62.571001 
899.000000	 62.555837 
898.000000	 62.530541 
897.000000	 62.495231 
896.000000	 62.451672 
895.000000	 62.403273 
894.000000	 62.354254 
893.000000	 62.308549 
892.000000	 62.269520 
891.000000	 62.239241 
890.000000	 62.218737 
889.000000	 62.207770 
888.000000	 62.205791 
887.000000	 62.212038 
886.000000	 62.226104 
885.000000	 62.247586 
884.000000	 62.276172 
883.000000	 62.310886 
882.000000	 62.350249 
881.000000	 62.391638 
880.000000	 62.431812 
879.000000	 62.467169 
878.000000	 62.494516 
877.000000	 62.511658 
876.000000	 62.517762 
875.000000	 62.513327 
874.000000	 62.500166 
873.000000	 62.480664 
872.000000	 62.457180 
871.000000	 62.431526 
870.000000	 62.405037 
869.000000	 62.378311 
868.000000	 62.352108 
867.000000	 62.326979 
866.000000	 62.304282 
865.000000	 62.285327 
864.000000	 62.271213 
863.000000	 62.262511 
862.000000	 62.258696 
861.000000	 62.258529 
860.000000	 62.259721 
859.000000	 62.260150 
858.000000	 62.258267 
857.000000	 62.253952 
856.000000	 62.248468 
855.000000	 62.244272 
854.000000	 62.244248 
853.000000	 62.250876 
852.000000	 62.265324 
851.000000	 62.286758 
850.000000	 62.312388 
849.000000	 62.338113 
848.000000	 62.359452 
847.000000	 62.372732 
846.000000	 62.375879 
845.000000	 62.368822 
844.000000	 62.353515 
843.000000	 62.333178 
842.000000	 62.311816 
841.000000	 62.293028 
840.000000	 62.279534 
839.000000	 62.272810 
838.000000	 62.273287 
837.000000	 62.280488 
836.000000	 62.293505 
835.000000	 62.311410 
834.000000	 62.333440 
833.000000	 62.358903 
832.000000	 62.387180 
831.000000	 62.417364 
830.000000	 62.447881 
829.000000	 62.476587 
828.000000	 62.500715 
827.000000	 62.517619 
826.000000	 62.525224 
825.000000	 62.522649 
824.000000	 62.510418 
823.000000	 62.490534 
822.000000	 62.466287 
821.000000	 62.441587 
820.000000	 62.420201 
819.000000	 62.404990 
818.000000	 62.397694 
817.000000	 62.398552 
816.000000	 62.406325 
815.000000	 62.418532 
814.000000	 62.431836 
813.000000	 62.442564 
812.000000	 62.447524 
811.000000	 62.444496 
810.000000	 62.432718 
809.000000	 62.413430 
808.000000	 62.389302 
807.000000	 62.364268 
806.000000	 62.342762 
805.000000	 62.328720 
804.000000	 62.324905 
803.000000	 62.332224 
802.000000	 62.349629 
801.000000	 62.374019 
800.000000	 62.400984 
799.000000	 62.425017 
798.000000	 62.440633 
797.000000	 62.443113 
796.000000	 62.429189 
795.000000	 62.398004 
794.000000	 62.351179 
793.000000	 62.292766 
792.000000	 62.228655 
791.000000	 62.165689 
790.000000	 62.110447 
789.000000	 62.068295 
788.000000	 62.042212 
787.000000	 62.032461 
786.000000	 62.036585 
785.000000	 62.049865 
784.000000	 62.066674 
783.000000	 62.081313 
782.000000	 62.089920 
781.000000	 62.090206 
780.000000	 62.082672 
779.000000	 62.069416 
778.000000	 62.054252 
777.000000	 62.041044 
776.000000	 62.033414 
775.000000	 62.033557 
774.000000	 62.041974 
773.000000	 62.057542 
772.000000	 62.077569 
771.000000	 62.098407 
770.000000	 62.115979 
769.000000	 62.126803 
768.000000	 62.128424 
767.000000	 62.119889 
766.000000	 62.101960 
765.000000	 62.076783 
764.000000	 62.047362 
763.000000	 62.016749 
762.000000	 61.987805 
761.000000	 61.962389 
760.000000	 61.941003 
759.000000	 61.923289 
758.000000	 61.908483 
757.000000	 61.896204 
756.000000	 61.886715 
755.000000	 61.881327 
754.000000	 61.882019 
753.000000	 61.890673 
752.000000	 61.908006 
751.000000	 61.932969 
750.000000	 61.962199 
749.000000	 61.990857 
748.000000	 62.013411 
747.000000	 62.025237 
746.000000	 62.023520 
745.000000	 62.008476 
744.000000	 61.983227 
743.000000	 61.953163 
742.000000	 61.924457 
741.000000	 61.902785 
740.000000	 61.891937 
739.000000	 61.893010 
738.000000	 61.904263 
737.000000	 61.922550 
736.000000	 61.944270 
735.000000	 61.966228 
734.000000	 61.986565 
733.000000	 62.004542 
732.000000	 62.021017 
731.000000	 62.036967 
730.000000	 62.053680 
729.000000	 62.071824 
728.000000	 62.091231 
727.000000	 62.111711 
726.000000	 62.132143 
725.000000	 62.151002 
724.000000	 62.166070 
723.000000	 62.175679 
722.000000	 62.177944 
721.000000	 62.171363 
720.000000	 62.155079 
719.000000	 62.129521 
718.000000	 62.096142 
717.000000	 62.057495 
716.000000	 62.016582 
715.000000	 61.976122 
714.000000	 61.937665 
713.000000	 61.901164 
712.000000	 61.864876 
711.000000	 61.826014 
710.000000	 61.781620 
709.000000	 61.730051 
708.000000	 61.671590 
707.000000	 61.609315 
706.000000	 61.548423 
705.000000	 61.495923 
704.000000	 61.457943 
703.000000	 61.439824 
702.000000	 61.443948 
701.000000	 61.470937 
700.000000	 61.518239 
699.000000	 61.582589 
698.000000	 61.660313 
697.000000	 61.748147 
696.000000	 61.843276 
695.000000	 61.942648 
694.000000	 62.042737 
693.000000	 62.138605 
692.000000	 62.223672 
691.000000	 62.290954 
690.000000	 62.334227 
689.000000	 62.349843 
688.000000	 62.337803 
687.000000	 62.302136 
686.000000	 62.249994 
685.000000	 62.190771 
684.000000	 62.133836 
683.000000	 62.086153 
682.000000	 62.050986 
681.000000	 62.028098 
680.000000	 62.014365 
679.000000	 62.005448 
678.000000	 61.997199 
677.000000	 61.987614 
676.000000	 61.976861 
675.000000	 61.966705 
674.000000	 61.959600 
673.000000	 61.956906 
672.000000	 61.958312 
671.000000	 61.961364 
670.000000	 61.961841 
669.000000	 61.954712 
668.000000	 61.935687 
667.000000	 61.902952 
666.000000	 61.857128 
665.000000	 61.801218 
664.000000	 61.740732 
663.000000	 61.682701 
662.000000	 61.634135 
661.000000	 61.600399 
660.000000	 61.585140 
659.000000	 61.589789 
658.000000	 61.613106 
657.000000	 61.651706 
656.000000	 61.700701 
655.000000	 61.754703 
654.000000	 61.808156 
653.000000	 61.856412 
652.000000	 61.895728 
651.000000	 61.923861 
650.000000	 61.940240 
649.000000	 61.945176 
648.000000	 61.940145 
647.000000	 61.926007 
646.000000	 61.904144 
645.000000	 61.874294 
644.000000	 61.835527 
643.000000	 61.786270 
642.000000	 61.725950 
641.000000	 61.654925 
640.000000	 61.575365 
639.000000	 61.491394 
638.000000	 61.408925 
637.000000	 61.334347 
636.000000	 61.273503 
635.000000	 61.230063 
634.000000	 61.204886 
633.000000	 61.195278 
632.000000	 61.195969 
631.000000	 61.200737 
630.000000	 61.203908 
629.000000	 61.201381 
628.000000	 61.191558 
627.000000	 61.175394 
626.000000	 61.155772 
625.000000	 61.135292 
624.000000	 61.116290 
623.000000	 61.098504 
622.000000	 61.081719 
621.000000	 61.065983 
620.000000	 61.053371 
619.000000	 61.047768 
618.000000	 61.055278 
617.000000	 61.083173 
616.000000	 61.136770 
615.000000	 61.218023 
614.000000	 61.322283 
613.000000	 61.438179 
612.000000	 61.549425 
611.000000	 61.638021 
610.000000	 61.688899 
609.000000	 61.694049 
608.000000	 61.655187 
607.000000	 61.583828 
606.000000	 61.499214 
605.000000	 61.423897 
604.000000	 61.378550 
603.000000	 61.377453 
602.000000	 61.426806 
601.000000	 61.522579 
600.000000	 61.654090 
599.000000	 61.803674 
598.000000	 61.950540 
597.000000	 62.073254 
596.000000	 62.153339 
595.000000	 62.178516 
594.000000	 62.143087 
593.000000	 62.050771 
592.000000	 61.913228 
591.000000	 61.749124 
590.000000	 61.580967 
589.000000	 61.430931 
588.000000	 61.318564 
587.000000	 61.255359 
586.000000	 61.244463 
585.000000	 61.278390 
584.000000	 61.342000 
583.000000	 61.414361 
582.000000	 61.473965 
581.000000	 61.501622 
580.000000	 61.484479 
579.000000	 61.417984 
578.000000	 61.307120 
577.000000	 61.164355 
576.000000	 61.008167 
575.000000	 60.860681 
574.000000	 60.743904 
573.000000	 60.677266 
572.000000	 60.673284 
571.000000	 60.735201 
570.000000	 60.856056 
569.000000	 61.019682 
568.000000	 61.204361 
567.000000	 61.386680 
566.000000	 61.546611 
565.000000	 61.669349 
564.000000	 61.748981 
563.000000	 61.788201 
562.000000	 61.795926 
561.000000	 61.783933 
560.000000	 61.763024 
559.000000	 61.740922 
558.000000	 61.720442 
557.000000	 61.700630 
556.000000	 61.677289 
555.000000	 61.646008 
554.000000	 61.603903 
553.000000	 61.551642 
552.000000	 61.492967 
551.000000	 61.434531 
550.000000	 61.383461 
549.000000	 61.347007 
548.000000	 61.330938 
547.000000	 61.339545 
546.000000	 61.375975 
545.000000	 61.441063 
544.000000	 61.532807 
543.000000	 61.644864 
542.000000	 61.768460 
541.000000	 61.890435 
540.000000	 61.995148 
539.000000	 62.065434 
538.000000	 62.086391 
537.000000	 62.047338 
536.000000	 61.945414 
535.000000	 61.785840 
534.000000	 61.582183 
533.000000	 61.353802 
532.000000	 61.123800 
531.000000	 60.913372 
530.000000	 60.738945 
529.000000	 60.609054 
528.000000	 60.524225 
527.000000	 60.477447 
526.000000	 60.457706 
525.000000	 60.453271 
524.000000	 60.455942 
523.000000	 60.461974 
522.000000	 60.474109 
521.000000	 60.500049 
520.000000	 60.550832 
519.000000	 60.635542 
518.000000	 60.758996 
517.000000	 60.919117 
516.000000	 61.106181 
515.000000	 61.304211 
514.000000	 61.493706 
513.000000	 61.656546 
512.000000	 61.778402 
511.000000	 61.852049 
510.000000	 61.877274 
509.000000	 61.861205 
508.000000	 61.814522 
507.000000	 61.749696 
506.000000	 61.677122 
505.000000	 61.604309 
504.000000	 61.534690 
503.000000	 61.469554 
502.000000	 61.407804 
501.000000	 61.348223 
500.000000	 61.290383 
499.000000	 61.236071 
498.000000	 61.186385 
497.000000	 61.141347 
496.000000	 61.099934 
495.000000	 61.059975 
494.000000	 61.017727 
493.000000	 60.969114 
492.000000	 60.911774 
491.000000	 60.845398 
490.000000	 60.771942 
489.000000	 60.694909 
488.000000	 60.618376 
487.000000	 60.546040 
486.000000	 60.480737 
485.000000	 60.423898 
484.000000	 60.375404 
483.000000	 60.334134 
482.000000	 60.299110 
481.000000	 60.269093 
480.000000	 60.242390 
479.000000	 60.217976 
478.000000	 60.195517 
477.000000	 60.175204 
476.000000	 60.156512 
475.000000	 60.140872 
474.000000	 60.131311 
473.000000	 60.133433 
472.000000	 60.154461 
471.000000	 60.203194 
470.000000	 60.287904 
469.000000	 60.414338 
468.000000	 60.583400 
467.000000	 60.789918 
466.000000	 61.022019 
465.000000	 61.262679 
464.000000	 61.491870 
463.000000	 61.688756 
462.000000	 61.836624 
461.000000	 61.926269 
460.000000	 61.957716 
459.000000	 61.941218 
458.000000	 61.892485 
457.000000	 61.832904 
456.000000	 61.778759 
455.000000	 61.740469 
454.000000	 61.715626 
453.000000	 61.692571 
452.000000	 61.651587 
451.000000	 61.573266 
450.000000	 61.442947 
449.000000	 61.256814 
448.000000	 61.023712 
447.000000	 60.764265 
446.000000	 60.505223 
445.000000	 60.273051 
444.000000	 60.089540 
443.000000	 59.967541 
442.000000	 59.907698 
441.000000	 59.900355 
440.000000	 59.929776 
439.000000	 59.979844 
438.000000	 60.037708 
437.000000	 60.097718 
436.000000	 60.159897 
435.000000	 60.229086 
434.000000	 60.310101 
433.000000	 60.404515 
432.000000	 60.509037 
431.000000	 60.612535 
430.000000	 60.700559 
429.000000	 60.754203 
428.000000	 60.754108 
427.000000	 60.685968 
426.000000	 60.546922 
425.000000	 60.344767 
424.000000	 60.099267 
423.000000	 59.834623 
422.000000	 59.575438 
421.000000	 59.338879 
420.000000	 59.132719 
419.000000	 58.949923 
418.000000	 58.773398 
417.000000	 58.582234 
416.000000	 58.362197 
415.000000	 58.113670 
414.000000	 57.856440 
413.000000	 57.629251 
412.000000	 57.480311 
411.000000	 57.452630 
410.000000	 57.572007 
409.000000	 57.830309 
408.000000	 58.192944 
407.000000	 58.599591 
406.000000	 58.990120 
405.000000	 59.316539 
404.000000	 59.563350 
403.000000	 59.747099 
402.000000	 59.911775 
401.000000	 60.130667 
400.000000	 60.452032 
399.000000	 60.870528 
398.000000	 61.328482 
397.000000	 61.738133 
396.000000	 61.982393 
395.000000	 61.944866 
394.000000	 61.559915 
393.000000	 60.840010 
392.000000	 59.874582 
391.000000	 58.812808 
390.000000	 57.827329 
389.000000	 57.070326 
388.000000	 56.629586 
387.000000	 56.514668 
386.000000	 56.640338 
385.000000	 56.874275 
384.000000	 57.099843 
383.000000	 57.253956 
382.000000	 57.350516 
381.000000	 57.460784 
380.000000	 57.708501 
379.000000	 58.165907 
378.000000	 58.854961 
377.000000	 59.628725 
376.000000	 60.216140 
375.000000	 60.206246 
374.000000	 59.162068 
373.000000	 56.715965 
372.000000	 52.694368 
371.000000	 47.194623 
370.000000	 40.617179 

