PE IR       SPECTRUM    SPECTRUM    ASCII       PEDS        1.60        
  -1
BZ6E21~1.ASC
17/04/07
18:36:41.00
17/04/07
18:36:41.00
tln
$BZ1503107-1_t0066$<tbV0>[-13.0,0.0,8.0,0.0,27,1,0]
370.000000
64









2002,4.07    
MIRTGS : RIGHTBACK : INTERNAL 2
MIR : ON : INTERNAL 2
OPTKBR

0.200000
8
8.000000
FILLER
RATIO
SPECTRUM
UNLOCKED 256

DOUBLE
64
COMBINED
1
0
0


1.000000
RATIO


1
0
TRUE
51149
0
LEFT NOT FITTED RIGHT NOT FITTED 0
NONE
NONE
15600
12.000000
4.427000
51148
TRUE
1 0 8 72 0 0 0 0 

15798.010000






#HDR
-1
-1
#GR
CM-1
%T
0.00002384185791015625
0.0
5000.000000
-1.000000
4631
8
79.557323
54.807567
#DATA
5000.000000	65.672278 
4999.000000	65.952992 
4998.000000	66.216063 
4997.000000	66.445326 
4996.000000	66.628980 
4995.000000	66.761302 
4994.000000	66.841125 
4993.000000	66.871833 
4992.000000	66.859221 
4991.000000	66.813611 
4990.000000	66.743111 
4989.000000	66.655254 
4988.000000	66.552329 
4987.000000	66.434073 
4986.000000	66.296839 
4985.000000	66.137290 
4984.000000	65.954446 
4983.000000	65.752148 
4982.000000	65.539121 
4981.000000	65.328478 
4980.000000	65.134239 
4979.000000	64.969372 
4978.000000	64.842128 
4977.000000	64.756321 
4976.000000	64.710521 
4975.000000	64.700460 
4974.000000	64.720225 
4973.000000	64.764213 
4972.000000	64.827132 
4971.000000	64.904379 
4970.000000	64.989280 
4969.000000	65.074682 
4968.000000	65.151762 
4967.000000	65.212321 
4966.000000	65.248465 
4965.000000	65.256452 
4964.000000	65.237784 
4963.000000	65.198969 
4962.000000	65.150928 
4961.000000	65.104675 
4960.000000	65.068650 
4959.000000	65.046429 
4958.000000	65.036249 
4957.000000	65.032243 
4956.000000	65.026712 
4955.000000	65.013885 
4954.000000	64.991712 
4953.000000	64.961481 
4952.000000	64.927458 
4951.000000	64.894676 
4950.000000	64.867949 
4949.000000	64.850115 
4948.000000	64.842677 
4947.000000	64.845728 
4946.000000	64.859247 
4945.000000	64.883327 
4944.000000	64.918923 
4943.000000	64.966511 
4942.000000	65.026760 
4941.000000	65.099143 
4940.000000	65.182566 
4939.000000	65.273475 
4938.000000	65.368270 
4937.000000	65.463876 
4936.000000	65.557670 
4935.000000	65.648245 
4934.000000	65.733289 
4933.000000	65.809464 
4932.000000	65.871620 
4931.000000	65.913510 
4930.000000	65.928888 
4929.000000	65.913033 
4928.000000	65.865182 
4927.000000	65.788912 
4926.000000	65.690732 
4925.000000	65.578508 
4924.000000	65.459752 
4923.000000	65.339946 
4922.000000	65.222859 
4921.000000	65.109920 
4920.000000	65.001821 
4919.000000	64.898872 
4918.000000	64.801931 
4917.000000	64.712595 
4916.000000	64.632582 
4915.000000	64.563918 
4914.000000	64.507150 
4913.000000	64.462542 
4912.000000	64.428114 
4911.000000	64.402723 
4910.000000	64.385390 
4909.000000	64.377212 
4908.000000	64.379906 
4907.000000	64.396667 
4906.000000	64.430356 
4905.000000	64.482522 
4904.000000	64.551711 
4903.000000	64.634633 
4902.000000	64.725852 
4901.000000	64.818620 
4900.000000	64.905428 
4899.000000	64.978194 
4898.000000	65.029001 
4897.000000	65.050816 
4896.000000	65.039372 
4895.000000	64.994096 
4894.000000	64.919567 
4893.000000	64.826202 
4892.000000	64.728522 
4891.000000	64.642095 
4890.000000	64.581060 
4889.000000	64.556002 
4888.000000	64.571261 
4887.000000	64.624691 
4886.000000	64.708018 
4885.000000	64.809203 
4884.000000	64.914393 
4883.000000	65.010285 
4882.000000	65.086627 
4881.000000	65.137147 
4880.000000	65.160536 
4879.000000	65.159344 
4878.000000	65.139532 
4877.000000	65.108489 
4876.000000	65.073847 
4875.000000	65.041661 
4874.000000	65.016055 
4873.000000	64.998531 
4872.000000	64.987778 
4871.000000	64.980649 
4870.000000	64.972758 
4869.000000	64.960718 
4868.000000	64.943885 
4867.000000	64.924979 
4866.000000	64.909696 
4865.000000	64.904904 
4864.000000	64.916491 
4863.000000	64.947128 
4862.000000	64.994955 
4861.000000	65.053653 
4860.000000	65.114021 
4859.000000	65.165758 
4858.000000	65.200901 
4857.000000	65.214729 
4856.000000	65.206718 
4855.000000	65.180587 
4854.000000	65.142416 
4853.000000	65.100336 
4852.000000	65.062642 
4851.000000	65.036559 
4850.000000	65.027070 
4849.000000	65.036702 
4848.000000	65.065407 
4847.000000	65.110445 
4846.000000	65.166878 
4845.000000	65.227580 
4844.000000	65.284419 
4843.000000	65.329241 
4842.000000	65.355467 
4841.000000	65.359473 
4840.000000	65.341186 
4839.000000	65.304827 
4838.000000	65.257525 
4837.000000	65.207886 
4836.000000	65.163564 
4835.000000	65.130043 
4834.000000	65.109109 
4833.000000	65.099310 
4832.000000	65.096211 
4831.000000	65.094971 
4830.000000	65.090799 
4829.000000	65.080690 
4828.000000	65.064096 
4827.000000	65.042138 
4826.000000	65.018224 
4825.000000	64.996528 
4824.000000	64.981174 
4823.000000	64.974951 
4822.000000	64.979124 
4821.000000	64.993309 
4820.000000	65.015721 
4819.000000	65.043854 
4818.000000	65.075230 
4817.000000	65.107846 
4816.000000	65.140318 
4815.000000	65.171718 
4814.000000	65.200972 
4813.000000	65.226888 
4812.000000	65.247964 
4811.000000	65.262889 
4810.000000	65.270972 
4809.000000	65.272688 
4808.000000	65.270519 
4807.000000	65.267920 
4806.000000	65.268993 
4805.000000	65.277171 
4804.000000	65.294909 
4803.000000	65.322208 
4802.000000	65.356612 
4801.000000	65.393352 
4800.000000	65.426588 
4799.000000	65.450096 
4798.000000	65.459012 
4797.000000	65.450286 
4796.000000	65.423393 
4795.000000	65.380430 
4794.000000	65.325641 
4793.000000	65.264678 
4792.000000	65.203714 
4791.000000	65.148830 
4790.000000	65.105605 
4789.000000	65.078306 
4788.000000	65.069746 
4787.000000	65.080976 
4786.000000	65.111660 
4785.000000	65.159034 
4784.000000	65.219235 
4783.000000	65.287733 
4782.000000	65.359926 
4781.000000	65.431237 
4780.000000	65.497970 
4779.000000	65.557217 
4778.000000	65.606927 
4777.000000	65.645909 
4776.000000	65.673208 
4775.000000	65.688490 
4774.000000	65.691351 
4773.000000	65.682315 
4772.000000	65.661859 
4771.000000	65.630912 
4770.000000	65.590763 
4769.000000	65.543675 
4768.000000	65.492486 
4767.000000	65.440654 
4766.000000	65.391802 
4765.000000	65.349268 
4764.000000	65.315437 
4763.000000	65.291309 
4762.000000	65.276122 
4761.000000	65.267610 
4760.000000	65.261936 
4759.000000	65.254831 
4758.000000	65.242409 
4757.000000	65.222573 
4756.000000	65.194773 
4755.000000	65.161156 
4754.000000	65.125226 
4753.000000	65.091991 
4752.000000	65.066695 
4751.000000	65.054297 
4750.000000	65.057349 
4749.000000	65.076804 
4748.000000	65.111660 
4747.000000	65.159535 
4746.000000	65.216755 
4745.000000	65.279245 
4744.000000	65.343046 
4743.000000	65.404319 
4742.000000	65.459632 
4741.000000	65.505719 
4740.000000	65.539526 
4739.000000	65.558767 
4738.000000	65.562343 
4737.000000	65.550947 
4736.000000	65.527272 
4735.000000	65.496635 
4734.000000	65.465712 
4733.000000	65.441846 
4732.000000	65.430974 
4731.000000	65.436935 
4730.000000	65.459585 
4729.000000	65.494966 
4728.000000	65.535521 
4727.000000	65.571832 
4726.000000	65.594696 
4725.000000	65.596842 
4724.000000	65.574979 
4723.000000	65.530371 
4722.000000	65.468645 
4721.000000	65.398025 
4720.000000	65.328049 
4719.000000	65.267324 
4718.000000	65.222096 
4717.000000	65.195465 
4716.000000	65.187096 
4715.000000	65.193963 
4714.000000	65.211248 
4713.000000	65.233683 
4712.000000	65.256357 
4711.000000	65.275526 
4710.000000	65.289258 
4709.000000	65.297341 
4708.000000	65.300488 
4707.000000	65.300154 
4706.000000	65.297937 
4705.000000	65.295219 
4704.000000	65.292572 
4703.000000	65.290331 
4702.000000	65.288519 
4701.000000	65.287494 
4700.000000	65.288209 
4699.000000	65.292334 
4698.000000	65.302038 
4697.000000	65.319347 
4696.000000	65.345549 
4695.000000	65.380430 
4694.000000	65.421652 
4693.000000	65.465116 
4692.000000	65.505504 
4691.000000	65.537691 
4690.000000	65.557956 
4689.000000	65.565538 
4688.000000	65.562868 
4687.000000	65.555071 
4686.000000	65.548682 
4685.000000	65.549874 
4684.000000	65.562582 
4683.000000	65.587306 
4682.000000	65.620541 
4681.000000	65.655565 
4680.000000	65.683960 
4679.000000	65.698122 
4678.000000	65.693187 
4677.000000	65.668058 
4676.000000	65.626120 
4675.000000	65.574002 
4674.000000	65.520501 
4673.000000	65.473747 
4672.000000	65.440344 
4671.000000	65.423750 
4670.000000	65.424251 
4669.000000	65.439391 
4668.000000	65.464687 
4667.000000	65.495228 
4666.000000	65.526223 
4665.000000	65.553975 
4664.000000	65.575885 
4663.000000	65.590333 
4662.000000	65.596485 
4661.000000	65.593957 
4660.000000	65.582633 
4659.000000	65.562653 
4658.000000	65.534448 
4657.000000	65.498948 
4656.000000	65.457677 
4655.000000	65.412569 
4654.000000	65.365672 
4653.000000	65.318965 
4652.000000	65.274095 
4651.000000	65.232419 
4650.000000	65.194630 
4649.000000	65.161037 
4648.000000	65.132093 
4647.000000	65.108394 
4646.000000	65.089821 
4645.000000	65.076708 
4644.000000	65.069031 
4643.000000	65.067172 
4642.000000	65.071010 
4641.000000	65.080881 
4640.000000	65.096569 
4639.000000	65.118432 
4638.000000	65.146923 
4637.000000	65.182638 
4636.000000	65.225601 
4635.000000	65.274930 
4634.000000	65.328669 
4633.000000	65.383028 
4632.000000	65.432667 
4631.000000	65.471434 
4630.000000	65.493369 
4629.000000	65.494275 
4628.000000	65.472316 
4627.000000	65.429210 
4626.000000	65.369105 
4625.000000	65.298080 
4624.000000	65.221714 
4623.000000	65.145015 
4622.000000	65.070605 
4621.000000	64.998292 
4620.000000	64.926242 
4619.000000	64.852356 
4618.000000	64.776229 
4617.000000	64.699387 
4616.000000	64.627075 
4615.000000	64.566159 
4614.000000	64.525389 
4613.000000	64.512133 
4612.000000	64.531517 
4611.000000	64.583706 
4610.000000	64.664578 
4609.000000	64.765787 
4608.000000	64.876341 
4607.000000	64.984273 
4606.000000	65.078210 
4605.000000	65.149021 
4604.000000	65.190625 
4603.000000	65.200567 
4602.000000	65.180420 
4601.000000	65.135526 
4600.000000	65.074181 
4599.000000	65.006422 
4598.000000	64.943480 
4597.000000	64.895701 
4596.000000	64.871668 
4595.000000	64.876031 
4594.000000	64.909601 
4593.000000	64.967966 
4592.000000	65.043187 
4591.000000	65.124177 
4590.000000	65.198230 
4589.000000	65.253710 
4588.000000	65.282058 
4587.000000	65.279793 
4586.000000	65.248250 
4585.000000	65.194511 
4584.000000	65.129518 
4583.000000	65.066075 
4582.000000	65.016078 
4581.000000	64.988136 
4580.000000	64.986276 
4579.000000	65.008783 
4578.000000	65.049028 
4577.000000	65.096402 
4576.000000	65.138936 
4575.000000	65.165877 
4574.000000	65.169882 
4573.000000	65.147733 
4572.000000	65.100812 
4571.000000	65.034103 
4570.000000	64.955401 
4569.000000	64.872980 
4568.000000	64.794850 
4567.000000	64.727234 
4566.000000	64.674735 
4565.000000	64.640092 
4564.000000	64.624500 
4563.000000	64.627647 
4562.000000	64.648461 
4561.000000	64.684605 
4560.000000	64.733743 
4559.000000	64.793038 
4558.000000	64.859485 
4557.000000	64.929199 
4556.000000	64.997792 
4555.000000	65.060687 
4554.000000	65.113091 
4553.000000	65.150451 
4552.000000	65.169095 
4551.000000	65.166997 
4550.000000	65.144562 
4549.000000	65.104675 
4548.000000	65.052676 
4547.000000	64.995288 
4546.000000	64.939880 
4545.000000	64.892816 
4544.000000	64.858317 
4543.000000	64.837908 
4542.000000	64.830231 
4541.000000	64.832329 
4540.000000	64.840555 
4539.000000	64.852285 
4538.000000	64.866685 
4537.000000	64.884448 
4536.000000	64.906501 
4535.000000	64.933323 
4534.000000	64.963793 
4533.000000	64.994764 
4532.000000	65.021467 
4531.000000	65.038084 
4530.000000	65.039658 
4529.000000	65.022635 
4528.000000	64.986276 
4527.000000	64.932394 
4526.000000	64.865326 
4525.000000	64.791369 
4524.000000	64.717793 
4523.000000	64.651560 
4522.000000	64.598107 
4521.000000	64.560556 
4520.000000	64.539599 
4519.000000	64.533257 
4518.000000	64.538311 
4517.000000	64.550852 
4516.000000	64.568018 
4515.000000	64.587903 
4514.000000	64.610314 
4513.000000	64.635610 
4512.000000	64.664816 
4511.000000	64.698266 
4510.000000	64.735198 
4509.000000	64.773678 
4508.000000	64.810609 
4507.000000	64.842391 
4506.000000	64.865708 
4505.000000	64.878654 
4504.000000	64.880728 
4503.000000	64.873313 
4502.000000	64.859151 
4501.000000	64.841938 
4500.000000	64.825558 
4499.000000	64.813232 
4498.000000	64.806914 
4497.000000	64.807033 
4496.000000	64.812612 
4495.000000	64.821505 
4494.000000	64.830613 
4493.000000	64.836668 
4492.000000	64.836668 
4491.000000	64.828658 
4490.000000	64.811944 
4489.000000	64.787650 
4488.000000	64.758729 
4487.000000	64.729332 
4486.000000	64.703750 
4485.000000	64.685297 
4484.000000	64.675664 
4483.000000	64.674139 
4482.000000	64.678907 
4481.000000	64.686393 
4480.000000	64.692354 
4479.000000	64.692401 
4478.000000	64.682960 
4477.000000	64.662003 
4476.000000	64.628458 
4475.000000	64.585161 
4474.000000	64.538693 
4473.000000	64.497542 
4472.000000	64.470577 
4471.000000	64.462304 
4470.000000	64.471435 
4469.000000	64.491534 
4468.000000	64.513182 
4467.000000	64.525294 
4466.000000	64.519333 
4465.000000	64.494180 
4464.000000	64.455962 
4463.000000	64.417409 
4462.000000	64.393305 
4461.000000	64.391136 
4460.000000	64.411854 
4459.000000	64.452409 
4458.000000	64.504218 
4457.000000	64.558625 
4456.000000	64.605045 
4455.000000	64.631676 
4454.000000	64.628458 
4453.000000	64.593243 
4452.000000	64.525794 
4451.000000	64.426612 
4450.000000	64.297056 
4449.000000	64.139342 
4448.000000	63.957762 
4447.000000	63.758254 
4446.000000	63.555622 
4445.000000	63.371992 
4444.000000	63.244795 
4443.000000	63.219165 
4442.000000	63.344812 
4441.000000	63.657379 
4440.000000	64.165544 
4439.000000	64.832997 
4438.000000	65.574407 
4437.000000	66.262125 
4436.000000	66.742444 
4435.000000	66.876983 
4434.000000	66.565465 
4433.000000	65.795636 
4432.000000	64.649724 
4431.000000	63.310861 
4430.000000	62.025928 
4429.000000	61.058497 
4428.000000	60.634064 
4427.000000	60.880398 
4426.000000	61.801075 
4425.000000	63.262867 
4424.000000	65.027904 
4423.000000	66.804790 
4422.000000	68.312597 
4421.000000	69.347548 
4420.000000	69.820308 
4419.000000	69.769263 
4418.000000	69.334268 
4417.000000	68.710875 
4416.000000	68.090009 
4415.000000	67.612719 
4414.000000	67.336750 
4413.000000	67.241001 
4412.000000	67.240357 
4411.000000	67.233252 
4410.000000	67.131018 
4409.000000	66.886663 
4408.000000	66.505789 
4407.000000	66.031241 
4406.000000	65.535736 
4405.000000	65.089178 
4404.000000	64.749336 
4403.000000	64.540171 
4402.000000	64.457726 
4401.000000	64.477586 
4400.000000	64.563488 
4399.000000	64.685654 
4398.000000	64.819717 
4397.000000	64.948582 
4396.000000	65.062642 
4395.000000	65.152025 
4394.000000	65.210914 
4393.000000	65.233421 
4392.000000	65.216732 
4391.000000	65.160107 
4390.000000	65.070390 
4389.000000	64.962053 
4388.000000	64.848947 
4387.000000	64.742445 
4386.000000	64.650058 
4385.000000	64.574909 
4384.000000	64.519333 
4383.000000	64.484977 
4382.000000	64.470672 
4381.000000	64.474606 
4380.000000	64.494276 
4379.000000	64.527606 
4378.000000	64.572024 
4377.000000	64.624905 
4376.000000	64.682412 
4375.000000	64.740705 
4374.000000	64.793848 
4373.000000	64.838027 
4372.000000	64.871954 
4371.000000	64.898109 
4370.000000	64.921498 
4369.000000	64.949321 
4368.000000	64.988946 
4367.000000	65.045595 
4366.000000	65.120911 
4365.000000	65.211772 
4364.000000	65.310835 
4363.000000	65.408706 
4362.000000	65.495824 
4361.000000	65.564918 
4360.000000	65.612149 
4359.000000	65.636682 
4358.000000	65.639686 
4357.000000	65.623593 
4356.000000	65.590620 
4355.000000	65.542197 
4354.000000	65.478491 
4353.000000	65.400934 
4352.000000	65.311217 
4351.000000	65.212941 
4350.000000	65.110421 
4349.000000	65.009236 
4348.000000	64.914631 
4347.000000	64.830803 
4346.000000	64.760684 
4345.000000	64.704346 
4344.000000	64.661669 
4343.000000	64.632177 
4342.000000	64.616608 
4341.000000	64.616036 
4340.000000	64.632320 
4339.000000	64.666819 
4338.000000	64.719247 
4337.000000	64.786505 
4336.000000	64.863348 
4335.000000	64.942669 
4334.000000	65.017008 
4333.000000	65.079569 
4332.000000	65.125656 
4331.000000	65.153241 
4330.000000	65.162754 
4329.000000	65.156984 
4328.000000	65.140867 
4327.000000	65.119838 
4326.000000	65.099692 
4325.000000	65.084409 
4324.000000	65.076279 
4323.000000	65.074539 
4322.000000	65.076947 
4321.000000	65.079092 
4320.000000	65.075564 
4319.000000	65.061378 
4318.000000	65.033578 
4317.000000	64.992213 
4316.000000	64.939713 
4315.000000	64.881849 
4314.000000	64.826226 
4313.000000	64.780640 
4312.000000	64.751243 
4311.000000	64.741492 
4310.000000	64.751338 
4309.000000	64.777946 
4308.000000	64.816474 
4307.000000	64.861226 
4306.000000	64.906573 
4305.000000	64.947843 
4304.000000	64.981651 
4303.000000	65.005254 
4302.000000	65.016746 
4301.000000	65.014815 
4300.000000	64.999246 
4299.000000	64.970803 
4298.000000	64.931964 
4297.000000	64.887118 
4296.000000	64.842152 
4295.000000	64.804029 
4294.000000	64.779257 
4293.000000	64.772772 
4292.000000	64.787030 
4291.000000	64.821052 
4290.000000	64.871263 
4289.000000	64.931964 
4288.000000	64.996695 
4287.000000	65.059447 
4286.000000	65.115094 
4285.000000	65.159797 
4284.000000	65.191078 
4283.000000	65.207576 
4282.000000	65.209197 
4281.000000	65.196943 
4280.000000	65.173220 
4279.000000	65.141773 
4278.000000	65.107607 
4277.000000	65.076160 
4276.000000	65.052795 
4275.000000	65.041351 
4274.000000	65.043854 
4273.000000	65.059709 
4272.000000	65.085697 
4271.000000	65.116858 
4270.000000	65.147256 
4269.000000	65.171599 
4268.000000	65.186166 
4267.000000	65.189647 
4266.000000	65.182852 
4265.000000	65.168881 
4264.000000	65.151643 
4263.000000	65.135383 
4262.000000	65.123772 
4261.000000	65.118837 
4260.000000	65.121245 
4259.000000	65.129756 
4258.000000	65.141892 
4257.000000	65.154027 
4256.000000	65.162467 
4255.000000	65.164113 
4254.000000	65.157079 
4253.000000	65.141153 
4252.000000	65.117692 
4251.000000	65.089416 
4250.000000	65.060019 
4249.000000	65.033411 
4248.000000	65.012955 
4247.000000	65.001201 
4246.000000	64.999294 
4245.000000	65.007042 
4244.000000	65.022969 
4243.000000	65.044760 
4242.000000	65.069413 
4241.000000	65.093994 
4240.000000	65.115761 
4239.000000	65.132236 
4238.000000	65.141654 
4237.000000	65.142917 
4236.000000	65.136027 
4235.000000	65.121746 
4234.000000	65.101933 
4233.000000	65.079522 
4232.000000	65.057659 
4231.000000	65.039181 
4230.000000	65.026378 
4229.000000	65.020704 
4228.000000	65.022277 
4227.000000	65.030121 
4226.000000	65.042304 
4225.000000	65.056467 
4224.000000	65.070199 
4223.000000	65.081357 
4222.000000	65.088367 
4221.000000	65.090465 
4220.000000	65.087771 
4219.000000	65.081310 
4218.000000	65.072631 
4217.000000	65.063834 
4216.000000	65.056943 
4215.000000	65.053963 
4214.000000	65.056300 
4213.000000	65.064811 
4212.000000	65.079784 
4211.000000	65.101194 
4210.000000	65.128183 
4209.000000	65.160036 
4208.000000	65.196084 
4207.000000	65.235924 
4206.000000	65.279030 
4205.000000	65.324449 
4204.000000	65.370488 
4203.000000	65.414690 
4202.000000	65.454220 
4201.000000	65.486049 
4200.000000	65.507483 
4199.000000	65.517067 
4198.000000	65.514564 
4197.000000	65.501046 
4196.000000	65.478515 
4195.000000	65.449357 
4194.000000	65.415883 
4193.000000	65.380430 
4192.000000	65.344762 
4191.000000	65.310525 
4190.000000	65.278887 
4189.000000	65.250921 
4188.000000	65.227532 
4187.000000	65.209031 
4186.000000	65.195178 
4185.000000	65.184831 
4184.000000	65.176534 
4183.000000	65.168213 
4182.000000	65.158820 
4181.000000	65.148091 
4180.000000	65.137767 
4179.000000	65.130710 
4178.000000	65.130734 
4177.000000	65.141248 
4176.000000	65.163993 
4175.000000	65.198159 
4174.000000	65.240120 
4173.000000	65.283799 
4172.000000	65.321588 
4171.000000	65.345907 
4170.000000	65.350937 
4169.000000	65.333724 
4168.000000	65.294885 
4167.000000	65.238642 
4166.000000	65.171670 
4165.000000	65.101933 
4164.000000	65.037465 
4163.000000	64.984750 
4162.000000	64.947700 
4161.000000	64.927315 
4160.000000	64.922428 
4159.000000	64.930129 
4158.000000	64.946508 
4157.000000	64.968013 
4156.000000	64.991641 
4155.000000	65.016055 
4154.000000	65.040540 
4153.000000	65.065550 
4152.000000	65.091514 
4151.000000	65.118503 
4150.000000	65.145707 
4149.000000	65.171384 
4148.000000	65.192842 
4147.000000	65.207076 
4146.000000	65.211319 
4145.000000	65.204024 
4144.000000	65.185332 
4143.000000	65.157747 
4142.000000	65.126037 
4141.000000	65.096306 
4140.000000	65.075230 
4139.000000	65.069007 
4138.000000	65.081644 
4137.000000	65.114307 
4136.000000	65.164947 
4135.000000	65.228176 
4134.000000	65.296912 
4133.000000	65.363502 
4132.000000	65.421390 
4131.000000	65.466022 
4130.000000	65.495657 
4129.000000	65.511512 
4128.000000	65.516686 
4127.000000	65.514922 
4126.000000	65.509390 
4125.000000	65.502047 
4124.000000	65.493106 
4123.000000	65.481781 
4122.000000	65.466618 
4121.000000	65.446853 
4120.000000	65.422463 
4119.000000	65.394806 
4118.000000	65.365958 
4117.000000	65.338277 
4116.000000	65.313482 
4115.000000	65.292239 
4114.000000	65.273737 
4113.000000	65.256261 
4112.000000	65.238070 
4111.000000	65.218162 
4110.000000	65.196704 
4109.000000	65.175390 
4108.000000	65.156626 
4107.000000	65.143489 
4106.000000	65.138077 
4105.000000	65.142059 
4104.000000	65.155839 
4103.000000	65.178942 
4102.000000	65.209650 
4101.000000	65.245580 
4100.000000	65.284085 
4099.000000	65.322232 
4098.000000	65.356850 
4097.000000	65.385603 
4096.000000	65.407037 
4095.000000	65.421080 
4094.000000	65.428876 
4093.000000	65.432834 
4092.000000	65.435934 
4091.000000	65.440917 
4090.000000	65.449619 
4089.000000	65.461874 
4088.000000	65.475702 
4087.000000	65.487718 
4086.000000	65.494155 
4085.000000	65.492081 
4084.000000	65.480518 
4083.000000	65.461277 
4082.000000	65.438246 
4081.000000	65.416264 
4080.000000	65.399956 
4079.000000	65.392184 
4078.000000	65.393567 
4077.000000	65.402293 
4076.000000	65.414762 
4075.000000	65.427136 
4074.000000	65.435814 
4073.000000	65.438771 
4072.000000	65.435266 
4071.000000	65.426063 
4070.000000	65.412449 
4069.000000	65.395593 
4068.000000	65.376210 
4067.000000	65.354180 
4066.000000	65.329265 
4065.000000	65.301609 
4064.000000	65.272355 
4063.000000	65.243697 
4062.000000	65.218329 
4061.000000	65.199136 
4060.000000	65.188074 
4059.000000	65.185856 
4058.000000	65.191698 
4057.000000	65.203809 
4056.000000	65.219616 
4055.000000	65.236687 
4054.000000	65.253257 
4053.000000	65.268468 
4052.000000	65.282082 
4051.000000	65.294408 
4050.000000	65.305709 
4049.000000	65.316200 
4048.000000	65.325760 
4047.000000	65.333914 
4046.000000	65.340232 
4045.000000	65.344452 
4044.000000	65.347027 
4043.000000	65.348696 
4042.000000	65.350532 
4041.000000	65.353417 
4040.000000	65.358066 
4039.000000	65.364694 
4038.000000	65.373063 
4037.000000	65.382790 
4036.000000	65.393280 
4035.000000	65.403842 
4034.000000	65.413761 
4033.000000	65.422034 
4032.000000	65.427589 
4031.000000	65.429091 
4030.000000	65.424966 
4029.000000	65.413904 
4028.000000	65.395116 
4027.000000	65.368294 
4026.000000	65.334248 
4025.000000	65.294837 
4024.000000	65.253019 
4023.000000	65.212440 
4022.000000	65.177154 
4021.000000	65.150761 
4020.000000	65.136313 
4019.000000	65.135455 
4018.000000	65.148639 
4017.000000	65.174579 
4016.000000	65.210556 
4015.000000	65.252733 
4014.000000	65.296578 
4013.000000	65.337443 
4012.000000	65.371179 
4011.000000	65.394496 
4010.000000	65.405416 
4009.000000	65.403270 
4008.000000	65.388774 
4007.000000	65.363836 
4006.000000	65.331196 
4005.000000	65.294313 
4004.000000	65.256977 
4003.000000	65.223240 
4002.000000	65.196943 
4001.000000	65.181469 
4000.000000	65.179347 
3999.000000	65.192055 
3998.000000	65.219497 
3997.000000	65.260171 
3996.000000	65.310668 
3995.000000	65.366744 
3994.000000	65.423393 
3993.000000	65.475988 
3992.000000	65.520882 
3991.000000	65.555810 
3990.000000	65.580296 
3989.000000	65.594792 
3988.000000	65.600633 
3987.000000	65.599107 
3986.000000	65.591311 
3985.000000	65.577769 
3984.000000	65.558815 
3983.000000	65.534949 
3982.000000	65.507006 
3981.000000	65.476751 
3980.000000	65.446543 
3979.000000	65.418887 
3978.000000	65.396022 
3977.000000	65.379214 
3976.000000	65.368652 
3975.000000	65.363216 
3974.000000	65.361380 
3973.000000	65.361428 
3972.000000	65.362310 
3971.000000	65.364003 
3970.000000	65.367007 
3969.000000	65.372371 
3968.000000	65.380597 
3967.000000	65.391016 
3966.000000	65.401792 
3965.000000	65.410137 
3964.000000	65.412926 
3963.000000	65.407466 
3962.000000	65.392661 
3961.000000	65.369486 
3960.000000	65.340685 
3959.000000	65.310215 
3958.000000	65.282344 
3957.000000	65.260624 
3956.000000	65.246868 
3955.000000	65.241122 
3954.000000	65.241670 
3953.000000	65.245723 
3952.000000	65.250611 
3951.000000	65.254235 
3950.000000	65.255522 
3949.000000	65.254330 
3948.000000	65.251159 
3947.000000	65.246629 
3946.000000	65.240955 
3945.000000	65.233898 
3944.000000	65.224766 
3943.000000	65.213227 
3942.000000	65.199089 
3941.000000	65.183305 
3940.000000	65.167641 
3939.000000	65.154385 
3938.000000	65.145897 
3937.000000	65.143823 
3936.000000	65.148496 
3935.000000	65.158629 
3934.000000	65.171575 
3933.000000	65.184068 
3932.000000	65.192914 
3931.000000	65.195989 
3930.000000	65.193080 
3929.000000	65.185761 
3928.000000	65.177130 
3927.000000	65.171003 
3926.000000	65.170884 
3925.000000	65.179181 
3924.000000	65.196394 
3923.000000	65.221047 
3922.000000	65.249967 
3921.000000	65.279340 
3920.000000	65.305590 
3919.000000	65.326452 
3918.000000	65.341234 
3917.000000	65.350794 
3916.000000	65.357232 
3915.000000	65.362715 
3914.000000	65.368914 
3913.000000	65.376329 
3912.000000	65.384197 
3911.000000	65.391111 
3910.000000	65.395259 
3909.000000	65.395522 
3908.000000	65.391063 
3907.000000	65.381860 
3906.000000	65.368318 
3905.000000	65.351343 
3904.000000	65.331768 
3903.000000	65.310382 
3902.000000	65.287804 
3901.000000	65.264916 
3900.000000	65.243053 
3899.000000	65.224123 
3898.000000	65.210390 
3897.000000	65.204119 
3896.000000	65.206551 
3895.000000	65.217804 
3894.000000	65.236234 
3893.000000	65.258717 
3892.000000	65.281271 
3891.000000	65.299654 
3890.000000	65.310049 
3889.000000	65.309858 
3888.000000	65.298056 
3887.000000	65.275359 
3886.000000	65.243816 
3885.000000	65.207123 
3884.000000	65.170145 
3883.000000	65.138339 
3882.000000	65.117096 
3881.000000	65.110516 
3880.000000	65.120720 
3879.000000	65.146970 
3878.000000	65.185761 
3877.000000	65.231227 
3876.000000	65.276741 
3875.000000	65.315747 
3874.000000	65.343546 
3873.000000	65.358352 
3872.000000	65.361618 
3871.000000	65.357732 
3870.000000	65.352368 
3869.000000	65.350866 
3868.000000	65.356397 
3867.000000	65.369343 
3866.000000	65.386867 
3865.000000	65.404033 
3864.000000	65.414762 
3863.000000	65.414142 
3862.000000	65.399360 
3861.000000	65.370392 
3860.000000	65.330195 
3859.000000	65.283703 
3858.000000	65.236949 
3857.000000	65.195775 
3856.000000	65.164351 
3855.000000	65.144920 
3854.000000	65.136647 
3853.000000	65.136504 
3852.000000	65.139603 
3851.000000	65.140676 
3850.000000	65.135216 
3849.000000	65.120673 
3848.000000	65.097284 
3847.000000	65.068197 
3846.000000	65.038990 
3845.000000	65.016579 
3844.000000	65.007543 
3843.000000	65.016460 
3842.000000	65.044879 
3841.000000	65.090584 
3840.000000	65.147852 
3839.000000	65.208768 
3838.000000	65.264654 
3837.000000	65.308213 
3836.000000	65.334916 
3835.000000	65.343713 
3834.000000	65.336847 
3833.000000	65.318799 
3832.000000	65.295004 
3831.000000	65.270256 
3830.000000	65.247511 
3829.000000	65.227603 
3828.000000	65.209746 
3827.000000	65.192365 
3826.000000	65.174317 
3825.000000	65.155649 
3824.000000	65.138220 
3823.000000	65.125346 
3822.000000	65.120768 
3821.000000	65.127396 
3820.000000	65.146255 
3819.000000	65.175890 
3818.000000	65.212583 
3817.000000	65.251255 
3816.000000	65.286731 
3815.000000	65.314936 
3814.000000	65.333676 
3813.000000	65.343260 
3812.000000	65.345764 
3811.000000	65.344071 
3810.000000	65.340542 
3809.000000	65.336441 
3808.000000	65.331578 
3807.000000	65.325117 
3806.000000	65.315651 
3805.000000	65.302586 
3804.000000	65.285730 
3803.000000	65.266513 
3802.000000	65.246391 
3801.000000	65.226984 
3800.000000	65.208959 
3799.000000	65.191769 
3798.000000	65.173864 
3797.000000	65.153503 
3796.000000	65.129446 
3795.000000	65.102028 
3794.000000	65.073537 
3793.000000	65.048289 
3792.000000	65.031766 
3791.000000	65.029335 
3790.000000	65.044856 
3789.000000	65.079426 
3788.000000	65.130972 
3787.000000	65.194296 
3786.000000	65.261912 
3785.000000	65.325498 
3784.000000	65.377664 
3783.000000	65.413260 
3782.000000	65.429615 
3781.000000	65.427398 
3780.000000	65.409922 
3779.000000	65.382242 
3778.000000	65.350174 
3777.000000	65.318894 
3776.000000	65.292429 
3775.000000	65.272927 
3774.000000	65.261220 
3773.000000	65.256643 
3772.000000	65.257906 
3771.000000	65.263414 
3770.000000	65.271902 
3769.000000	65.282559 
3768.000000	65.294909 
3767.000000	65.308904 
3766.000000	65.324401 
3765.000000	65.341329 
3764.000000	65.359282 
3763.000000	65.377664 
3762.000000	65.395498 
3761.000000	65.411520 
3760.000000	65.424060 
3759.000000	65.431809 
3758.000000	65.433359 
3757.000000	65.427780 
3756.000000	65.414738 
3755.000000	65.394353 
3754.000000	65.367650 
3753.000000	65.336275 
3752.000000	65.302515 
3751.000000	65.268850 
3750.000000	65.237832 
3749.000000	65.211653 
3748.000000	65.192103 
3747.000000	65.180373 
3746.000000	65.176606 
3745.000000	65.179920 
3744.000000	65.188288 
3743.000000	65.199184 
3742.000000	65.209627 
3741.000000	65.216755 
3740.000000	65.218448 
3739.000000	65.213632 
3738.000000	65.203022 
3737.000000	65.188980 
3736.000000	65.175032 
3735.000000	65.165090 
3734.000000	65.162682 
3733.000000	65.169954 
3732.000000	65.186882 
3731.000000	65.211224 
3730.000000	65.238833 
3729.000000	65.264987 
3728.000000	65.284895 
3727.000000	65.295743 
3726.000000	65.296983 
3725.000000	65.291118 
3724.000000	65.282773 
3723.000000	65.277862 
3722.000000	65.281891 
3721.000000	65.298867 
3720.000000	65.330147 
3719.000000	65.374016 
3718.000000	65.426135 
3717.000000	65.480494 
3716.000000	65.531110 
3715.000000	65.572953 
3714.000000	65.602803 
3713.000000	65.619659 
3712.000000	65.624356 
3711.000000	65.618729 
3710.000000	65.604877 
3709.000000	65.584492 
3708.000000	65.558433 
3707.000000	65.527081 
3706.000000	65.490603 
3705.000000	65.449786 
3704.000000	65.406107 
3703.000000	65.362215 
3702.000000	65.321183 
3701.000000	65.285992 
3700.000000	65.258908 
3699.000000	65.240931 
3698.000000	65.232062 
3697.000000	65.230345 
3696.000000	65.233707 
3695.000000	65.240168 
3694.000000	65.248584 
3693.000000	65.258574 
3692.000000	65.270805 
3691.000000	65.286231 
3690.000000	65.305638 
3689.000000	65.328955 
3688.000000	65.355181 
3687.000000	65.382242 
3686.000000	65.407752 
3685.000000	65.429353 
3684.000000	65.445399 
3683.000000	65.455365 
3682.000000	65.459918 
3681.000000	65.460515 
3680.000000	65.459036 
3679.000000	65.456986 
3678.000000	65.455675 
3677.000000	65.455222 
3676.000000	65.455222 
3675.000000	65.454387 
3674.000000	65.451407 
3673.000000	65.444922 
3672.000000	65.433907 
3671.000000	65.417790 
3670.000000	65.396738 
3669.000000	65.371775 
3668.000000	65.344548 
3667.000000	65.317630 
3666.000000	65.293955 
3665.000000	65.276765 
3664.000000	65.268707 
3663.000000	65.271544 
3662.000000	65.285372 
3661.000000	65.308594 
3660.000000	65.338110 
3659.000000	65.369677 
3658.000000	65.398693 
3657.000000	65.421223 
3656.000000	65.434575 
3655.000000	65.437912 
3654.000000	65.431904 
3653.000000	65.418624 
3652.000000	65.400695 
3651.000000	65.380430 
3650.000000	65.359330 
3649.000000	65.338182 
3648.000000	65.317034 
3647.000000	65.295815 
3646.000000	65.274906 
3645.000000	65.255379 
3644.000000	65.239262 
3643.000000	65.228891 
3642.000000	65.226483 
3641.000000	65.233302 
3640.000000	65.249037 
3639.000000	65.271639 
3638.000000	65.297603 
3637.000000	65.322351 
3636.000000	65.341687 
3635.000000	65.352535 
3634.000000	65.353655 
3633.000000	65.345740 
3632.000000	65.331149 
3631.000000	65.313291 
3630.000000	65.295577 
3629.000000	65.280604 
3628.000000	65.269589 
3627.000000	65.261983 
3626.000000	65.256190 
3625.000000	65.249967 
3624.000000	65.241289 
3623.000000	65.228915 
3622.000000	65.212607 
3621.000000	65.193438 
3620.000000	65.173125 
3619.000000	65.153980 
3618.000000	65.137624 
3617.000000	65.125298 
3616.000000	65.117311 
3615.000000	65.113687 
3614.000000	65.113949 
3613.000000	65.117931 
3612.000000	65.125656 
3611.000000	65.137720 
3610.000000	65.154790 
3609.000000	65.177297 
3608.000000	65.205001 
3607.000000	65.236449 
3606.000000	65.269064 
3605.000000	65.299344 
3604.000000	65.323424 
3603.000000	65.337944 
3602.000000	65.340685 
3601.000000	65.331292 
3600.000000	65.311288 
3599.000000	65.283632 
3598.000000	65.252065 
3597.000000	65.220856 
3596.000000	65.193605 
3595.000000	65.173172 
3594.000000	65.161061 
3593.000000	65.157580 
3592.000000	65.161871 
3591.000000	65.172195 
3590.000000	65.186095 
3589.000000	65.200901 
3588.000000	65.213966 
3587.000000	65.222978 
3586.000000	65.226578 
3585.000000	65.224313 
3584.000000	65.217065 
3583.000000	65.206551 
3582.000000	65.195345 
3581.000000	65.186119 
3580.000000	65.181088 
3579.000000	65.181589 
3578.000000	65.187692 
3577.000000	65.198421 
3576.000000	65.212225 
3575.000000	65.227603 
3574.000000	65.243411 
3573.000000	65.259146 
3572.000000	65.274953 
3571.000000	65.291213 
3570.000000	65.307998 
3569.000000	65.324997 
3568.000000	65.341114 
3567.000000	65.354776 
3566.000000	65.364384 
3565.000000	65.368771 
3564.000000	65.367484 
3563.000000	65.361213 
3562.000000	65.351676 
3561.000000	65.341353 
3560.000000	65.332984 
3559.000000	65.329051 
3558.000000	65.330982 
3557.000000	65.339136 
3556.000000	65.352916 
3555.000000	65.370583 
3554.000000	65.389871 
3553.000000	65.408062 
3552.000000	65.422511 
3551.000000	65.431141 
3550.000000	65.432715 
3549.000000	65.426945 
3548.000000	65.414762 
3547.000000	65.398263 
3546.000000	65.380334 
3545.000000	65.364170 
3544.000000	65.352630 
3543.000000	65.347623 
3542.000000	65.349721 
3541.000000	65.357947 
3540.000000	65.370106 
3539.000000	65.383005 
3538.000000	65.393114 
3537.000000	65.397453 
3536.000000	65.394020 
3535.000000	65.382075 
3534.000000	65.362334 
3533.000000	65.336632 
3532.000000	65.307593 
3531.000000	65.278005 
3530.000000	65.250325 
3529.000000	65.226387 
3528.000000	65.207314 
3527.000000	65.193629 
3526.000000	65.185546 
3525.000000	65.183067 
3524.000000	65.186119 
3523.000000	65.194606 
3522.000000	65.208125 
3521.000000	65.226125 
3520.000000	65.247511 
3519.000000	65.270733 
3518.000000	65.293955 
3517.000000	65.315485 
3516.000000	65.333867 
3515.000000	65.348219 
3514.000000	65.358400 
3513.000000	65.364718 
3512.000000	65.367937 
3511.000000	65.368700 
3510.000000	65.367555 
3509.000000	65.364861 
3508.000000	65.360593 
3507.000000	65.354895 
3506.000000	65.348148 
3505.000000	65.340971 
3504.000000	65.334463 
3503.000000	65.329813 
3502.000000	65.327930 
3501.000000	65.329384 
3500.000000	65.334200 
3499.000000	65.341854 
3498.000000	65.351629 
3497.000000	65.362691 
3496.000000	65.374422 
3495.000000	65.386509 
3494.000000	65.398740 
3493.000000	65.410852 
3492.000000	65.422010 
3491.000000	65.430855 
3490.000000	65.435528 
3489.000000	65.433907 
3488.000000	65.424108 
3487.000000	65.405273 
3486.000000	65.377807 
3485.000000	65.343785 
3484.000000	65.306448 
3483.000000	65.269804 
3482.000000	65.237689 
3481.000000	65.213131 
3480.000000	65.197777 
3479.000000	65.191602 
3478.000000	65.193271 
3477.000000	65.200400 
3476.000000	65.209984 
3475.000000	65.219092 
3474.000000	65.225124 
3473.000000	65.226078 
3472.000000	65.220832 
3471.000000	65.208935 
3470.000000	65.190672 
3469.000000	65.166902 
3468.000000	65.139150 
3467.000000	65.109586 
3466.000000	65.080523 
3465.000000	65.054655 
3464.000000	65.034484 
3463.000000	65.022397 
3462.000000	65.019774 
3461.000000	65.027260 
3460.000000	65.044546 
3459.000000	65.070629 
3458.000000	65.103626 
3457.000000	65.141224 
3456.000000	65.180611 
3455.000000	65.219020 
3454.000000	65.253877 
3453.000000	65.283155 
3452.000000	65.305328 
3451.000000	65.319657 
3450.000000	65.326595 
3449.000000	65.327191 
3448.000000	65.322923 
3447.000000	65.315389 
3446.000000	65.306091 
3445.000000	65.295791 
3444.000000	65.284633 
3443.000000	65.272068 
3442.000000	65.257143 
3441.000000	65.239000 
3440.000000	65.217208 
3439.000000	65.192127 
3438.000000	65.164828 
3437.000000	65.136933 
3436.000000	65.110254 
3435.000000	65.086317 
3434.000000	65.066146 
3433.000000	65.049958 
3432.000000	65.037775 
3431.000000	65.028953 
3430.000000	65.023612 
3429.000000	65.022182 
3428.000000	65.025854 
3427.000000	65.036034 
3426.000000	65.054011 
3425.000000	65.080189 
3424.000000	65.113520 
3423.000000	65.151166 
3422.000000	65.188694 
3421.000000	65.220975 
3420.000000	65.242981 
3419.000000	65.250945 
3418.000000	65.243244 
3417.000000	65.220737 
3416.000000	65.186834 
3415.000000	65.146684 
3414.000000	65.106105 
3413.000000	65.070366 
3412.000000	65.043258 
3411.000000	65.026450 
3410.000000	65.019392 
3409.000000	65.019536 
3408.000000	65.023493 
3407.000000	65.027856 
3406.000000	65.029621 
3405.000000	65.027403 
3404.000000	65.021181 
3403.000000	65.012693 
3402.000000	65.004229 
3401.000000	64.998698 
3400.000000	64.998459 
3399.000000	65.005064 
3398.000000	65.018630 
3397.000000	65.038037 
3396.000000	65.060853 
3395.000000	65.084242 
3394.000000	65.105533 
3393.000000	65.122580 
3392.000000	65.134429 
3391.000000	65.141248 
3390.000000	65.144181 
3389.000000	65.144824 
3388.000000	65.144729 
3387.000000	65.145063 
3386.000000	65.146374 
3385.000000	65.148448 
3384.000000	65.150642 
3383.000000	65.152168 
3382.000000	65.152740 
3381.000000	65.152812 
3380.000000	65.153789 
3379.000000	65.157580 
3378.000000	65.166234 
3377.000000	65.181279 
3376.000000	65.202975 
3375.000000	65.230226 
3374.000000	65.260434 
3373.000000	65.289926 
3372.000000	65.314507 
3371.000000	65.330553 
3370.000000	65.335631 
3369.000000	65.329527 
3368.000000	65.314078 
3367.000000	65.292835 
3366.000000	65.270209 
3365.000000	65.250444 
3364.000000	65.236353 
3363.000000	65.228581 
3362.000000	65.225386 
3361.000000	65.223264 
3360.000000	65.217900 
3359.000000	65.205574 
3358.000000	65.184211 
3357.000000	65.154337 
3356.000000	65.118885 
3355.000000	65.082740 
3354.000000	65.051150 
3353.000000	65.028762 
3352.000000	65.018367 
3351.000000	65.020394 
3350.000000	65.032744 
3349.000000	65.051817 
3348.000000	65.073513 
3347.000000	65.094542 
3346.000000	65.112805 
3345.000000	65.128064 
3344.000000	65.141344 
3343.000000	65.154719 
3342.000000	65.169835 
3341.000000	65.187883 
3340.000000	65.208816 
3339.000000	65.231800 
3338.000000	65.255403 
3337.000000	65.278172 
3336.000000	65.299057 
3335.000000	65.317702 
3334.000000	65.334153 
3333.000000	65.348529 
3332.000000	65.360665 
3331.000000	65.369915 
3330.000000	65.375018 
3329.000000	65.374684 
3328.000000	65.367841 
3327.000000	65.354490 
3326.000000	65.335488 
3325.000000	65.312767 
3324.000000	65.288782 
3323.000000	65.266227 
3322.000000	65.247273 
3321.000000	65.232992 
3320.000000	65.223741 
3319.000000	65.219092 
3318.000000	65.218472 
3317.000000	65.221333 
3316.000000	65.227603 
3315.000000	65.237426 
3314.000000	65.250945 
3313.000000	65.267896 
3312.000000	65.287041 
3311.000000	65.306019 
3310.000000	65.321874 
3309.000000	65.331530 
3308.000000	65.332436 
3307.000000	65.323328 
3306.000000	65.304589 
3305.000000	65.278339 
3304.000000	65.247678 
3303.000000	65.216231 
3302.000000	65.187454 
3301.000000	65.164065 
3300.000000	65.147471 
3299.000000	65.138030 
3298.000000	65.135216 
3297.000000	65.138077 
3296.000000	65.145683 
3295.000000	65.157628 
3294.000000	65.173578 
3293.000000	65.193772 
3292.000000	65.218329 
3291.000000	65.247106 
3290.000000	65.279173 
3289.000000	65.313005 
3288.000000	65.346455 
3287.000000	65.376877 
3286.000000	65.401506 
3285.000000	65.417790 
3284.000000	65.423917 
3283.000000	65.419125 
3282.000000	65.403842 
3281.000000	65.379714 
3280.000000	65.349221 
3279.000000	65.315341 
3278.000000	65.280985 
3277.000000	65.248656 
3276.000000	65.220141 
3275.000000	65.196347 
3274.000000	65.177488 
3273.000000	65.163278 
3272.000000	65.153264 
3271.000000	65.146851 
3270.000000	65.143728 
3269.000000	65.143561 
3268.000000	65.146374 
3267.000000	65.152001 
3266.000000	65.160322 
3265.000000	65.170741 
3264.000000	65.182733 
3263.000000	65.195584 
3262.000000	65.208578 
3261.000000	65.221023 
3260.000000	65.232181 
3259.000000	65.241217 
3258.000000	65.247273 
3257.000000	65.249490 
3256.000000	65.247225 
3255.000000	65.240287 
3254.000000	65.229034 
3253.000000	65.214729 
3252.000000	65.199303 
3251.000000	65.185213 
3250.000000	65.175104 
3249.000000	65.171074 
3248.000000	65.174436 
3247.000000	65.185022 
3246.000000	65.201401 
3245.000000	65.220975 
3244.000000	65.240478 
3243.000000	65.256476 
3242.000000	65.266036 
3241.000000	65.267276 
3240.000000	65.259432 
3239.000000	65.243148 
3238.000000	65.220117 
3237.000000	65.193152 
3236.000000	65.165734 
3235.000000	65.141987 
3234.000000	65.125536 
3233.000000	65.119624 
3232.000000	65.126466 
3231.000000	65.146684 
3230.000000	65.179252 
3229.000000	65.221357 
3228.000000	65.268802 
3227.000000	65.316438 
3226.000000	65.359210 
3225.000000	65.392827 
3224.000000	65.414261 
3223.000000	65.422415 
3222.000000	65.418171 
3221.000000	65.403890 
3220.000000	65.382885 
3219.000000	65.359091 
3218.000000	65.335869 
3217.000000	65.315961 
3216.000000	65.300679 
3215.000000	65.290546 
3214.000000	65.284585 
3213.000000	65.281343 
3212.000000	65.278768 
3211.000000	65.274786 
3210.000000	65.267467 
3209.000000	65.255451 
3208.000000	65.238356 
3207.000000	65.216445 
3206.000000	65.191245 
3205.000000	65.165162 
3204.000000	65.141296 
3203.000000	65.122842 
3202.000000	65.112733 
3201.000000	65.113043 
3200.000000	65.124297 
3199.000000	65.145659 
3198.000000	65.175104 
3197.000000	65.209722 
3196.000000	65.246319 
3195.000000	65.281796 
3194.000000	65.313816 
3193.000000	65.340638 
3192.000000	65.361237 
3191.000000	65.375113 
3190.000000	65.382266 
3189.000000	65.382671 
3188.000000	65.376758 
3187.000000	65.364980 
3186.000000	65.348148 
3185.000000	65.327334 
3184.000000	65.304207 
3183.000000	65.280461 
3182.000000	65.258073 
3181.000000	65.238571 
3180.000000	65.223169 
3179.000000	65.212440 
3178.000000	65.206384 
3177.000000	65.204381 
3176.000000	65.205574 
3175.000000	65.208983 
3174.000000	65.213799 
3173.000000	65.219426 
3172.000000	65.225648 
3171.000000	65.232467 
3170.000000	65.239882 
3169.000000	65.247988 
3168.000000	65.256500 
3167.000000	65.265130 
3166.000000	65.273261 
3165.000000	65.280127 
3164.000000	65.284776 
3163.000000	65.286445 
3162.000000	65.284490 
3161.000000	65.278577 
3160.000000	65.268588 
3159.000000	65.255117 
3158.000000	65.239119 
3157.000000	65.222001 
3156.000000	65.205097 
3155.000000	65.189647 
3154.000000	65.176534 
3153.000000	65.166044 
3152.000000	65.157961 
3151.000000	65.151906 
3150.000000	65.147519 
3149.000000	65.144515 
3148.000000	65.143084 
3147.000000	65.143656 
3146.000000	65.146946 
3145.000000	65.153551 
3144.000000	65.163826 
3143.000000	65.177297 
3142.000000	65.193104 
3141.000000	65.209746 
3140.000000	65.225315 
3139.000000	65.237855 
3138.000000	65.245723 
3137.000000	65.247726 
3136.000000	65.243196 
3135.000000	65.232181 
3134.000000	65.215492 
3133.000000	65.194416 
3132.000000	65.170955 
3131.000000	65.147209 
3130.000000	65.125465 
3129.000000	65.107345 
3128.000000	65.093708 
3127.000000	65.084266 
3126.000000	65.077590 
3125.000000	65.071702 
3124.000000	65.064597 
3123.000000	65.055012 
3122.000000	65.042686 
3121.000000	65.029048 
3120.000000	65.016937 
3119.000000	65.009927 
3118.000000	65.011358 
3117.000000	65.023350 
3116.000000	65.046191 
3115.000000	65.078020 
3114.000000	65.114951 
3113.000000	65.152215 
3112.000000	65.184879 
3111.000000	65.209269 
3110.000000	65.223765 
3109.000000	65.228629 
3108.000000	65.226078 
3107.000000	65.219497 
3106.000000	65.212273 
3105.000000	65.207314 
3104.000000	65.205717 
3103.000000	65.207648 
3102.000000	65.211248 
3101.000000	65.213966 
3100.000000	65.212583 
3099.000000	65.204453 
3098.000000	65.187692 
3097.000000	65.161561 
3096.000000	65.126633 
3095.000000	65.084767 
3094.000000	65.038704 
3093.000000	64.991664 
3092.000000	64.947104 
3091.000000	64.908194 
3090.000000	64.877700 
3089.000000	64.857745 
3088.000000	64.849376 
3087.000000	64.852857 
3086.000000	64.867806 
3085.000000	64.893293 
3084.000000	64.927506 
3083.000000	64.968299 
3082.000000	65.013003 
3081.000000	65.058755 
3080.000000	65.102362 
3079.000000	65.140628 
3078.000000	65.170931 
3077.000000	65.191268 
3076.000000	65.200757 
3075.000000	65.199589 
3074.000000	65.188980 
3073.000000	65.171194 
3072.000000	65.149354 
3071.000000	65.127038 
3070.000000	65.107679 
3069.000000	65.094494 
3068.000000	65.089964 
3067.000000	65.095400 
3066.000000	65.110850 
3065.000000	65.134954 
3064.000000	65.165019 
3063.000000	65.197110 
3062.000000	65.226650 
3061.000000	65.249133 
3060.000000	65.260815 
3059.000000	65.259408 
3058.000000	65.244460 
3057.000000	65.217709 
3056.000000	65.182471 
3055.000000	65.143203 
3054.000000	65.104579 
3053.000000	65.070796 
3052.000000	65.044641 
3051.000000	65.027856 
3050.000000	65.020680 
3049.000000	65.022206 
3048.000000	65.030813 
3047.000000	65.044856 
3046.000000	65.062665 
3045.000000	65.082621 
3044.000000	65.103435 
3043.000000	65.123820 
3042.000000	65.142512 
3041.000000	65.158390 
3040.000000	65.170407 
3039.000000	65.177798 
3038.000000	65.180349 
3037.000000	65.178442 
3036.000000	65.173006 
3035.000000	65.165209 
3034.000000	65.156316 
3033.000000	65.147233 
3032.000000	65.138697 
3031.000000	65.130949 
3030.000000	65.123891 
3029.000000	65.117311 
3028.000000	65.110778 
3027.000000	65.104150 
3026.000000	65.097427 
3025.000000	65.090751 
3024.000000	65.084147 
3023.000000	65.077638 
3022.000000	65.071105 
3021.000000	65.064668 
3020.000000	65.058255 
3019.000000	65.052175 
3018.000000	65.047025 
3017.000000	65.043830 
3016.000000	65.043687 
3015.000000	65.047454 
3014.000000	65.055394 
3013.000000	65.066981 
3012.000000	65.080714 
3011.000000	65.094208 
3010.000000	65.104436 
3009.000000	65.108394 
3008.000000	65.103721 
3007.000000	65.089130 
3006.000000	65.064883 
3005.000000	65.032792 
3004.000000	64.996242 
3003.000000	64.959359 
3002.000000	64.926624 
3001.000000	64.902067 
3000.000000	64.888596 
2999.000000	64.887404 
2998.000000	64.897894 
2997.000000	64.918017 
2996.000000	64.944386 
2995.000000	64.972925 
2994.000000	64.999651 
2993.000000	65.021204 
2992.000000	65.035462 
2991.000000	65.041494 
2990.000000	65.039610 
2989.000000	65.031147 
2988.000000	65.018200 
2987.000000	65.002942 
2986.000000	64.987301 
2985.000000	64.972758 
2984.000000	64.960193 
2983.000000	64.949798 
2982.000000	64.941072 
2981.000000	64.933085 
2980.000000	64.924550 
2979.000000	64.914226 
2978.000000	64.900970 
2977.000000	64.883899 
2976.000000	64.862632 
2975.000000	64.837360 
2974.000000	64.808917 
2973.000000	64.778494 
2972.000000	64.747762 
2971.000000	64.718437 
2970.000000	64.691781 
2969.000000	64.668631 
2968.000000	64.649271 
2967.000000	64.633417 
2966.000000	64.620280 
2965.000000	64.608931 
2964.000000	64.598512 
2963.000000	64.588689 
2962.000000	64.579582 
2961.000000	64.571976 
2960.000000	64.566874 
2959.000000	64.565443 
2958.000000	64.568662 
2957.000000	64.577007 
2956.000000	64.590406 
2955.000000	64.608120 
2954.000000	64.629030 
2953.000000	64.651775 
2952.000000	64.674782 
2951.000000	64.696645 
2950.000000	64.715981 
2949.000000	64.731884 
2948.000000	64.743804 
2947.000000	64.751529 
2946.000000	64.755415 
2945.000000	64.756345 
2944.000000	64.755725 
2943.000000	64.755105 
2942.000000	64.756035 
2941.000000	64.759874 
2940.000000	64.767527 
2939.000000	64.779114 
2938.000000	64.794087 
2937.000000	64.811396 
2936.000000	64.829754 
2935.000000	64.847826 
2934.000000	64.864611 
2933.000000	64.879488 
2932.000000	64.892172 
2931.000000	64.902639 
2930.000000	64.910936 
2929.000000	64.917063 
2928.000000	64.921069 
2927.000000	64.923119 
2926.000000	64.923644 
2925.000000	64.923357 
2924.000000	64.923262 
2923.000000	64.924740 
2922.000000	64.928936 
2921.000000	64.936661 
2920.000000	64.948105 
2919.000000	64.962553 
2918.000000	64.978575 
2917.000000	64.994239 
2916.000000	65.007495 
2915.000000	65.016484 
2914.000000	65.020155 
2913.000000	65.018272 
2912.000000	65.011477 
2911.000000	65.001249 
2910.000000	64.989209 
2909.000000	64.977002 
2908.000000	64.966058 
2907.000000	64.957189 
2906.000000	64.950537 
2905.000000	64.945769 
2904.000000	64.942479 
2903.000000	64.940190 
2902.000000	64.938616 
2901.000000	64.937734 
2900.000000	64.937710 
2899.000000	64.938735 
2898.000000	64.941167 
2897.000000	64.944934 
2896.000000	64.949917 
2895.000000	64.955902 
2894.000000	64.962506 
2893.000000	64.969587 
2892.000000	64.976882 
2891.000000	64.984512 
2890.000000	64.992475 
2889.000000	65.000605 
2888.000000	65.008258 
2887.000000	65.014529 
2886.000000	65.017938 
2885.000000	65.016913 
2884.000000	65.009808 
2883.000000	64.995694 
2882.000000	64.974236 
2881.000000	64.946269 
2880.000000	64.913702 
2879.000000	64.879488 
2878.000000	64.847350 
2877.000000	64.821147 
2876.000000	64.804410 
2875.000000	64.799880 
2874.000000	64.808750 
2873.000000	64.830589 
2872.000000	64.863276 
2871.000000	64.903426 
2870.000000	64.946794 
2869.000000	64.989042 
2868.000000	65.026378 
2867.000000	65.056180 
2866.000000	65.077137 
2865.000000	65.089344 
2864.000000	65.094137 
2863.000000	65.093445 
2862.000000	65.089583 
2861.000000	65.084457 
2860.000000	65.079784 
2859.000000	65.076446 
2858.000000	65.075016 
2857.000000	65.075588 
2856.000000	65.078139 
2855.000000	65.082430 
2854.000000	65.088105 
2853.000000	65.094566 
2852.000000	65.101242 
2851.000000	65.107488 
2850.000000	65.112757 
2849.000000	65.116786 
2848.000000	65.119647 
2847.000000	65.121603 
2846.000000	65.123128 
2845.000000	65.124726 
2844.000000	65.126681 
2843.000000	65.129137 
2842.000000	65.131998 
2841.000000	65.134811 
2840.000000	65.136933 
2839.000000	65.137743 
2838.000000	65.136814 
2837.000000	65.133619 
2836.000000	65.128231 
2835.000000	65.121054 
2834.000000	65.113043 
2833.000000	65.105438 
2832.000000	65.099644 
2831.000000	65.096902 
2830.000000	65.098261 
2829.000000	65.104126 
2828.000000	65.114283 
2827.000000	65.127658 
2826.000000	65.142607 
2825.000000	65.157294 
2824.000000	65.169811 
2823.000000	65.178513 
2822.000000	65.182304 
2821.000000	65.180802 
2820.000000	65.174198 
2819.000000	65.163159 
2818.000000	65.148687 
2817.000000	65.131902 
2816.000000	65.113949 
2815.000000	65.096020 
2814.000000	65.079164 
2813.000000	65.064406 
2812.000000	65.052580 
2811.000000	65.044403 
2810.000000	65.040063 
2809.000000	65.039443 
2808.000000	65.042138 
2807.000000	65.047359 
2806.000000	65.054130 
2805.000000	65.061640 
2804.000000	65.069222 
2803.000000	65.076589 
2802.000000	65.083837 
2801.000000	65.091395 
2800.000000	65.099811 
2799.000000	65.109682 
2798.000000	65.121126 
2797.000000	65.133929 
2796.000000	65.147328 
2795.000000	65.160155 
2794.000000	65.171170 
2793.000000	65.179252 
2792.000000	65.183615 
2791.000000	65.184020 
2790.000000	65.180397 
2789.000000	65.173006 
2788.000000	65.162158 
2787.000000	65.147924 
2786.000000	65.130448 
2785.000000	65.109705 
2784.000000	65.086030 
2783.000000	65.060448 
2782.000000	65.034461 
2781.000000	65.010213 
2780.000000	64.990115 
2779.000000	64.976310 
2778.000000	64.970374 
2777.000000	64.972496 
2776.000000	64.981770 
2775.000000	64.995956 
2774.000000	65.012407 
2773.000000	65.028405 
2772.000000	65.041947 
2771.000000	65.052080 
2770.000000	65.058732 
2769.000000	65.062642 
2768.000000	65.064549 
2767.000000	65.065002 
2766.000000	65.063905 
2765.000000	65.060615 
2764.000000	65.054130 
2763.000000	65.043807 
2762.000000	65.029597 
2761.000000	65.012454 
2760.000000	64.994502 
2759.000000	64.978408 
2758.000000	64.966797 
2757.000000	64.961886 
2756.000000	64.964652 
2755.000000	64.974784 
2754.000000	64.990782 
2753.000000	65.010476 
2752.000000	65.031456 
2751.000000	65.051746 
2750.000000	65.069985 
2749.000000	65.085554 
2748.000000	65.098619 
2747.000000	65.109729 
2746.000000	65.119457 
2745.000000	65.128159 
2744.000000	65.135955 
2743.000000	65.142750 
2742.000000	65.148401 
2741.000000	65.152931 
2740.000000	65.156507 
2739.000000	65.159535 
2738.000000	65.162539 
2737.000000	65.166115 
2736.000000	65.170574 
2735.000000	65.176081 
2734.000000	65.182423 
2733.000000	65.189099 
2732.000000	65.195369 
2731.000000	65.200328 
2730.000000	65.203237 
2729.000000	65.203285 
2728.000000	65.200185 
2727.000000	65.194034 
2726.000000	65.185475 
2725.000000	65.175509 
2724.000000	65.165495 
2723.000000	65.156841 
2722.000000	65.150499 
2721.000000	65.147018 
2720.000000	65.146327 
2719.000000	65.147829 
2718.000000	65.150475 
2717.000000	65.153145 
2716.000000	65.155053 
2715.000000	65.155982 
2714.000000	65.156269 
2713.000000	65.156507 
2712.000000	65.157461 
2711.000000	65.159368 
2710.000000	65.161848 
2709.000000	65.164017 
2708.000000	65.164542 
2707.000000	65.162134 
2706.000000	65.155768 
2705.000000	65.145301 
2704.000000	65.131235 
2703.000000	65.114831 
2702.000000	65.097594 
2701.000000	65.081119 
2700.000000	65.066790 
2699.000000	65.055441 
2698.000000	65.047526 
2697.000000	65.043020 
2696.000000	65.041565 
2695.000000	65.042734 
2694.000000	65.045928 
2693.000000	65.050315 
2692.000000	65.054845 
2691.000000	65.058422 
2690.000000	65.060019 
2689.000000	65.059161 
2688.000000	65.055894 
2687.000000	65.051174 
2686.000000	65.046644 
2685.000000	65.044283 
2684.000000	65.045833 
2683.000000	65.052366 
2682.000000	65.063738 
2681.000000	65.078616 
2680.000000	65.094709 
2679.000000	65.109300 
2678.000000	65.119862 
2677.000000	65.124821 
2676.000000	65.123605 
2675.000000	65.116858 
2674.000000	65.106177 
2673.000000	65.093588 
2672.000000	65.081167 
2671.000000	65.070295 
2670.000000	65.061950 
2669.000000	65.056514 
2668.000000	65.054273 
2667.000000	65.055418 
2666.000000	65.060305 
2665.000000	65.069079 
2664.000000	65.081858 
2663.000000	65.098166 
2662.000000	65.116977 
2661.000000	65.136480 
2660.000000	65.154552 
2659.000000	65.168881 
2658.000000	65.177559 
2657.000000	65.179610 
2656.000000	65.175056 
2655.000000	65.165019 
2654.000000	65.151667 
2653.000000	65.137338 
2652.000000	65.124487 
2651.000000	65.114331 
2650.000000	65.107417 
2649.000000	65.102624 
2648.000000	65.098047 
2647.000000	65.091204 
2646.000000	65.079617 
2645.000000	65.061664 
2644.000000	65.036773 
2643.000000	65.006184 
2642.000000	64.972400 
2641.000000	64.939093 
2640.000000	64.910197 
2639.000000	64.889144 
2638.000000	64.878201 
2637.000000	64.877963 
2636.000000	64.887166 
2635.000000	64.903163 
2634.000000	64.922451 
2633.000000	64.941382 
2632.000000	64.956808 
2631.000000	64.966464 
2630.000000	64.969468 
2629.000000	64.965915 
2628.000000	64.956927 
2627.000000	64.944052 
2626.000000	64.929199 
2625.000000	64.914345 
2624.000000	64.901423 
2623.000000	64.892077 
2622.000000	64.887499 
2621.000000	64.888548 
2620.000000	64.895439 
2619.000000	64.907312 
2618.000000	64.922332 
2617.000000	64.937925 
2616.000000	64.951229 
2615.000000	64.959383 
2614.000000	64.960432 
2613.000000	64.953589 
2612.000000	64.939570 
2611.000000	64.920377 
2610.000000	64.899110 
2609.000000	64.879202 
2608.000000	64.863657 
2607.000000	64.854502 
2606.000000	64.852499 
2605.000000	64.857292 
2604.000000	64.867711 
2603.000000	64.882254 
2602.000000	64.899277 
2601.000000	64.917683 
2600.000000	64.936733 
2599.000000	64.956331 
2598.000000	64.976143 
2597.000000	64.995813 
2596.000000	65.014767 
2595.000000	65.032291 
2594.000000	65.047597 
2593.000000	65.059900 
2592.000000	65.068912 
2591.000000	65.074467 
2590.000000	65.076971 
2589.000000	65.076661 
2588.000000	65.073871 
2587.000000	65.068626 
2586.000000	65.060853 
2585.000000	65.050673 
2584.000000	65.038657 
2583.000000	65.026044 
2582.000000	65.014505 
2581.000000	65.006184 
2580.000000	65.003061 
2579.000000	65.006375 
2578.000000	65.016222 
2577.000000	65.031147 
2576.000000	65.048313 
2575.000000	65.064048 
2574.000000	65.074539 
2573.000000	65.076756 
2572.000000	65.069007 
2571.000000	65.051245 
2570.000000	65.025067 
2569.000000	64.993500 
2568.000000	64.960455 
2567.000000	64.929604 
2566.000000	64.903974 
2565.000000	64.885663 
2564.000000	64.875388 
2563.000000	64.872813 
2562.000000	64.876651 
2561.000000	64.885258 
2560.000000	64.896941 
2559.000000	64.909911 
2558.000000	64.922857 
2557.000000	64.934802 
2556.000000	64.945244 
2555.000000	64.954018 
2554.000000	64.961528 
2553.000000	64.968276 
2552.000000	64.975070 
2551.000000	64.982581 
2550.000000	64.990973 
2549.000000	64.999699 
2548.000000	65.007424 
2547.000000	65.012240 
2546.000000	65.012025 
2545.000000	65.004968 
2544.000000	64.989995 
2543.000000	64.967489 
2542.000000	64.939069 
2541.000000	64.907741 
2540.000000	64.877128 
2539.000000	64.851045 
2538.000000	64.832520 
2537.000000	64.823651 
2536.000000	64.825105 
2535.000000	64.836239 
2534.000000	64.855289 
2533.000000	64.879918 
2532.000000	64.907765 
2531.000000	64.936709 
2530.000000	64.965105 
2529.000000	64.991807 
2528.000000	65.015912 
2527.000000	65.036821 
2526.000000	65.053844 
2525.000000	65.066385 
2524.000000	65.073943 
2523.000000	65.076112 
2522.000000	65.072751 
2521.000000	65.064358 
2520.000000	65.051841 
2519.000000	65.036463 
2518.000000	65.019488 
2517.000000	65.002274 
2516.000000	64.985728 
2515.000000	64.970350 
2514.000000	64.956355 
2513.000000	64.943337 
2512.000000	64.931011 
2511.000000	64.918899 
2510.000000	64.906811 
2509.000000	64.894723 
2508.000000	64.883089 
2507.000000	64.872622 
2506.000000	64.864206 
2505.000000	64.858698 
2504.000000	64.856791 
2503.000000	64.858984 
2502.000000	64.865350 
2501.000000	64.875483 
2500.000000	64.889049 
2499.000000	64.905548 
2498.000000	64.924502 
2497.000000	64.945292 
2496.000000	64.967155 
2495.000000	64.989256 
2494.000000	65.010404 
2493.000000	65.029168 
2492.000000	65.044140 
2491.000000	65.054178 
2490.000000	65.058445 
2489.000000	65.056967 
2488.000000	65.050435 
2487.000000	65.040206 
2486.000000	65.028238 
2485.000000	65.016317 
2484.000000	65.006089 
2483.000000	64.998412 
2482.000000	64.993548 
2481.000000	64.991092 
2480.000000	64.990067 
2479.000000	64.989328 
2478.000000	64.987993 
2477.000000	64.985394 
2476.000000	64.981174 
2475.000000	64.975118 
2474.000000	64.967226 
2473.000000	64.957356 
2472.000000	64.945340 
2471.000000	64.930963 
2470.000000	64.914226 
2469.000000	64.895439 
2468.000000	64.875340 
2467.000000	64.855194 
2466.000000	64.836597 
2465.000000	64.821004 
2464.000000	64.809846 
2463.000000	64.803528 
2462.000000	64.801907 
2461.000000	64.803910 
2460.000000	64.808177 
2459.000000	64.812874 
2458.000000	64.816594 
2457.000000	64.818620 
2456.000000	64.819073 
2455.000000	64.818716 
2454.000000	64.818978 
2453.000000	64.821314 
2452.000000	64.826846 
2451.000000	64.836096 
2450.000000	64.848756 
2449.000000	64.863729 
2448.000000	64.879417 
2447.000000	64.894247 
2446.000000	64.907121 
2445.000000	64.917540 
2444.000000	64.925813 
2443.000000	64.932990 
2442.000000	64.940071 
2441.000000	64.947652 
2440.000000	64.955902 
2439.000000	64.964342 
2438.000000	64.971566 
2437.000000	64.975905 
2436.000000	64.976048 
2435.000000	64.971208 
2434.000000	64.961457 
2433.000000	64.947819 
2432.000000	64.931869 
2431.000000	64.915585 
2430.000000	64.900732 
2429.000000	64.888572 
2428.000000	64.879608 
2427.000000	64.873480 
2426.000000	64.869308 
2425.000000	64.865946 
2424.000000	64.862155 
2423.000000	64.857172 
2422.000000	64.850616 
2421.000000	64.843034 
2420.000000	64.835333 
2419.000000	64.829206 
2418.000000	64.826679 
2417.000000	64.829850 
2416.000000	64.840507 
2415.000000	64.859652 
2414.000000	64.887285 
2413.000000	64.921951 
2412.000000	64.960813 
2411.000000	65.000033 
2410.000000	65.035080 
2409.000000	65.061664 
2408.000000	65.076351 
2407.000000	65.077471 
2406.000000	65.065312 
2405.000000	65.042233 
2404.000000	65.012097 
2403.000000	64.979720 
2402.000000	64.949631 
2401.000000	64.925551 
2400.000000	64.909529 
2399.000000	64.901876 
2398.000000	64.901065 
2397.000000	64.904713 
2396.000000	64.910006 
2395.000000	64.914536 
2394.000000	64.916706 
2393.000000	64.915990 
2392.000000	64.912891 
2391.000000	64.908480 
2390.000000	64.903855 
2389.000000	64.899706 
2388.000000	64.896225 
2387.000000	64.893007 
2386.000000	64.889192 
2385.000000	64.883804 
2384.000000	64.876365 
2383.000000	64.866971 
2382.000000	64.856243 
2381.000000	64.845538 
2380.000000	64.836359 
2379.000000	64.830327 
2378.000000	64.828372 
2377.000000	64.830851 
2376.000000	64.837360 
2375.000000	64.847040 
2374.000000	64.858388 
2373.000000	64.869785 
2372.000000	64.879536 
2371.000000	64.886450 
2370.000000	64.889931 
2369.000000	64.890050 
2368.000000	64.887619 
2367.000000	64.883923 
2366.000000	64.880537 
2365.000000	64.878892 
2364.000000	64.879846 
2363.000000	64.883446 
2362.000000	64.888882 
2361.000000	64.894533 
2360.000000	64.898514 
2359.000000	64.899373 
2358.000000	64.896368 
2357.000000	64.889717 
2356.000000	64.880728 
2355.000000	64.871382 
2354.000000	64.863967 
2353.000000	64.860272 
2352.000000	64.861059 
2351.000000	64.865851 
2350.000000	64.872908 
2349.000000	64.879703 
2348.000000	64.883780 
2347.000000	64.883089 
2346.000000	64.876937 
2345.000000	64.865827 
2344.000000	64.851570 
2343.000000	64.836478 
2342.000000	64.822840 
2341.000000	64.812326 
2340.000000	64.805412 
2339.000000	64.801406 
2338.000000	64.798927 
2337.000000	64.796686 
2336.000000	64.793896 
2335.000000	64.790964 
2334.000000	64.789319 
2333.000000	64.791250 
2332.000000	64.799118 
2331.000000	64.814567 
2330.000000	64.837670 
2329.000000	64.866447 
2328.000000	64.897155 
2327.000000	64.924979 
2326.000000	64.944887 
2325.000000	64.952635 
2324.000000	64.945912 
2323.000000	64.924812 
2322.000000	64.891672 
2321.000000	64.850783 
2320.000000	64.807343 
2319.000000	64.766740 
2318.000000	64.733457 
2317.000000	64.710474 
2316.000000	64.698910 
2315.000000	64.697742 
2314.000000	64.704680 
2313.000000	64.716315 
2312.000000	64.728927 
2311.000000	64.739584 
2310.000000	64.746451 
2309.000000	64.749145 
2308.000000	64.748835 
2307.000000	64.747858 
2306.000000	64.749169 
2305.000000	64.755582 
2304.000000	64.768791 
2303.000000	64.789223 
2302.000000	64.815640 
2301.000000	64.845347 
2300.000000	64.874768 
2299.000000	64.900326 
2298.000000	64.918994 
2297.000000	64.929080 
2296.000000	64.930367 
2295.000000	64.924049 
2294.000000	64.912438 
2293.000000	64.898252 
2292.000000	64.884138 
2291.000000	64.872431 
2290.000000	64.864540 
2289.000000	64.861321 
2288.000000	64.862585 
2287.000000	64.867568 
2286.000000	64.874863 
2285.000000	64.883041 
2284.000000	64.890480 
2283.000000	64.896035 
2282.000000	64.898872 
2281.000000	64.898538 
2280.000000	64.895248 
2279.000000	64.889669 
2278.000000	64.882659 
2277.000000	64.875125 
2276.000000	64.867901 
2275.000000	64.861631 
2274.000000	64.856505 
2273.000000	64.852547 
2272.000000	64.849710 
2271.000000	64.848160 
2270.000000	64.848065 
2269.000000	64.849686 
2268.000000	64.853334 
2267.000000	64.859199 
2266.000000	64.866948 
2265.000000	64.875912 
2264.000000	64.885020 
2263.000000	64.893102 
2262.000000	64.899039 
2261.000000	64.902019 
2260.000000	64.901590 
2259.000000	64.897799 
2258.000000	64.891171 
2257.000000	64.882397 
2256.000000	64.872169 
2255.000000	64.861035 
2254.000000	64.849281 
2253.000000	64.836907 
2252.000000	64.823746 
2251.000000	64.809703 
2250.000000	64.794850 
2249.000000	64.779472 
2248.000000	64.764237 
2247.000000	64.749813 
2246.000000	64.737010 
2245.000000	64.726448 
2244.000000	64.718866 
2243.000000	64.714360 
2242.000000	64.713120 
2241.000000	64.715218 
2240.000000	64.720654 
2239.000000	64.729380 
2238.000000	64.741277 
2237.000000	64.755988 
2236.000000	64.772915 
2235.000000	64.790916 
2234.000000	64.808726 
2233.000000	64.824819 
2232.000000	64.837861 
2231.000000	64.846968 
2230.000000	64.851975 
2229.000000	64.853739 
2228.000000	64.853763 
2227.000000	64.854121 
2226.000000	64.856767 
2225.000000	64.862775 
2224.000000	64.872407 
2223.000000	64.884638 
2222.000000	64.897298 
2221.000000	64.907622 
2220.000000	64.912939 
2219.000000	64.911222 
2218.000000	64.901566 
2217.000000	64.884471 
2216.000000	64.861655 
2215.000000	64.835858 
2214.000000	64.810204 
2213.000000	64.787578 
2212.000000	64.770293 
2211.000000	64.759612 
2210.000000	64.755916 
2209.000000	64.758515 
2208.000000	64.766097 
2207.000000	64.777064 
2206.000000	64.789724 
2205.000000	64.802598 
2204.000000	64.814472 
2203.000000	64.824652 
2202.000000	64.832878 
2201.000000	64.839243 
2200.000000	64.844012 
2199.000000	64.847588 
2198.000000	64.850282 
2197.000000	64.852285 
2196.000000	64.853525 
2195.000000	64.853763 
2194.000000	64.852571 
2193.000000	64.849710 
2192.000000	64.844632 
2191.000000	64.837026 
2190.000000	64.826488 
2189.000000	64.812803 
2188.000000	64.796090 
2187.000000	64.776706 
2186.000000	64.755558 
2185.000000	64.733934 
2184.000000	64.713573 
2183.000000	64.696240 
2182.000000	64.683675 
2181.000000	64.677143 
2180.000000	64.677166 
2179.000000	64.683270 
2178.000000	64.694094 
2177.000000	64.707446 
2176.000000	64.720821 
2175.000000	64.731884 
2174.000000	64.738774 
2173.000000	64.740562 
2172.000000	64.737248 
2171.000000	64.729785 
2170.000000	64.719724 
2169.000000	64.708876 
2168.000000	64.699125 
2167.000000	64.691829 
2166.000000	64.687871 
2165.000000	64.687514 
2164.000000	64.690303 
2163.000000	64.695429 
2162.000000	64.701747 
2161.000000	64.708256 
2160.000000	64.714074 
2159.000000	64.718747 
2158.000000	64.722371 
2157.000000	64.725232 
2156.000000	64.727878 
2155.000000	64.730715 
2154.000000	64.734005 
2153.000000	64.737462 
2152.000000	64.740395 
2151.000000	64.741849 
2150.000000	64.740967 
2149.000000	64.737176 
2148.000000	64.730501 
2147.000000	64.721655 
2146.000000	64.711833 
2145.000000	64.702606 
2144.000000	64.695453 
2143.000000	64.691233 
2142.000000	64.689946 
2141.000000	64.690899 
2140.000000	64.693069 
2139.000000	64.695286 
2138.000000	64.696645 
2137.000000	64.697051 
2136.000000	64.697170 
2135.000000	64.698100 
2134.000000	64.701294 
2133.000000	64.707708 
2132.000000	64.717602 
2131.000000	64.730334 
2130.000000	64.744234 
2129.000000	64.757275 
2128.000000	64.767479 
2127.000000	64.773488 
2126.000000	64.774990 
2125.000000	64.772772 
2124.000000	64.768433 
2123.000000	64.763855 
2122.000000	64.760899 
2121.000000	64.760613 
2120.000000	64.763069 
2119.000000	64.767313 
2118.000000	64.771676 
2117.000000	64.774131 
2116.000000	64.772915 
2115.000000	64.766836 
2114.000000	64.755678 
2113.000000	64.740133 
2112.000000	64.721655 
2111.000000	64.702105 
2110.000000	64.683270 
2109.000000	64.666867 
2108.000000	64.654016 
2107.000000	64.645385 
2106.000000	64.641475 
2105.000000	64.642357 
2104.000000	64.648008 
2103.000000	64.658117 
2102.000000	64.672040 
2101.000000	64.688730 
2100.000000	64.706563 
2099.000000	64.723491 
2098.000000	64.737248 
2097.000000	64.745688 
2096.000000	64.747309 
2095.000000	64.741516 
2094.000000	64.728784 
2093.000000	64.710664 
2092.000000	64.689540 
2091.000000	64.667630 
2090.000000	64.646863 
2089.000000	64.628386 
2088.000000	64.612412 
2087.000000	64.598321 
2086.000000	64.585161 
2085.000000	64.571952 
2084.000000	64.558362 
2083.000000	64.544486 
2082.000000	64.531517 
2081.000000	64.520573 
2080.000000	64.513206 
2079.000000	64.510273 
2078.000000	64.512419 
2077.000000	64.519214 
2076.000000	64.529657 
2075.000000	64.542412 
2074.000000	64.555978 
2073.000000	64.569091 
2072.000000	64.581012 
2071.000000	64.591503 
2070.000000	64.600849 
2069.000000	64.609646 
2068.000000	64.618706 
2067.000000	64.628601 
2066.000000	64.639878 
2065.000000	64.652729 
2064.000000	64.666986 
2063.000000	64.682292 
2062.000000	64.698052 
2061.000000	64.713597 
2060.000000	64.728164 
2059.000000	64.740943 
2058.000000	64.751386 
2057.000000	64.758944 
2056.000000	64.763283 
2055.000000	64.764261 
2054.000000	64.761972 
2053.000000	64.756846 
2052.000000	64.749383 
2051.000000	64.740252 
2050.000000	64.730286 
2049.000000	64.720249 
2048.000000	64.710855 
2047.000000	64.702606 
2046.000000	64.695906 
2045.000000	64.691042 
2044.000000	64.688324 
2043.000000	64.687967 
2042.000000	64.690065 
2041.000000	64.694643 
2040.000000	64.701581 
2039.000000	64.710497 
2038.000000	64.720726 
2037.000000	64.731454 
2036.000000	64.741802 
2035.000000	64.750790 
2034.000000	64.757466 
2033.000000	64.761066 
2032.000000	64.760994 
2031.000000	64.756894 
2030.000000	64.748811 
2029.000000	64.737296 
2028.000000	64.723467 
2027.000000	64.708900 
2026.000000	64.695334 
2025.000000	64.684581 
2024.000000	64.678025 
2023.000000	64.676403 
2022.000000	64.679646 
2021.000000	64.686799 
2020.000000	64.696335 
2019.000000	64.706301 
2018.000000	64.714908 
2017.000000	64.721035 
2016.000000	64.724087 
2015.000000	64.724159 
2014.000000	64.721822 
2013.000000	64.717817 
2012.000000	64.712643 
2011.000000	64.706397 
2010.000000	64.698910 
2009.000000	64.689755 
2008.000000	64.678883 
2007.000000	64.666581 
2006.000000	64.653801 
2005.000000	64.642119 
2004.000000	64.633393 
2003.000000	64.629268 
2002.000000	64.630699 
2001.000000	64.637923 
2000.000000	64.649844 
1999.000000	64.664673 
1998.000000	64.680099 
1997.000000	64.693927 
1996.000000	64.704465 
1995.000000	64.710831 
1994.000000	64.713335 
1993.000000	64.712858 
1992.000000	64.710807 
1991.000000	64.708495 
1990.000000	64.706873 
1989.000000	64.706110 
1988.000000	64.705824 
1987.000000	64.705109 
1986.000000	64.703059 
1985.000000	64.698982 
1984.000000	64.692711 
1983.000000	64.684772 
1982.000000	64.676141 
1981.000000	64.668226 
1980.000000	64.662408 
1979.000000	64.659905 
1978.000000	64.661216 
1977.000000	64.666485 
1976.000000	64.675116 
1975.000000	64.685893 
1974.000000	64.697051 
1973.000000	64.706707 
1972.000000	64.712905 
1971.000000	64.713931 
1970.000000	64.708399 
1969.000000	64.695596 
1968.000000	64.675617 
1967.000000	64.649200 
1966.000000	64.617800 
1965.000000	64.583444 
1964.000000	64.548516 
1963.000000	64.515614 
1962.000000	64.487123 
1961.000000	64.464998 
1960.000000	64.450550 
1959.000000	64.444351 
1958.000000	64.446091 
1957.000000	64.454793 
1956.000000	64.468979 
1955.000000	64.486980 
1954.000000	64.507126 
1953.000000	64.528012 
1952.000000	64.548778 
1951.000000	64.569211 
1950.000000	64.589428 
1949.000000	64.609694 
1948.000000	64.630222 
1947.000000	64.651036 
1946.000000	64.671802 
1945.000000	64.691853 
1944.000000	64.710617 
1943.000000	64.727616 
1942.000000	64.742779 
1941.000000	64.756345 
1940.000000	64.768791 
1939.000000	64.780449 
1938.000000	64.791584 
1937.000000	64.801836 
1936.000000	64.810323 
1935.000000	64.815831 
1934.000000	64.817214 
1933.000000	64.813399 
1932.000000	64.803695 
1931.000000	64.788198 
1930.000000	64.767789 
1929.000000	64.743781 
1928.000000	64.717674 
1927.000000	64.690828 
1926.000000	64.664459 
1925.000000	64.639425 
1924.000000	64.616322 
1923.000000	64.595508 
1922.000000	64.577341 
1921.000000	64.562225 
1920.000000	64.550995 
1919.000000	64.544105 
1918.000000	64.542102 
1917.000000	64.545130 
1916.000000	64.553189 
1915.000000	64.565467 
1914.000000	64.580798 
1913.000000	64.597558 
1912.000000	64.614224 
1911.000000	64.629030 
1910.000000	64.640808 
1909.000000	64.649009 
1908.000000	64.653825 
1907.000000	64.655995 
1906.000000	64.656805 
1905.000000	64.657568 
1904.000000	64.659357 
1903.000000	64.662814 
1902.000000	64.667701 
1901.000000	64.673066 
1900.000000	64.677405 
1899.000000	64.679074 
1898.000000	64.676713 
1897.000000	64.669394 
1896.000000	64.657211 
1895.000000	64.641118 
1894.000000	64.622735 
1893.000000	64.603996 
1892.000000	64.586758 
1891.000000	64.572620 
1890.000000	64.562273 
1889.000000	64.555764 
1888.000000	64.552545 
1887.000000	64.551568 
1886.000000	64.551877 
1885.000000	64.552712 
1884.000000	64.553546 
1883.000000	64.554333 
1882.000000	64.555287 
1881.000000	64.556813 
1880.000000	64.559197 
1879.000000	64.562702 
1878.000000	64.567565 
1877.000000	64.573955 
1876.000000	64.581823 
1875.000000	64.591097 
1874.000000	64.601397 
1873.000000	64.612197 
1872.000000	64.622831 
1871.000000	64.632272 
1870.000000	64.639663 
1869.000000	64.644384 
1868.000000	64.646172 
1867.000000	64.645290 
1866.000000	64.642453 
1865.000000	64.638805 
1864.000000	64.635396 
1863.000000	64.632916 
1862.000000	64.631581 
1861.000000	64.631032 
1860.000000	64.630484 
1859.000000	64.629220 
1858.000000	64.626622 
1857.000000	64.622688 
1856.000000	64.617729 
1855.000000	64.612460 
1854.000000	64.607453 
1853.000000	64.603114 
1852.000000	64.599394 
1851.000000	64.595794 
1850.000000	64.591598 
1849.000000	64.586210 
1848.000000	64.579510 
1847.000000	64.572000 
1846.000000	64.564728 
1845.000000	64.559030 
1844.000000	64.556169 
1843.000000	64.556980 
1842.000000	64.561462 
1841.000000	64.568829 
1840.000000	64.577603 
1839.000000	64.586067 
1838.000000	64.592576 
1837.000000	64.595866 
1836.000000	64.595389 
1835.000000	64.591026 
1834.000000	64.583230 
1833.000000	64.572739 
1832.000000	64.560294 
1831.000000	64.546895 
1830.000000	64.533567 
1829.000000	64.521384 
1828.000000	64.511561 
1827.000000	64.505171 
1826.000000	64.503192 
1825.000000	64.505910 
1824.000000	64.512848 
1823.000000	64.522624 
1822.000000	64.533185 
1821.000000	64.542245 
1820.000000	64.547586 
1819.000000	64.547896 
1818.000000	64.542770 
1817.000000	64.532852 
1816.000000	64.519786 
1815.000000	64.505743 
1814.000000	64.492797 
1813.000000	64.482522 
1812.000000	64.475703 
1811.000000	64.472389 
1810.000000	64.471840 
1809.000000	64.473056 
1808.000000	64.474964 
1807.000000	64.476561 
1806.000000	64.477157 
1805.000000	64.476561 
1804.000000	64.474868 
1803.000000	64.472222 
1802.000000	64.468955 
1801.000000	64.465570 
1800.000000	64.462614 
1799.000000	64.460706 
1798.000000	64.460396 
1797.000000	64.462065 
1796.000000	64.465785 
1795.000000	64.471316 
1794.000000	64.478039 
1793.000000	64.485239 
1792.000000	64.492154 
1791.000000	64.498186 
1790.000000	64.503097 
1789.000000	64.507007 
1788.000000	64.510321 
1787.000000	64.513325 
1786.000000	64.516353 
1785.000000	64.519047 
1784.000000	64.520764 
1783.000000	64.520406 
1782.000000	64.516901 
1781.000000	64.509320 
1780.000000	64.497184 
1779.000000	64.480829 
1778.000000	64.461493 
1777.000000	64.440846 
1776.000000	64.420795 
1775.000000	64.403080 
1774.000000	64.389085 
1773.000000	64.379334 
1772.000000	64.373397 
1771.000000	64.370226 
1770.000000	64.368486 
1769.000000	64.366745 
1768.000000	64.363765 
1767.000000	64.358997 
1766.000000	64.352679 
1765.000000	64.345479 
1764.000000	64.338254 
1763.000000	64.332056 
1762.000000	64.327454 
1761.000000	64.324498 
1760.000000	64.322423 
1759.000000	64.319896 
1758.000000	64.314794 
1757.000000	64.305353 
1756.000000	64.289903 
1755.000000	64.267444 
1754.000000	64.237618 
1753.000000	64.201450 
1752.000000	64.160156 
1751.000000	64.115333 
1750.000000	64.068174 
1749.000000	64.019918 
1748.000000	63.970994 
1747.000000	63.921356 
1746.000000	63.870716 
1745.000000	63.819169 
1744.000000	63.767004 
1743.000000	63.714838 
1742.000000	63.663649 
1741.000000	63.614869 
1740.000000	63.569831 
1739.000000	63.529920 
1738.000000	63.496088 
1737.000000	63.469219 
1736.000000	63.450050 
1735.000000	63.439631 
1734.000000	63.438749 
1733.000000	63.448452 
1732.000000	63.469243 
1731.000000	63.501596 
1730.000000	63.544654 
1729.000000	63.597011 
1728.000000	63.656067 
1727.000000	63.719010 
1726.000000	63.782358 
1725.000000	63.843297 
1724.000000	63.899421 
1723.000000	63.949346 
1722.000000	63.992834 
1721.000000	64.030241 
1720.000000	64.062190 
1719.000000	64.089584 
1718.000000	64.113235 
1717.000000	64.133381 
1716.000000	64.149665 
1715.000000	64.161753 
1714.000000	64.169549 
1713.000000	64.173126 
1712.000000	64.172720 
1711.000000	64.169192 
1710.000000	64.163637 
1709.000000	64.157080 
1708.000000	64.150142 
1707.000000	64.143157 
1706.000000	64.135932 
1705.000000	64.128065 
1704.000000	64.119243 
1703.000000	64.109158 
1702.000000	64.098310 
1701.000000	64.087700 
1700.000000	64.078950 
1699.000000	64.073657 
1698.000000	64.073467 
1697.000000	64.079380 
1696.000000	64.091992 
1695.000000	64.110589 
1694.000000	64.134025 
1693.000000	64.160728 
1692.000000	64.189004 
1691.000000	64.217066 
1690.000000	64.243459 
1689.000000	64.267301 
1688.000000	64.287972 
1687.000000	64.304900 
1686.000000	64.317774 
1685.000000	64.326190 
1684.000000	64.329910 
1683.000000	64.328622 
1682.000000	64.322400 
1681.000000	64.311456 
1680.000000	64.296627 
1679.000000	64.279150 
1678.000000	64.260530 
1677.000000	64.242482 
1676.000000	64.226841 
1675.000000	64.215230 
1674.000000	64.208984 
1673.000000	64.208960 
1672.000000	64.215373 
1671.000000	64.227986 
1670.000000	64.245939 
1669.000000	64.267849 
1668.000000	64.291715 
1667.000000	64.315128 
1666.000000	64.335632 
1665.000000	64.350795 
1664.000000	64.358639 
1663.000000	64.357995 
1662.000000	64.348745 
1661.000000	64.331960 
1660.000000	64.309573 
1659.000000	64.284300 
1658.000000	64.259243 
1657.000000	64.237236 
1656.000000	64.220499 
1655.000000	64.210438 
1654.000000	64.207530 
1653.000000	64.211368 
1652.000000	64.220905 
1651.000000	64.234876 
1650.000000	64.251565 
1649.000000	64.269518 
1648.000000	64.287161 
1647.000000	64.302754 
1646.000000	64.314651 
1645.000000	64.321184 
1644.000000	64.321088 
1643.000000	64.313626 
1642.000000	64.298939 
1641.000000	64.278221 
1640.000000	64.253830 
1639.000000	64.228820 
1638.000000	64.206504 
1637.000000	64.189887 
1636.000000	64.181208 
1635.000000	64.181423 
1634.000000	64.190196 
1633.000000	64.205932 
1632.000000	64.226055 
1631.000000	64.247560 
1630.000000	64.267539 
1629.000000	64.283490 
1628.000000	64.293599 
1627.000000	64.296793 
1626.000000	64.292883 
1625.000000	64.282417 
1624.000000	64.266443 
1623.000000	64.246487 
1622.000000	64.224576 
1621.000000	64.202904 
1620.000000	64.183640 
1619.000000	64.168596 
1618.000000	64.159250 
1617.000000	64.156150 
1616.000000	64.159131 
1615.000000	64.166975 
1614.000000	64.177894 
1613.000000	64.189600 
1612.000000	64.199829 
1611.000000	64.206671 
1610.000000	64.209032 
1609.000000	64.206886 
1608.000000	64.201021 
1607.000000	64.193272 
1606.000000	64.185690 
1605.000000	64.180111 
1604.000000	64.177680 
1603.000000	64.178538 
1602.000000	64.181923 
1601.000000	64.186501 
1600.000000	64.190697 
1599.000000	64.193344 
1598.000000	64.193964 
1597.000000	64.192962 
1596.000000	64.191603 
1595.000000	64.191412 
1594.000000	64.193940 
1593.000000	64.200210 
1592.000000	64.210200 
1591.000000	64.223170 
1590.000000	64.237451 
1589.000000	64.250755 
1588.000000	64.260649 
1587.000000	64.265227 
1586.000000	64.263415 
1585.000000	64.255237 
1584.000000	64.241886 
1583.000000	64.225387 
1582.000000	64.208292 
1581.000000	64.193201 
1580.000000	64.182353 
1579.000000	64.177012 
1578.000000	64.177656 
1577.000000	64.183640 
1576.000000	64.193749 
1575.000000	64.206194 
1574.000000	64.218974 
1573.000000	64.230346 
1572.000000	64.238858 
1571.000000	64.243960 
1570.000000	64.245724 
1569.000000	64.244985 
1568.000000	64.243173 
1567.000000	64.241838 
1566.000000	64.242625 
1565.000000	64.246678 
1564.000000	64.254450 
1563.000000	64.265418 
1562.000000	64.278125 
1561.000000	64.290428 
1560.000000	64.299917 
1559.000000	64.304518 
1558.000000	64.302730 
1557.000000	64.294123 
1556.000000	64.279413 
1555.000000	64.260315 
1554.000000	64.239168 
1553.000000	64.218544 
1552.000000	64.200687 
1551.000000	64.187121 
1550.000000	64.178466 
1549.000000	64.174723 
1548.000000	64.175415 
1547.000000	64.179849 
1546.000000	64.187335 
1545.000000	64.197278 
1544.000000	64.209270 
1543.000000	64.222478 
1542.000000	64.235877 
1541.000000	64.247846 
1540.000000	64.256548 
1539.000000	64.260363 
1538.000000	64.258146 
1537.000000	64.249610 
1536.000000	64.235734 
1535.000000	64.218378 
1534.000000	64.200019 
1533.000000	64.183211 
1532.000000	64.170026 
1531.000000	64.161491 
1530.000000	64.157605 
1529.000000	64.157366 
1528.000000	64.159250 
1527.000000	64.161682 
1526.000000	64.163637 
1525.000000	64.164805 
1524.000000	64.165616 
1523.000000	64.166998 
1522.000000	64.169979 
1521.000000	64.175462 
1520.000000	64.183759 
1519.000000	64.194536 
1518.000000	64.207100 
1517.000000	64.220237 
1516.000000	64.232873 
1515.000000	64.243865 
1514.000000	64.252495 
1513.000000	64.258265 
1512.000000	64.261078 
1511.000000	64.261126 
1510.000000	64.258861 
1509.000000	64.254903 
1508.000000	64.250254 
1507.000000	64.246034 
1506.000000	64.243412 
1505.000000	64.243555 
1504.000000	64.247441 
1503.000000	64.255690 
1502.000000	64.268326 
1501.000000	64.285087 
1500.000000	64.305329 
1499.000000	64.328074 
1498.000000	64.351940 
1497.000000	64.375138 
1496.000000	64.395451 
1495.000000	64.410352 
1494.000000	64.417457 
1493.000000	64.415144 
1492.000000	64.402770 
1491.000000	64.381432 
1490.000000	64.353489 
1489.000000	64.322400 
1488.000000	64.292049 
1487.000000	64.265871 
1486.000000	64.246439 
1485.000000	64.235258 
1484.000000	64.232063 
1483.000000	64.235663 
1482.000000	64.243745 
1481.000000	64.253640 
1480.000000	64.262604 
1479.000000	64.268231 
1478.000000	64.268875 
1477.000000	64.263796 
1476.000000	64.253115 
1475.000000	64.237761 
1474.000000	64.219117 
1473.000000	64.198780 
1472.000000	64.178371 
1471.000000	64.159274 
1470.000000	64.142656 
1469.000000	64.129495 
1468.000000	64.120388 
1467.000000	64.115643 
1466.000000	64.115214 
1465.000000	64.118647 
1464.000000	64.125084 
1463.000000	64.133310 
1462.000000	64.141917 
1461.000000	64.149332 
1460.000000	64.154243 
1459.000000	64.155435 
1458.000000	64.152169 
1457.000000	64.143943 
1456.000000	64.130806 
1455.000000	64.113426 
1454.000000	64.092993 
1453.000000	64.071106 
1452.000000	64.049839 
1451.000000	64.031171 
1450.000000	64.017033 
1449.000000	64.008617 
1448.000000	64.006423 
1447.000000	64.010071 
1446.000000	64.018368 
1445.000000	64.029598 
1444.000000	64.041852 
1443.000000	64.053297 
1442.000000	64.062571 
1441.000000	64.069080 
1440.000000	64.072966 
1439.000000	64.074897 
1438.000000	64.075708 
1437.000000	64.076495 
1436.000000	64.077830 
1435.000000	64.080047 
1434.000000	64.082908 
1433.000000	64.085865 
1432.000000	64.088153 
1431.000000	64.089274 
1430.000000	64.088821 
1429.000000	64.086675 
1428.000000	64.083266 
1427.000000	64.079284 
1426.000000	64.075660 
1425.000000	64.073324 
1424.000000	64.072847 
1423.000000	64.074373 
1422.000000	64.077591 
1421.000000	64.081883 
1420.000000	64.086294 
1419.000000	64.089822 
1418.000000	64.091730 
1417.000000	64.091658 
1416.000000	64.089918 
1415.000000	64.087319 
1414.000000	64.085054 
1413.000000	64.084434 
1412.000000	64.086794 
1411.000000	64.092779 
1410.000000	64.102673 
1409.000000	64.115786 
1408.000000	64.130735 
1407.000000	64.145636 
1406.000000	64.158320 
1405.000000	64.166760 
1404.000000	64.168953 
1403.000000	64.163684 
1402.000000	64.150404 
1401.000000	64.129590 
1400.000000	64.102578 
1399.000000	64.071464 
1398.000000	64.039063 
1397.000000	64.008212 
1396.000000	63.981628 
1395.000000	63.961315 
1394.000000	63.948464 
1393.000000	63.943028 
1392.000000	63.943862 
1391.000000	63.948869 
1390.000000	63.955616 
1389.000000	63.961601 
1388.000000	63.964939 
1387.000000	63.964533 
1386.000000	63.960337 
1385.000000	63.952970 
1384.000000	63.944029 
1383.000000	63.935089 
1382.000000	63.927912 
1381.000000	63.923859 
1380.000000	63.923883 
1379.000000	63.928437 
1378.000000	63.937354 
1377.000000	63.950061 
1376.000000	63.965463 
1375.000000	63.982200 
1374.000000	63.998818 
1373.000000	64.013719 
1372.000000	64.025616 
1371.000000	64.033484 
1370.000000	64.036870 
1369.000000	64.035725 
1368.000000	64.030647 
1367.000000	64.022707 
1366.000000	64.013171 
1365.000000	64.003324 
1364.000000	63.994431 
1363.000000	63.987398 
1362.000000	63.983011 
1361.000000	63.981652 
1360.000000	63.983392 
1359.000000	63.987851 
1358.000000	63.994145 
1357.000000	64.000892 
1356.000000	64.006257 
1355.000000	64.008331 
1354.000000	64.005517 
1353.000000	63.996791 
1352.000000	63.982176 
1351.000000	63.962912 
1350.000000	63.941454 
1349.000000	63.921070 
1348.000000	63.905000 
1347.000000	63.896179 
1346.000000	63.896393 
1345.000000	63.905882 
1344.000000	63.923311 
1343.000000	63.945889 
1342.000000	63.970398 
1341.000000	63.993310 
1340.000000	64.011549 
1339.000000	64.023065 
1338.000000	64.026808 
1337.000000	64.022898 
1336.000000	64.012408 
1335.000000	63.997149 
1334.000000	63.979291 
1333.000000	63.961315 
1332.000000	63.945579 
1331.000000	63.934016 
1330.000000	63.927745 
1329.000000	63.927173 
1328.000000	63.931584 
1327.000000	63.939213 
1326.000000	63.947653 
1325.000000	63.954019 
1324.000000	63.955831 
1323.000000	63.951277 
1322.000000	63.939714 
1321.000000	63.921809 
1320.000000	63.899302 
1319.000000	63.874506 
1318.000000	63.849759 
1317.000000	63.827085 
1316.000000	63.807821 
1315.000000	63.792705 
1314.000000	63.781929 
1313.000000	63.775253 
1312.000000	63.772606 
1311.000000	63.774061 
1310.000000	63.779735 
1309.000000	63.789629 
1308.000000	63.803744 
1307.000000	63.821840 
1306.000000	63.843393 
1305.000000	63.867473 
1304.000000	63.892960 
1303.000000	63.918757 
1302.000000	63.943791 
1301.000000	63.967180 
1300.000000	63.988041 
1299.000000	64.005637 
1298.000000	64.019346 
1297.000000	64.028716 
1296.000000	64.033746 
1295.000000	64.034605 
1294.000000	64.032268 
1293.000000	64.027667 
1292.000000	64.022111 
1291.000000	64.016437 
1290.000000	64.011240 
1289.000000	64.006185 
1288.000000	64.000391 
1287.000000	63.992571 
1286.000000	63.981556 
1285.000000	63.966560 
1284.000000	63.947606 
1283.000000	63.925647 
1282.000000	63.902497 
1281.000000	63.880491 
1280.000000	63.861966 
1279.000000	63.848757 
1278.000000	63.841605 
1277.000000	63.840079 
1276.000000	63.842558 
1275.000000	63.846755 
1274.000000	63.849949 
1273.000000	63.849997 
1272.000000	63.845491 
1271.000000	63.836145 
1270.000000	63.822579 
1269.000000	63.806200 
1268.000000	63.788866 
1267.000000	63.772034 
1266.000000	63.756775 
1265.000000	63.743734 
1264.000000	63.732790 
1263.000000	63.723540 
1262.000000	63.715386 
1261.000000	63.707852 
1260.000000	63.700628 
1259.000000	63.693571 
1258.000000	63.686776 
1257.000000	63.680338 
1256.000000	63.674306 
1255.000000	63.668680 
1254.000000	63.663482 
1253.000000	63.658666 
1252.000000	63.654351 
1251.000000	63.650846 
1250.000000	63.648462 
1249.000000	63.647556 
1248.000000	63.648509 
1247.000000	63.651537 
1246.000000	63.656520 
1245.000000	63.663125 
1244.000000	63.670778 
1243.000000	63.678789 
1242.000000	63.686466 
1241.000000	63.693237 
1240.000000	63.698697 
1239.000000	63.702487 
1238.000000	63.704252 
1237.000000	63.703799 
1236.000000	63.701152 
1235.000000	63.696575 
1234.000000	63.690471 
1233.000000	63.683676 
1232.000000	63.677072 
1231.000000	63.671493 
1230.000000	63.667297 
1229.000000	63.664412 
1228.000000	63.662195 
1227.000000	63.659620 
1226.000000	63.655710 
1225.000000	63.649606 
1224.000000	63.641190 
1223.000000	63.631010 
1222.000000	63.620305 
1221.000000	63.610458 
1220.000000	63.603138 
1219.000000	63.599562 
1218.000000	63.600516 
1217.000000	63.606071 
1216.000000	63.615632 
1215.000000	63.628292 
1214.000000	63.643169 
1213.000000	63.659238 
1212.000000	63.675618 
1211.000000	63.691568 
1210.000000	63.706350 
1209.000000	63.719153 
1208.000000	63.729286 
1207.000000	63.736271 
1206.000000	63.740038 
1205.000000	63.740873 
1204.000000	63.739490 
1203.000000	63.736867 
1202.000000	63.733959 
1201.000000	63.731718 
1200.000000	63.730573 
1199.000000	63.730454 
1198.000000	63.730669 
1197.000000	63.730025 
1196.000000	63.727116 
1195.000000	63.720631 
1194.000000	63.709521 
1193.000000	63.693404 
1192.000000	63.672709 
1191.000000	63.648819 
1190.000000	63.623738 
1189.000000	63.599777 
1188.000000	63.579154 
1187.000000	63.563394 
1186.000000	63.553190 
1185.000000	63.548040 
1184.000000	63.546347 
1183.000000	63.545751 
1182.000000	63.543868 
1181.000000	63.539004 
1180.000000	63.530373 
1179.000000	63.518619 
1178.000000	63.505506 
1177.000000	63.493347 
1176.000000	63.484239 
1175.000000	63.479304 
1174.000000	63.478302 
1173.000000	63.479304 
1172.000000	63.479113 
1171.000000	63.474225 
1170.000000	63.461732 
1169.000000	63.439869 
1168.000000	63.408827 
1167.000000	63.370656 
1166.000000	63.329243 
1165.000000	63.289117 
1164.000000	63.255071 
1163.000000	63.230752 
1162.000000	63.218808 
1161.000000	63.220000 
1160.000000	63.233947 
1159.000000	63.259029 
1158.000000	63.293123 
1157.000000	63.333582 
1156.000000	63.378095 
1155.000000	63.424134 
1154.000000	63.469481 
1153.000000	63.512039 
1152.000000	63.550186 
1151.000000	63.582563 
1150.000000	63.608694 
1149.000000	63.628864 
1148.000000	63.644361 
1147.000000	63.656997 
1146.000000	63.669085 
1145.000000	63.682651 
1144.000000	63.699316 
1143.000000	63.719415 
1142.000000	63.742232 
1141.000000	63.765740 
1140.000000	63.787388 
1139.000000	63.804507 
1138.000000	63.814854 
1137.000000	63.817214 
1136.000000	63.811802 
1135.000000	63.800001 
1134.000000	63.783884 
1133.000000	63.766074 
1132.000000	63.749170 
1131.000000	63.735485 
1130.000000	63.726639 
1129.000000	63.723468 
1128.000000	63.726115 
1127.000000	63.733792 
1126.000000	63.745379 
1125.000000	63.758921 
1124.000000	63.772130 
1123.000000	63.782429 
1122.000000	63.787579 
1121.000000	63.785719 
1120.000000	63.775706 
1119.000000	63.757634 
1118.000000	63.732910 
1117.000000	63.703966 
1116.000000	63.673901 
1115.000000	63.646054 
1114.000000	63.623571 
1113.000000	63.608837 
1112.000000	63.603281 
1111.000000	63.607716 
1110.000000	63.622188 
1109.000000	63.645768 
1108.000000	63.676810 
1107.000000	63.712835 
1106.000000	63.750767 
1105.000000	63.786649 
1104.000000	63.816690 
1103.000000	63.837385 
1102.000000	63.846683 
1101.000000	63.844275 
1100.000000	63.831686 
1099.000000	63.811922 
1098.000000	63.788843 
1097.000000	63.766717 
1096.000000	63.748836 
1095.000000	63.737082 
1094.000000	63.731670 
1093.000000	63.731503 
1092.000000	63.734483 
1091.000000	63.738322 
1090.000000	63.741374 
1089.000000	63.742733 
1088.000000	63.742399 
1087.000000	63.740944 
1086.000000	63.738679 
1085.000000	63.735651 
1084.000000	63.731026 
1083.000000	63.723516 
1082.000000	63.711619 
1081.000000	63.694167 
1080.000000	63.670873 
1079.000000	63.642668 
1078.000000	63.611865 
1077.000000	63.582015 
1076.000000	63.557362 
1075.000000	63.542103 
1074.000000	63.539218 
1073.000000	63.550305 
1072.000000	63.575172 
1071.000000	63.611912 
1070.000000	63.656926 
1069.000000	63.705968 
1068.000000	63.754916 
1067.000000	63.800215 
1066.000000	63.839125 
1065.000000	63.869976 
1064.000000	63.891768 
1063.000000	63.904166 
1062.000000	63.906884 
1061.000000	63.899803 
1060.000000	63.882803 
1059.000000	63.856363 
1058.000000	63.821911 
1057.000000	63.782310 
1056.000000	63.741540 
1055.000000	63.704752 
1054.000000	63.676905 
1053.000000	63.661861 
1052.000000	63.661193 
1051.000000	63.673973 
1050.000000	63.696742 
1049.000000	63.724279 
1048.000000	63.750576 
1047.000000	63.770365 
1046.000000	63.779759 
1045.000000	63.776946 
1044.000000	63.762068 
1043.000000	63.736963 
1042.000000	63.704371 
1041.000000	63.667011 
1040.000000	63.627338 
1039.000000	63.587403 
1038.000000	63.548898 
1037.000000	63.513278 
1036.000000	63.482213 
1035.000000	63.457465 
1034.000000	63.440871 
1033.000000	63.434195 
1032.000000	63.438248 
1031.000000	63.452935 
1030.000000	63.476777 
1029.000000	63.507390 
1028.000000	63.541555 
1027.000000	63.576030 
1026.000000	63.607811 
1025.000000	63.634562 
1024.000000	63.654994 
1023.000000	63.668656 
1022.000000	63.675761 
1021.000000	63.677239 
1020.000000	63.674283 
1019.000000	63.668417 
1018.000000	63.661599 
1017.000000	63.655948 
1016.000000	63.653659 
1015.000000	63.656854 
1014.000000	63.667154 
1013.000000	63.685297 
1012.000000	63.710808 
1011.000000	63.741827 
1010.000000	63.775420 
1009.000000	63.808131 
1008.000000	63.836717 
1007.000000	63.858699 
1006.000000	63.873004 
1005.000000	63.880157 
1004.000000	63.881897 
1003.000000	63.880825 
1002.000000	63.879299 
1001.000000	63.879299 
1000.000000	63.881540 
999.000000	 63.885760 
998.000000	 63.890647 
997.000000	 63.894724 
996.000000	 63.896536 
995.000000	 63.895511 
994.000000	 63.891696 
993.000000	 63.885855 
992.000000	 63.879156 
991.000000	 63.872742 
990.000000	 63.867402 
989.000000	 63.863325 
988.000000	 63.860225 
987.000000	 63.857579 
986.000000	 63.854932 
985.000000	 63.852047 
984.000000	 63.849091 
983.000000	 63.846611 
982.000000	 63.845038 
981.000000	 63.844895 
980.000000	 63.846516 
979.000000	 63.849973 
978.000000	 63.854956 
977.000000	 63.860964 
976.000000	 63.867759 
975.000000	 63.874912 
974.000000	 63.882184 
973.000000	 63.889217 
972.000000	 63.895606 
971.000000	 63.900661 
970.000000	 63.903808 
969.000000	 63.904142 
968.000000	 63.900780 
967.000000	 63.893008 
966.000000	 63.880562 
965.000000	 63.863611 
964.000000	 63.842701 
963.000000	 63.818907 
962.000000	 63.793635 
961.000000	 63.768410 
960.000000	 63.744640 
959.000000	 63.723659 
958.000000	 63.706541 
957.000000	 63.693881 
956.000000	 63.685679 
955.000000	 63.681530 
954.000000	 63.680529 
953.000000	 63.681435 
952.000000	 63.683032 
951.000000	 63.684010 
950.000000	 63.683700 
949.000000	 63.681960 
948.000000	 63.679456 
947.000000	 63.677263 
946.000000	 63.676738 
945.000000	 63.679361 
944.000000	 63.686275 
943.000000	 63.697814 
942.000000	 63.713431 
941.000000	 63.731622 
940.000000	 63.750267 
939.000000	 63.767170 
938.000000	 63.780236 
937.000000	 63.788175 
936.000000	 63.790774 
935.000000	 63.788986 
934.000000	 63.784790 
933.000000	 63.780665 
932.000000	 63.779330 
931.000000	 63.783168 
930.000000	 63.794016 
929.000000	 63.812756 
928.000000	 63.839268 
927.000000	 63.872122 
926.000000	 63.908791 
925.000000	 63.945531 
924.000000	 63.977980 
923.000000	 64.001393 
922.000000	 64.011597 
921.000000	 64.005589 
920.000000	 63.982343 
919.000000	 63.943028 
918.000000	 63.891100 
917.000000	 63.831782 
916.000000	 63.771677 
915.000000	 63.717341 
914.000000	 63.674402 
913.000000	 63.646602 
912.000000	 63.635420 
911.000000	 63.639807 
910.000000	 63.656997 
909.000000	 63.682675 
908.000000	 63.712048 
907.000000	 63.740277 
906.000000	 63.763332 
905.000000	 63.778066 
904.000000	 63.782525 
903.000000	 63.776183 
902.000000	 63.759779 
901.000000	 63.735175 
900.000000	 63.704895 
899.000000	 63.671755 
898.000000	 63.638257 
897.000000	 63.606429 
896.000000	 63.577795 
895.000000	 63.553547 
894.000000	 63.534951 
893.000000	 63.523101 
892.000000	 63.519406 
891.000000	 63.525176 
890.000000	 63.541436 
889.000000	 63.568258 
888.000000	 63.604450 
887.000000	 63.647127 
886.000000	 63.692402 
885.000000	 63.735556 
884.000000	 63.772034 
883.000000	 63.798046 
882.000000	 63.811588 
881.000000	 63.812804 
880.000000	 63.803839 
879.000000	 63.788318 
878.000000	 63.770556 
877.000000	 63.754606 
876.000000	 63.743638 
875.000000	 63.739347 
874.000000	 63.742041 
873.000000	 63.750600 
872.000000	 63.762998 
871.000000	 63.776636 
870.000000	 63.788914 
869.000000	 63.797640 
868.000000	 63.801360 
867.000000	 63.799595 
866.000000	 63.792562 
865.000000	 63.781547 
864.000000	 63.768339 
863.000000	 63.755178 
862.000000	 63.744425 
861.000000	 63.737964 
860.000000	 63.736939 
859.000000	 63.741302 
858.000000	 63.750028 
857.000000	 63.761043 
856.000000	 63.771724 
855.000000	 63.779354 
854.000000	 63.781571 
853.000000	 63.777470 
852.000000	 63.767814 
851.000000	 63.754940 
850.000000	 63.741993 
849.000000	 63.732624 
848.000000	 63.729739 
847.000000	 63.735103 
846.000000	 63.748288 
845.000000	 63.766813 
844.000000	 63.786339 
843.000000	 63.801670 
842.000000	 63.807797 
841.000000	 63.801074 
840.000000	 63.780188 
839.000000	 63.746500 
838.000000	 63.704276 
837.000000	 63.659954 
836.000000	 63.621211 
835.000000	 63.595199 
834.000000	 63.587212 
833.000000	 63.599920 
832.000000	 63.631963 
831.000000	 63.678598 
830.000000	 63.731646 
829.000000	 63.781166 
828.000000	 63.817119 
827.000000	 63.831186 
826.000000	 63.819384 
825.000000	 63.782691 
824.000000	 63.727307 
823.000000	 63.662981 
822.000000	 63.601040 
821.000000	 63.551545 
820.000000	 63.521289 
819.000000	 63.512611 
818.000000	 63.523411 
817.000000	 63.548159 
816.000000	 63.580179 
815.000000	 63.612794 
814.000000	 63.640451 
813.000000	 63.659811 
812.000000	 63.669085 
811.000000	 63.668489 
810.000000	 63.659548 
809.000000	 63.644599 
808.000000	 63.626289 
807.000000	 63.606739 
806.000000	 63.587784 
805.000000	 63.570094 
804.000000	 63.553857 
803.000000	 63.538622 
802.000000	 63.523650 
801.000000	 63.508296 
800.000000	 63.492298 
799.000000	 63.475799 
798.000000	 63.459515 
797.000000	 63.444590 
796.000000	 63.432264 
795.000000	 63.423967 
794.000000	 63.421130 
793.000000	 63.424849 
792.000000	 63.435721 
791.000000	 63.453578 
790.000000	 63.477563 
789.000000	 63.506150 
788.000000	 63.537406 
787.000000	 63.568902 
786.000000	 63.597965 
785.000000	 63.621973 
784.000000	 63.638663 
783.000000	 63.646674 
782.000000	 63.645100 
781.000000	 63.634276 
780.000000	 63.615036 
779.000000	 63.589000 
778.000000	 63.558149 
777.000000	 63.524818 
776.000000	 63.491368 
775.000000	 63.459897 
774.000000	 63.432312 
773.000000	 63.410329 
772.000000	 63.394880 
771.000000	 63.386082 
770.000000	 63.383221 
769.000000	 63.384938 
768.000000	 63.389563 
767.000000	 63.395261 
766.000000	 63.400435 
765.000000	 63.403868 
764.000000	 63.404703 
763.000000	 63.402605 
762.000000	 63.397574 
761.000000	 63.389921 
760.000000	 63.380193 
759.000000	 63.369202 
758.000000	 63.357949 
757.000000	 63.347172 
756.000000	 63.337492 
755.000000	 63.329172 
754.000000	 63.321971 
753.000000	 63.315725 
752.000000	 63.310122 
751.000000	 63.305640 
750.000000	 63.303160 
749.000000	 63.304543 
748.000000	 63.312053 
747.000000	 63.327980 
746.000000	 63.353729 
745.000000	 63.388776 
744.000000	 63.429927 
743.000000	 63.471770 
742.000000	 63.507652 
741.000000	 63.530874 
740.000000	 63.536429 
739.000000	 63.522338 
738.000000	 63.490223 
737.000000	 63.445019 
736.000000	 63.393974 
735.000000	 63.344979 
734.000000	 63.305139 
733.000000	 63.279628 
732.000000	 63.270592 
731.000000	 63.277912 
730.000000	 63.298749 
729.000000	 63.328719 
728.000000	 63.362216 
727.000000	 63.393592 
726.000000	 63.418030 
725.000000	 63.431358 
724.000000	 63.431715 
723.000000	 63.418912 
722.000000	 63.395762 
721.000000	 63.367199 
720.000000	 63.340163 
719.000000	 63.322353 
718.000000	 63.320302 
717.000000	 63.337683 
716.000000	 63.374137 
715.000000	 63.425064 
714.000000	 63.481926 
713.000000	 63.534331 
712.000000	 63.571739 
711.000000	 63.586568 
710.000000	 63.575911 
709.000000	 63.542938 
708.000000	 63.495564 
707.000000	 63.445401 
706.000000	 63.404965 
705.000000	 63.384795 
704.000000	 63.391494 
703.000000	 63.425707 
702.000000	 63.483333 
701.000000	 63.555812 
700.000000	 63.632392 
699.000000	 63.702702 
698.000000	 63.758778 
697.000000	 63.796877 
696.000000	 63.816857 
695.000000	 63.823390 
694.000000	 63.823604 
693.000000	 63.826274 
692.000000	 63.839244 
691.000000	 63.867163 
690.000000	 63.910245 
689.000000	 63.963985 
688.000000	 64.020252 
687.000000	 64.069199 
686.000000	 64.101529 
685.000000	 64.110755 
684.000000	 64.094710 
683.000000	 64.055633 
682.000000	 63.999438 
681.000000	 63.934564 
680.000000	 63.869237 
679.000000	 63.810157 
678.000000	 63.760328 
677.000000	 63.719844 
676.000000	 63.684844 
675.000000	 63.649272 
674.000000	 63.606572 
673.000000	 63.550877 
672.000000	 63.480615 
671.000000	 63.399004 
670.000000	 63.315176 
669.000000	 63.240861 
668.000000	 63.190054 
667.000000	 63.174986 
666.000000	 63.203334 
665.000000	 63.275289 
664.000000	 63.383579 
663.000000	 63.514637 
662.000000	 63.650226 
661.000000	 63.771033 
660.000000	 63.861012 
659.000000	 63.910889 
658.000000	 63.919353 
657.000000	 63.893723 
656.000000	 63.848471 
655.000000	 63.801717 
654.000000	 63.772344 
653.000000	 63.774061 
652.000000	 63.813138 
651.000000	 63.884568 
650.000000	 63.976192 
649.000000	 64.068007 
648.000000	 64.136910 
647.000000	 64.161705 
646.000000	 64.128017 
645.000000	 64.032435 
644.000000	 63.883757 
643.000000	 63.701248 
642.000000	 63.510751 
641.000000	 63.338160 
640.000000	 63.204479 
639.000000	 63.119721 
638.000000	 63.082003 
637.000000	 63.077235 
636.000000	 63.083958 
635.000000	 63.078808 
634.000000	 63.043427 
633.000000	 62.968468 
632.000000	 62.857079 
631.000000	 62.722778 
630.000000	 62.587714 
629.000000	 62.477493 
628.000000	 62.416744 
627.000000	 62.423110 
626.000000	 62.504410 
625.000000	 62.658071 
624.000000	 62.870550 
623.000000	 63.121795 
622.000000	 63.385510 
621.000000	 63.633871 
620.000000	 63.839578 
619.000000	 63.979625 
618.000000	 64.038228 
617.000000	 64.008021 
616.000000	 63.892722 
615.000000	 63.706588 
614.000000	 63.473343 
613.000000	 63.222599 
612.000000	 62.986397 
611.000000	 62.794995 
610.000000	 62.671589 
609.000000	 62.629270 
608.000000	 62.668943 
607.000000	 62.780213 
606.000000	 62.942147 
605.000000	 63.128376 
604.000000	 63.310742 
603.000000	 63.465714 
602.000000	 63.578200 
601.000000	 63.644528 
600.000000	 63.671088 
599.000000	 63.672018 
598.000000	 63.663721 
597.000000	 63.660860 
596.000000	 63.672828 
595.000000	 63.701653 
594.000000	 63.744020 
593.000000	 63.792371 
592.000000	 63.839149 
591.000000	 63.878536 
590.000000	 63.910031 
589.000000	 63.936281 
588.000000	 63.961768 
587.000000	 63.990330 
586.000000	 64.023518 
585.000000	 64.058732 
584.000000	 64.089727 
583.000000	 64.108109 
582.000000	 64.105892 
581.000000	 64.078545 
580.000000	 64.027047 
579.000000	 63.956904 
578.000000	 63.877344 
577.000000	 63.799142 
576.000000	 63.732624 
575.000000	 63.686442 
574.000000	 63.665747 
573.000000	 63.671469 
572.000000	 63.699817 
571.000000	 63.744711 
570.000000	 63.797616 
569.000000	 63.848447 
568.000000	 63.887596 
567.000000	 63.907265 
566.000000	 63.903141 
565.000000	 63.875007 
564.000000	 63.826751 
563.000000	 63.764977 
562.000000	 63.698029 
561.000000	 63.634562 
560.000000	 63.581275 
559.000000	 63.541722 
558.000000	 63.516306 
557.000000	 63.503074 
556.000000	 63.498497 
555.000000	 63.498830 
554.000000	 63.501381 
553.000000	 63.504910 
552.000000	 63.508605 
551.000000	 63.511157 
550.000000	 63.509488 
549.000000	 63.498544 
548.000000	 63.471817 
547.000000	 63.423418 
546.000000	 63.349652 
545.000000	 63.251733 
544.000000	 63.136291 
543.000000	 63.015580 
542.000000	 62.905073 
541.000000	 62.821269 
540.000000	 62.777805 
539.000000	 62.783312 
538.000000	 62.838125 
537.000000	 62.936162 
536.000000	 63.065648 
535.000000	 63.213038 
534.000000	 63.364839 
533.000000	 63.511681 
532.000000	 63.648796 
531.000000	 63.776087 
530.000000	 63.895845 
529.000000	 64.009928 
528.000000	 64.117193 
527.000000	 64.212870 
526.000000	 64.288830 
525.000000	 64.335513 
524.000000	 64.344453 
523.000000	 64.312005 
522.000000	 64.240431 
521.000000	 64.138221 
520.000000	 64.017844 
519.000000	 63.893938 
518.000000	 63.779354 
517.000000	 63.682508 
516.000000	 63.605999 
515.000000	 63.547706 
514.000000	 63.501882 
513.000000	 63.461709 
512.000000	 63.421654 
511.000000	 63.379049 
510.000000	 63.334846 
509.000000	 63.291764 
508.000000	 63.254356 
507.000000	 63.225722 
506.000000	 63.207983 
505.000000	 63.200855 
504.000000	 63.202905 
503.000000	 63.211369 
502.000000	 63.224220 
501.000000	 63.240861 
500.000000	 63.260889 
499.000000	 63.283848 
498.000000	 63.309025 
497.000000	 63.335442 
496.000000	 63.360857 
495.000000	 63.382863 
494.000000	 63.400077 
493.000000	 63.413023 
492.000000	 63.424634 
491.000000	 63.439369 
490.000000	 63.462591 
489.000000	 63.498187 
488.000000	 63.547325 
487.000000	 63.606929 
486.000000	 63.670039 
485.000000	 63.727545 
484.000000	 63.770556 
483.000000	 63.793301 
482.000000	 63.794875 
481.000000	 63.779735 
480.000000	 63.757538 
479.000000	 63.739228 
478.000000	 63.734579 
477.000000	 63.747787 
476.000000	 63.776063 
475.000000	 63.809847 
474.000000	 63.835859 
473.000000	 63.840055 
472.000000	 63.812088 
471.000000	 63.748741 
470.000000	 63.655185 
469.000000	 63.543748 
468.000000	 63.430428 
467.000000	 63.331818 
466.000000	 63.259792 
465.000000	 63.218283 
464.000000	 63.202190 
463.000000	 63.198900 
462.000000	 63.192391 
461.000000	 63.168215 
460.000000	 63.118338 
459.000000	 63.042330 
458.000000	 62.949299 
457.000000	 62.855529 
456.000000	 62.779211 
455.000000	 62.734889 
454.000000	 62.728381 
453.000000	 62.755441 
452.000000	 62.800264 
451.000000	 62.839484 
450.000000	 62.848377 
449.000000	 62.807774 
448.000000	 62.709879 
447.000000	 62.560844 
446.000000	 62.379407 
445.000000	 62.192106 
444.000000	 62.024712 
443.000000	 61.895370 
442.000000	 61.808824 
441.000000	 61.756920 
440.000000	 61.722612 
439.000000	 61.688303 
438.000000	 61.639785 
437.000000	 61.575388 
436.000000	 61.508512 
435.000000	 61.466169 
434.000000	 61.476612 
433.000000	 61.565566 
432.000000	 61.745619 
431.000000	 62.014174 
430.000000	 62.350773 
429.000000	 62.723064 
428.000000	 63.094091 
427.000000	 63.429713 
426.000000	 63.705396 
425.000000	 63.909792 
424.000000	 64.046525 
423.000000	 64.126920 
422.000000	 64.163708 
421.000000	 64.169335 
420.000000	 64.152884 
419.000000	 64.120531 
418.000000	 64.076042 
417.000000	 64.021658 
416.000000	 63.956093 
415.000000	 63.881111 
414.000000	 63.795065 
413.000000	 63.680148 
412.000000	 63.505125 
411.000000	 63.240480 
410.000000	 62.863779 
409.000000	 62.354755 
408.000000	 61.716961 
407.000000	 60.987448 
406.000000	 60.233211 
405.000000	 59.545946 
404.000000	 59.014439 
403.000000	 58.701896 
402.000000	 58.626437 
401.000000	 58.761739 
400.000000	 59.028291 
399.000000	 59.311580 
398.000000	 59.485197 
397.000000	 59.437632 
396.000000	 59.105372 
395.000000	 58.484601 
394.000000	 57.644462 
393.000000	 56.713461 
392.000000	 55.841231 
391.000000	 55.166506 
390.000000	 54.807567 
389.000000	 54.852247 
388.000000	 55.344653 
387.000000	 56.301569 
386.000000	 57.729053 
385.000000	 59.624433 
384.000000	 61.994528 
383.000000	 64.805388 
382.000000	 67.972016 
381.000000	 71.302723 
380.000000	 74.502539 
379.000000	 77.193355 
378.000000	 78.983998 
377.000000	 79.557323 
376.000000	 78.742122 
375.000000	 76.597285 
374.000000	 73.438239 
373.000000	 69.781064 
372.000000	 66.267299 
371.000000	 63.493108 
370.000000	 61.909484 

