PE IR       SPECTRUM    SPECTRUM    ASCII       PEDS        1.60        
  -1
BZ61B5~1.ASC
17/04/07
21:22:58.00
17/04/07
21:22:58.00
tln
$BZ1503107-1_t0099$<tbV0>[-13.0,7.8,8.0,0.0,27,1,0]
370.000000
64









2002,4.07    
MIRTGS : RIGHTBACK : INTERNAL 2
MIR : ON : INTERNAL 2
OPTKBR

0.200000
8
8.000000
FILLER
RATIO
SPECTRUM
UNLOCKED 256

DOUBLE
64
COMBINED
1
0
0


1.000000
RATIO


1
0
TRUE
51149
0
LEFT NOT FITTED RIGHT NOT FITTED 0
NONE
NONE
15600
12.000000
4.427000
51148
TRUE
1 0 8 72 0 0 0 0 

15798.010000






#HDR
-1
-1
#GR
CM-1
%T
0.00002384185791015625
0.0
5000.000000
-1.000000
4631
8
85.106563
26.018404
#DATA
5000.000000	65.271425 
4999.000000	65.309619 
4998.000000	65.396976 
4997.000000	65.523815 
4996.000000	65.665149 
4995.000000	65.787482 
4994.000000	65.855932 
4993.000000	65.844345 
4992.000000	65.741801 
4991.000000	65.557408 
4990.000000	65.315961 
4989.000000	65.052556 
4988.000000	64.801764 
4987.000000	64.589619 
4986.000000	64.427137 
4985.000000	64.309859 
4984.000000	64.220595 
4983.000000	64.137148 
4982.000000	64.042520 
4981.000000	63.932085 
4980.000000	63.815236 
4979.000000	63.713622 
4978.000000	63.652300 
4977.000000	63.652873 
4976.000000	63.725137 
4975.000000	63.864207 
4974.000000	64.047908 
4973.000000	64.244198 
4972.000000	64.421653 
4971.000000	64.554667 
4970.000000	64.631986 
4969.000000	64.653110 
4968.000000	64.626216 
4967.000000	64.561915 
4966.000000	64.467787 
4965.000000	64.347505 
4964.000000	64.198565 
4963.000000	64.021635 
4962.000000	63.823366 
4961.000000	63.624382 
4960.000000	63.458228 
4959.000000	63.367986 
4958.000000	63.396453 
4957.000000	63.574481 
4956.000000	63.909363 
4955.000000	64.379501 
4954.000000	64.933490 
4953.000000	65.496802 
4952.000000	65.984582 
4951.000000	66.319036 
4950.000000	66.444563 
4949.000000	66.338038 
4948.000000	66.014266 
4947.000000	65.521001 
4946.000000	64.930939 
4945.000000	64.326357 
4944.000000	63.786053 
4943.000000	63.373613 
4942.000000	63.128423 
4941.000000	63.066411 
4940.000000	63.177156 
4939.000000	63.432884 
4938.000000	63.790392 
4937.000000	64.198613 
4936.000000	64.605784 
4935.000000	64.962339 
4934.000000	65.231919 
4933.000000	65.392160 
4932.000000	65.440058 
4931.000000	65.388536 
4930.000000	65.263414 
4929.000000	65.096306 
4928.000000	64.919114 
4927.000000	64.757657 
4926.000000	64.629769 
4925.000000	64.542579 
4924.000000	64.495158 
4923.000000	64.479207 
4922.000000	64.482593 
4921.000000	64.492702 
4920.000000	64.495944 
4919.000000	64.484691 
4918.000000	64.456915 
4917.000000	64.420151 
4916.000000	64.387607 
4915.000000	64.376735 
4914.000000	64.403271 
4913.000000	64.477109 
4912.000000	64.601278 
4911.000000	64.765930 
4910.000000	64.949703 
4909.000000	65.123009 
4908.000000	65.254688 
4907.000000	65.319490 
4906.000000	65.304732 
4905.000000	65.212774 
4904.000000	65.060210 
4903.000000	64.874339 
4902.000000	64.686560 
4901.000000	64.524078 
4900.000000	64.404225 
4899.000000	64.332962 
4898.000000	64.305257 
4897.000000	64.309811 
4896.000000	64.333438 
4895.000000	64.364552 
4894.000000	64.397215 
4893.000000	64.430141 
4892.000000	64.467763 
4891.000000	64.515686 
4890.000000	64.579534 
4889.000000	64.660978 
4888.000000	64.757370 
4887.000000	64.861989 
4886.000000	64.964437 
4885.000000	65.054106 
4884.000000	65.120601 
4883.000000	65.156817 
4882.000000	65.158867 
4881.000000	65.126991 
4880.000000	65.065526 
4879.000000	64.982485 
4878.000000	64.888024 
4877.000000	64.793038 
4876.000000	64.707350 
4875.000000	64.638543 
4874.000000	64.590477 
4873.000000	64.563536 
4872.000000	64.554357 
4871.000000	64.557218 
4870.000000	64.565896 
4869.000000	64.575052 
4868.000000	64.579558 
4867.000000	64.576268 
4866.000000	64.563751 
4865.000000	64.542984 
4864.000000	64.516139 
4863.000000	64.486598 
4862.000000	64.458322 
4861.000000	64.434409 
4860.000000	64.417195 
4859.000000	64.406514 
4858.000000	64.400553 
4857.000000	64.395093 
4856.000000	64.384579 
4855.000000	64.363718 
4854.000000	64.328193 
4853.000000	64.277601 
4852.000000	64.215588 
4851.000000	64.150142 
4850.000000	64.092087 
4849.000000	64.052319 
4848.000000	64.039087 
4847.000000	64.056110 
4846.000000	64.101743 
4845.000000	64.169764 
4844.000000	64.251422 
4843.000000	64.337468 
4842.000000	64.420747 
4841.000000	64.496970 
4840.000000	64.565777 
4839.000000	64.628720 
4838.000000	64.689135 
4837.000000	64.750075 
4836.000000	64.813303 
4835.000000	64.878702 
4834.000000	64.943909 
4833.000000	65.005373 
4832.000000	65.058612 
4831.000000	65.100288 
4830.000000	65.128183 
4829.000000	65.141797 
4828.000000	65.143084 
4827.000000	65.136003 
4826.000000	65.126466 
4825.000000	65.121507 
4824.000000	65.127587 
4823.000000	65.149402 
4822.000000	65.187191 
4821.000000	65.236592 
4820.000000	65.288233 
4819.000000	65.330123 
4818.000000	65.350079 
4817.000000	65.339016 
4816.000000	65.293884 
4815.000000	65.218400 
4814.000000	65.122294 
4813.000000	65.018868 
4812.000000	64.921569 
4811.000000	64.841222 
4810.000000	64.783811 
4809.000000	64.749956 
4808.000000	64.735555 
4807.000000	64.734172 
4806.000000	64.739966 
4805.000000	64.749026 
4804.000000	64.760017 
4803.000000	64.773845 
4802.000000	64.792275 
4801.000000	64.816141 
4800.000000	64.843082 
4799.000000	64.869022 
4798.000000	64.888596 
4797.000000	64.897131 
4796.000000	64.892125 
4795.000000	64.874267 
4794.000000	64.847707 
4793.000000	64.818644 
4792.000000	64.794325 
4791.000000	64.781069 
4790.000000	64.783167 
4789.000000	64.802217 
4788.000000	64.837193 
4787.000000	64.885520 
4786.000000	64.943552 
4785.000000	65.007567 
4784.000000	65.073704 
4783.000000	65.137910 
4782.000000	65.195775 
4781.000000	65.242815 
4780.000000	65.274190 
4779.000000	65.285468 
4778.000000	65.273499 
4777.000000	65.238213 
4776.000000	65.182256 
4775.000000	65.111041 
4774.000000	65.032005 
4773.000000	64.953660 
4772.000000	64.883589 
4771.000000	64.827466 
4770.000000	64.788269 
4769.000000	64.766287 
4768.000000	64.759325 
4767.000000	64.763641 
4766.000000	64.774847 
4765.000000	64.788675 
4764.000000	64.801383 
4763.000000	64.810371 
4762.000000	64.813280 
4761.000000	64.808797 
4760.000000	64.796471 
4759.000000	64.777326 
4758.000000	64.753389 
4757.000000	64.727854 
4756.000000	64.704680 
4755.000000	64.688062 
4754.000000	64.681315 
4753.000000	64.686751 
4752.000000	64.705371 
4751.000000	64.736843 
4750.000000	64.778947 
4749.000000	64.829158 
4748.000000	64.884614 
4747.000000	64.943075 
4746.000000	65.002679 
4745.000000	65.062308 
4744.000000	65.121006 
4743.000000	65.177989 
4742.000000	65.232253 
4741.000000	65.282225 
4740.000000	65.325331 
4739.000000	65.358829 
4738.000000	65.379691 
4737.000000	65.384674 
4736.000000	65.370917 
4735.000000	65.336871 
4734.000000	65.283012 
4733.000000	65.212798 
4732.000000	65.132451 
4731.000000	65.050601 
4730.000000	64.976310 
4729.000000	64.917802 
4728.000000	64.880061 
4727.000000	64.863848 
4726.000000	64.865422 
4725.000000	64.877605 
4724.000000	64.891910 
4723.000000	64.900183 
4722.000000	64.897537 
4721.000000	64.882850 
4720.000000	64.859509 
4719.000000	64.833784 
4718.000000	64.813256 
4717.000000	64.804220 
4716.000000	64.810132 
4715.000000	64.830541 
4714.000000	64.861655 
4713.000000	64.897370 
4712.000000	64.931249 
4711.000000	64.957904 
4710.000000	64.973926 
4709.000000	64.978170 
4708.000000	64.971256 
4707.000000	64.954948 
4706.000000	64.931631 
4705.000000	64.903354 
4704.000000	64.872002 
4703.000000	64.838695 
4702.000000	64.803886 
4701.000000	64.767694 
4700.000000	64.730525 
4699.000000	64.693808 
4698.000000	64.659452 
4697.000000	64.630675 
4696.000000	64.611005 
4695.000000	64.604234 
4694.000000	64.612746 
4693.000000	64.637732 
4692.000000	64.677834 
4691.000000	64.730453 
4690.000000	64.791584 
4689.000000	64.856791 
4688.000000	64.921736 
4687.000000	64.983129 
4686.000000	65.038657 
4685.000000	65.087127 
4684.000000	65.127921 
4683.000000	65.160536 
4682.000000	65.184187 
4681.000000	65.197992 
4680.000000	65.201091 
4679.000000	65.193748 
4678.000000	65.177297 
4677.000000	65.154790 
4676.000000	65.130186 
4675.000000	65.107607 
4674.000000	65.090465 
4673.000000	65.080714 
4672.000000	65.078473 
4671.000000	65.082359 
4670.000000	65.089964 
4669.000000	65.099000 
4668.000000	65.107369 
4667.000000	65.114021 
4666.000000	65.118408 
4665.000000	65.120577 
4664.000000	65.120744 
4663.000000	65.118765 
4662.000000	65.114378 
4661.000000	65.107083 
4660.000000	65.096569 
4659.000000	65.083026 
4658.000000	65.067267 
4657.000000	65.050649 
4656.000000	65.034937 
4655.000000	65.021896 
4654.000000	65.012502 
4653.000000	65.006899 
4652.000000	65.004706 
4651.000000	65.004920 
4650.000000	65.006089 
4649.000000	65.006852 
4648.000000	65.006446 
4647.000000	65.004587 
4646.000000	65.001106 
4645.000000	64.996099 
4644.000000	64.989733 
4643.000000	64.982342 
4642.000000	64.974188 
4641.000000	64.965963 
4640.000000	64.958477 
4639.000000	64.953088 
4638.000000	64.951300 
4637.000000	64.954876 
4636.000000	64.965152 
4635.000000	64.982843 
4634.000000	65.007758 
4633.000000	65.038967 
4632.000000	65.074682 
4631.000000	65.112829 
4630.000000	65.150809 
4629.000000	65.185904 
4628.000000	65.214848 
4627.000000	65.234541 
4626.000000	65.241551 
4625.000000	65.232920 
4624.000000	65.206170 
4623.000000	65.160155 
4622.000000	65.095543 
4621.000000	65.015172 
4620.000000	64.924144 
4619.000000	64.829373 
4618.000000	64.738607 
4617.000000	64.659547 
4616.000000	64.598560 
4615.000000	64.559412 
4614.000000	64.543080 
4613.000000	64.547729 
4612.000000	64.569211 
4611.000000	64.601540 
4610.000000	64.638495 
4609.000000	64.674115 
4608.000000	64.703774 
4607.000000	64.724445 
4606.000000	64.735436 
4605.000000	64.737725 
4604.000000	64.733672 
4603.000000	64.726018 
4602.000000	64.717125 
4601.000000	64.708304 
4600.000000	64.699697 
4599.000000	64.690232 
4598.000000	64.678120 
4597.000000	64.661765 
4596.000000	64.640259 
4595.000000	64.614152 
4594.000000	64.585375 
4593.000000	64.556765 
4592.000000	64.531445 
4591.000000	64.511919 
4590.000000	64.498925 
4589.000000	64.491915 
4588.000000	64.488744 
4587.000000	64.486980 
4586.000000	64.484381 
4585.000000	64.480137 
4584.000000	64.474892 
4583.000000	64.470291 
4582.000000	64.468050 
4581.000000	64.468979 
4580.000000	64.472365 
4579.000000	64.475893 
4578.000000	64.476251 
4577.000000	64.470410 
4576.000000	64.456629 
4575.000000	64.435386 
4574.000000	64.409351 
4573.000000	64.383268 
4572.000000	64.362382 
4571.000000	64.350867 
4570.000000	64.350581 
4569.000000	64.360547 
4568.000000	64.377212 
4567.000000	64.395642 
4566.000000	64.410662 
4565.000000	64.418458 
4564.000000	64.417147 
4563.000000	64.406704 
4562.000000	64.388632 
4561.000000	64.364957 
4560.000000	64.337658 
4559.000000	64.307904 
4558.000000	64.276504 
4557.000000	64.244174 
4556.000000	64.211964 
4555.000000	64.181590 
4554.000000	64.155864 
4553.000000	64.138293 
4552.000000	64.132761 
4551.000000	64.142608 
4550.000000	64.170002 
4549.000000	64.215111 
4548.000000	64.276266 
4547.000000	64.349675 
4546.000000	64.429974 
4545.000000	64.510488 
4544.000000	64.584636 
4543.000000	64.645910 
4542.000000	64.688825 
4541.000000	64.709568 
4540.000000	64.706826 
4539.000000	64.681553 
4538.000000	64.637851 
4537.000000	64.581370 
4536.000000	64.518928 
4535.000000	64.457154 
4534.000000	64.402127 
4533.000000	64.358472 
4532.000000	64.329099 
4531.000000	64.315271 
4530.000000	64.316701 
4529.000000	64.331936 
4528.000000	64.358448 
4527.000000	64.393162 
4526.000000	64.432430 
4525.000000	64.472937 
4524.000000	64.511561 
4523.000000	64.545583 
4522.000000	64.572381 
4521.000000	64.589405 
4520.000000	64.593768 
4519.000000	64.582419 
4518.000000	64.552617 
4517.000000	64.503192 
4516.000000	64.435195 
4515.000000	64.352273 
4514.000000	64.261150 
4513.000000	64.171433 
4512.000000	64.094376 
4511.000000	64.040136 
4510.000000	64.016723 
4509.000000	64.028644 
4508.000000	64.075231 
4507.000000	64.150500 
4506.000000	64.243888 
4505.000000	64.342093 
4504.000000	64.431333 
4503.000000	64.499378 
4502.000000	64.538192 
4501.000000	64.544844 
4500.000000	64.521765 
4499.000000	64.475703 
4498.000000	64.415431 
4497.000000	64.349603 
4496.000000	64.285254 
4495.000000	64.226722 
4494.000000	64.174818 
4493.000000	64.127612 
4492.000000	64.083433 
4491.000000	64.041304 
4490.000000	64.000225 
4489.000000	63.959789 
4488.000000	63.920950 
4487.000000	63.884949 
4486.000000	63.852190 
4485.000000	63.821840 
4484.000000	63.792848 
4483.000000	63.762736 
4482.000000	63.726496 
4481.000000	63.679361 
4480.000000	63.622117 
4479.000000	63.556528 
4478.000000	63.479661 
4477.000000	63.393545 
4476.000000	63.310360 
4475.000000	63.239502 
4474.000000	63.182306 
4473.000000	63.138651 
4472.000000	63.106203 
4471.000000	63.087415 
4470.000000	63.092756 
4469.000000	63.126564 
4468.000000	63.188529 
4467.000000	63.287568 
4466.000000	63.437628 
4465.000000	63.657355 
4464.000000	63.959479 
4463.000000	64.337062 
4462.000000	64.764857 
4461.000000	65.188789 
4460.000000	65.552353 
4459.000000	65.816497 
4458.000000	65.972471 
4457.000000	66.048979 
4456.000000	66.108226 
4455.000000	66.194820 
4454.000000	66.381859 
4453.000000	66.706013 
4452.000000	67.254662 
4451.000000	68.169641 
4450.000000	69.599938 
4449.000000	71.704554 
4448.000000	74.475216 
4447.000000	77.709555 
4446.000000	80.965566 
4445.000000	83.631134 
4444.000000	85.106563 
4443.000000	84.960007 
4442.000000	83.091568 
4441.000000	79.774117 
4440.000000	75.560164 
4439.000000	71.156907 
4438.000000	67.219710 
4437.000000	64.228034 
4436.000000	62.430834 
4435.000000	61.813974 
4434.000000	62.206840 
4433.000000	63.304996 
4432.000000	64.764690 
4431.000000	66.268348 
4430.000000	67.526698 
4429.000000	68.373107 
4428.000000	68.733501 
4427.000000	68.657541 
4426.000000	68.260335 
4425.000000	67.697739 
4424.000000	67.109990 
4423.000000	66.594362 
4422.000000	66.187667 
4421.000000	65.877842 
4420.000000	65.635275 
4419.000000	65.422105 
4418.000000	65.221142 
4417.000000	65.028452 
4416.000000	64.857411 
4415.000000	64.718174 
4414.000000	64.612436 
4413.000000	64.539670 
4412.000000	64.495635 
4411.000000	64.474701 
4410.000000	64.472174 
4409.000000	64.480662 
4408.000000	64.493727 
4407.000000	64.514541 
4406.000000	64.549374 
4405.000000	64.591693 
4404.000000	64.632558 
4403.000000	64.667224 
4402.000000	64.692187 
4401.000000	64.707159 
4400.000000	64.712882 
4399.000000	64.708065 
4398.000000	64.691758 
4397.000000	64.665985 
4396.000000	64.631342 
4395.000000	64.586687 
4394.000000	64.531087 
4393.000000	64.464068 
4392.000000	64.389133 
4391.000000	64.314961 
4390.000000	64.250302 
4389.000000	64.201855 
4388.000000	64.172601 
4387.000000	64.160799 
4386.000000	64.159822 
4385.000000	64.160704 
4384.000000	64.155554 
4383.000000	64.140486 
4382.000000	64.116454 
4381.000000	64.089846 
4380.000000	64.070129 
4379.000000	64.067578 
4378.000000	64.089679 
4377.000000	64.138913 
4376.000000	64.211630 
4375.000000	64.298534 
4374.000000	64.387083 
4373.000000	64.464139 
4372.000000	64.519453 
4371.000000	64.547228 
4370.000000	64.547491 
4369.000000	64.524960 
4368.000000	64.487314 
4367.000000	64.443445 
4366.000000	64.401173 
4365.000000	64.366197 
4364.000000	64.341592 
4363.000000	64.327454 
4362.000000	64.321708 
4361.000000	64.321231 
4360.000000	64.322829 
4359.000000	64.323234 
4358.000000	64.319801 
4357.000000	64.310741 
4356.000000	64.295411 
4355.000000	64.274072 
4354.000000	64.248275 
4353.000000	64.220762 
4352.000000	64.195299 
4351.000000	64.176225 
4350.000000	64.167428 
4349.000000	64.171624 
4348.000000	64.189243 
4347.000000	64.218497 
4346.000000	64.254975 
4345.000000	64.292263 
4344.000000	64.323115 
4343.000000	64.340710 
4342.000000	64.340066 
4341.000000	64.318799 
4340.000000	64.278483 
4339.000000	64.224267 
4338.000000	64.164137 
4337.000000	64.107203 
4336.000000	64.061784 
4335.000000	64.033651 
4334.000000	64.025330 
4333.000000	64.035964 
4332.000000	64.061689 
4331.000000	64.097046 
4330.000000	64.136576 
4329.000000	64.176130 
4328.000000	64.212918 
4327.000000	64.245772 
4326.000000	64.274358 
4325.000000	64.298582 
4324.000000	64.317679 
4323.000000	64.330148 
4322.000000	64.334368 
4321.000000	64.328575 
4320.000000	64.312005 
4319.000000	64.285159 
4318.000000	64.250707 
4317.000000	64.212560 
4316.000000	64.175558 
4315.000000	64.144086 
4314.000000	64.121341 
4313.000000	64.108943 
4312.000000	64.106822 
4311.000000	64.113616 
4310.000000	64.127111 
4309.000000	64.145374 
4308.000000	64.166998 
4307.000000	64.191675 
4306.000000	64.219903 
4305.000000	64.252662 
4304.000000	64.290618 
4303.000000	64.333629 
4302.000000	64.380359 
4301.000000	64.428496 
4300.000000	64.475131 
4299.000000	64.516973 
4298.000000	64.551568 
4297.000000	64.578342 
4296.000000	64.598345 
4295.000000	64.614415 
4294.000000	64.629817 
4293.000000	64.647507 
4292.000000	64.668941 
4291.000000	64.693856 
4290.000000	64.719486 
4289.000000	64.741444 
4288.000000	64.754796 
4287.000000	64.755940 
4286.000000	64.743089 
4285.000000	64.717197 
4284.000000	64.682054 
4283.000000	64.643669 
4282.000000	64.608621 
4281.000000	64.582490 
4280.000000	64.568614 
4279.000000	64.567208 
4278.000000	64.575004 
4277.000000	64.585995 
4276.000000	64.592838 
4275.000000	64.588451 
4274.000000	64.567875 
4273.000000	64.529514 
4272.000000	64.474916 
4271.000000	64.409112 
4270.000000	64.339447 
4269.000000	64.274597 
4268.000000	64.221858 
4267.000000	64.187502 
4266.000000	64.175438 
4265.000000	64.187502 
4264.000000	64.222931 
4263.000000	64.279222 
4262.000000	64.352440 
4261.000000	64.437961 
4260.000000	64.530396 
4259.000000	64.624404 
4258.000000	64.714670 
4257.000000	64.796781 
4256.000000	64.867329 
4255.000000	64.924526 
4254.000000	64.968276 
4253.000000	65.000224 
4252.000000	65.023064 
4251.000000	65.039944 
4250.000000	65.053057 
4249.000000	65.064024 
4248.000000	65.072584 
4247.000000	65.077090 
4246.000000	65.074276 
4245.000000	65.061259 
4244.000000	65.035510 
4243.000000	64.995741 
4242.000000	64.942359 
4241.000000	64.877653 
4240.000000	64.806032 
4239.000000	64.732742 
4238.000000	64.664053 
4237.000000	64.605903 
4236.000000	64.563655 
4235.000000	64.541220 
4234.000000	64.540529 
4233.000000	64.560890 
4232.000000	64.599132 
4231.000000	64.649963 
4230.000000	64.705967 
4229.000000	64.758539 
4228.000000	64.799642 
4227.000000	64.823532 
4226.000000	64.827132 
4225.000000	64.810800 
4224.000000	64.778876 
4223.000000	64.738965 
4222.000000	64.700388 
4221.000000	64.672565 
4220.000000	64.663314 
4219.000000	64.677095 
4218.000000	64.714717 
4217.000000	64.772558 
4216.000000	64.843583 
4215.000000	64.918065 
4214.000000	64.986109 
4213.000000	65.038752 
4212.000000	65.069174 
4211.000000	65.073823 
4210.000000	65.053057 
4209.000000	65.010380 
4208.000000	64.951705 
4207.000000	64.883828 
4206.000000	64.814138 
4205.000000	64.748096 
4204.000000	64.688849 
4203.000000	64.637088 
4202.000000	64.591860 
4201.000000	64.551115 
4200.000000	64.513349 
4199.000000	64.477920 
4198.000000	64.445877 
4197.000000	64.420104 
4196.000000	64.404630 
4195.000000	64.402794 
4194.000000	64.416885 
4193.000000	64.446806 
4192.000000	64.490485 
4191.000000	64.543676 
4190.000000	64.601302 
4189.000000	64.658355 
4188.000000	64.711213 
4187.000000	64.757800 
4186.000000	64.798283 
4185.000000	64.833712 
4184.000000	64.866185 
4183.000000	64.897298 
4182.000000	64.928531 
4181.000000	64.960908 
4180.000000	64.995026 
4179.000000	65.031576 
4178.000000	65.070772 
4177.000000	65.112638 
4176.000000	65.156340 
4175.000000	65.200448 
4174.000000	65.242099 
4173.000000	65.277385 
4172.000000	65.302300 
4171.000000	65.313458 
4170.000000	65.308928 
4169.000000	65.288639 
4168.000000	65.254950 
4167.000000	65.212035 
4166.000000	65.164971 
4165.000000	65.118670 
4164.000000	65.076994 
4163.000000	65.042209 
4162.000000	65.015578 
4161.000000	64.997100 
4160.000000	64.986300 
4159.000000	64.982318 
4158.000000	64.984560 
4157.000000	64.992308 
4156.000000	65.004158 
4155.000000	65.018081 
4154.000000	65.031480 
4153.000000	65.041542 
4152.000000	65.045332 
4151.000000	65.041041 
4150.000000	65.028071 
4149.000000	65.007662 
4148.000000	64.982390 
4147.000000	64.955592 
4146.000000	64.930963 
4145.000000	64.911365 
4144.000000	64.898467 
4143.000000	64.892673 
4142.000000	64.893126 
4141.000000	64.898395 
4140.000000	64.906549 
4139.000000	64.915299 
4138.000000	64.922404 
4137.000000	64.925622 
4136.000000	64.923143 
4135.000000	64.913654 
4134.000000	64.897394 
4133.000000	64.875626 
4132.000000	64.851117 
4131.000000	64.827418 
4130.000000	64.808869 
4129.000000	64.799261 
4128.000000	64.801430 
4127.000000	64.816617 
4126.000000	64.844059 
4125.000000	64.880990 
4124.000000	64.923024 
4123.000000	64.964985 
4122.000000	65.001726 
4121.000000	65.029239 
4120.000000	65.045762 
4119.000000	65.052032 
4118.000000	65.051341 
4117.000000	65.048503 
4116.000000	65.049076 
4115.000000	65.057706 
4114.000000	65.077280 
4113.000000	65.107774 
4112.000000	65.146636 
4111.000000	65.188598 
4110.000000	65.227413 
4109.000000	65.256619 
4108.000000	65.271067 
4107.000000	65.267682 
4106.000000	65.246176 
4105.000000	65.209054 
4104.000000	65.161061 
4103.000000	65.108251 
4102.000000	65.057182 
4101.000000	65.013384 
4100.000000	64.981007 
4099.000000	64.961838 
4098.000000	64.955568 
4097.000000	64.960169 
4096.000000	64.972305 
4095.000000	64.988255 
4094.000000	65.004420 
4093.000000	65.017938 
4092.000000	65.026783 
4091.000000	65.029692 
4090.000000	65.026330 
4089.000000	65.016984 
4088.000000	65.002655 
4087.000000	64.984536 
4086.000000	64.964079 
4085.000000	64.942693 
4084.000000	64.921522 
4083.000000	64.901733 
4082.000000	64.884161 
4081.000000	64.869594 
4080.000000	64.858675 
4079.000000	64.851713 
4078.000000	64.848494 
4077.000000	64.848446 
4076.000000	64.850330 
4075.000000	64.852261 
4074.000000	64.852333 
4073.000000	64.848494 
4072.000000	64.839744 
4071.000000	64.826202 
4070.000000	64.809751 
4069.000000	64.793419 
4068.000000	64.781165 
4067.000000	64.776968 
4066.000000	64.783811 
4065.000000	64.802694 
4064.000000	64.832353 
4063.000000	64.869379 
4062.000000	64.909005 
4061.000000	64.946079 
4060.000000	64.976334 
4059.000000	64.997053 
4058.000000	65.007448 
4057.000000	65.008115 
4056.000000	65.000867 
4055.000000	64.987635 
4054.000000	64.969849 
4053.000000	64.947986 
4052.000000	64.922070 
4051.000000	64.891982 
4050.000000	64.858078 
4049.000000	64.821743 
4048.000000	64.785933 
4047.000000	64.754152 
4046.000000	64.730024 
4045.000000	64.716100 
4044.000000	64.713144 
4043.000000	64.719986 
4042.000000	64.733529 
4041.000000	64.749574 
4040.000000	64.763736 
4039.000000	64.772677 
4038.000000	64.774751 
4037.000000	64.770340 
4036.000000	64.761686 
4035.000000	64.752459 
4034.000000	64.746546 
4033.000000	64.747285 
4032.000000	64.756345 
4031.000000	64.773511 
4030.000000	64.796376 
4029.000000	64.821195 
4028.000000	64.843678 
4027.000000	64.860177 
4026.000000	64.868712 
4025.000000	64.869141 
4024.000000	64.863562 
4023.000000	64.855480 
4022.000000	64.849066 
4021.000000	64.848065 
4020.000000	64.854836 
4019.000000	64.869594 
4018.000000	64.890360 
4017.000000	64.913797 
4016.000000	64.935445 
4015.000000	64.951252 
4014.000000	64.958262 
4013.000000	64.955449 
4012.000000	64.943623 
4011.000000	64.925312 
4010.000000	64.903926 
4009.000000	64.883160 
4008.000000	64.866518 
4007.000000	64.856791 
4006.000000	64.855647 
4005.000000	64.863443 
4004.000000	64.879202 
4003.000000	64.900898 
4002.000000	64.925527 
4001.000000	64.950108 
4000.000000	64.971637 
3999.000000	64.988064 
3998.000000	64.998245 
3997.000000	65.002250 
3996.000000	65.001034 
3995.000000	64.996242 
3994.000000	64.989662 
3993.000000	64.982938 
3992.000000	64.977097 
3991.000000	64.972710 
3990.000000	64.969849 
3989.000000	64.968252 
3988.000000	64.967465 
3987.000000	64.966869 
3986.000000	64.965939 
3985.000000	64.963912 
3984.000000	64.959907 
3983.000000	64.952635 
3982.000000	64.940929 
3981.000000	64.924168 
3980.000000	64.902663 
3979.000000	64.877581 
3978.000000	64.850974 
3977.000000	64.825701 
3976.000000	64.804625 
3975.000000	64.789986 
3974.000000	64.783000 
3973.000000	64.783787 
3972.000000	64.791417 
3971.000000	64.804220 
3970.000000	64.820408 
3969.000000	64.838218 
3968.000000	64.856433 
3967.000000	64.874339 
3966.000000	64.891695 
3965.000000	64.908313 
3964.000000	64.924144 
3963.000000	64.939022 
3962.000000	64.952564 
3961.000000	64.964294 
3960.000000	64.973664 
3959.000000	64.980292 
3958.000000	64.983487 
3957.000000	64.982295 
3956.000000	64.975190 
3955.000000	64.960289 
3954.000000	64.935517 
3953.000000	64.899086 
3952.000000	64.850258 
3951.000000	64.789795 
3950.000000	64.720344 
3949.000000	64.646673 
3948.000000	64.574813 
3947.000000	64.511799 
3946.000000	64.463853 
3945.000000	64.436078 
3944.000000	64.430761 
3943.000000	64.447808 
3942.000000	64.484000 
3941.000000	64.534378 
3940.000000	64.592385 
3939.000000	64.651966 
3938.000000	64.707994 
3937.000000	64.757275 
3936.000000	64.797854 
3935.000000	64.829540 
3934.000000	64.853048 
3933.000000	64.869308 
3932.000000	64.879012 
3931.000000	64.882302 
3930.000000	64.879035 
3929.000000	64.869260 
3928.000000	64.853477 
3927.000000	64.832592 
3926.000000	64.808130 
3925.000000	64.782023 
3924.000000	64.756631 
3923.000000	64.733886 
3922.000000	64.715242 
3921.000000	64.701771 
3920.000000	64.693975 
3919.000000	64.692234 
3918.000000	64.696359 
3917.000000	64.706182 
3916.000000	64.720821 
3915.000000	64.738774 
3914.000000	64.757466 
3913.000000	64.773774 
3912.000000	64.784264 
3911.000000	64.785456 
3910.000000	64.775133 
3909.000000	64.752674 
3908.000000	64.719533 
3907.000000	64.679312 
3906.000000	64.637231 
3905.000000	64.599251 
3904.000000	64.571166 
3903.000000	64.557600 
3902.000000	64.561367 
3901.000000	64.582920 
3900.000000	64.620757 
3899.000000	64.671468 
3898.000000	64.730525 
3897.000000	64.792633 
3896.000000	64.851999 
3895.000000	64.902973 
3894.000000	64.940619 
3893.000000	64.961361 
3892.000000	64.963150 
3891.000000	64.946269 
3890.000000	64.913630 
3889.000000	64.870262 
3888.000000	64.822888 
3887.000000	64.778780 
3886.000000	64.744758 
3885.000000	64.726042 
3884.000000	64.725518 
3883.000000	64.743447 
3882.000000	64.777469 
3881.000000	64.823698 
3880.000000	64.877605 
3879.000000	64.934492 
3878.000000	64.990115 
3877.000000	65.040993 
3876.000000	65.084481 
3875.000000	65.118551 
3874.000000	65.142035 
3873.000000	65.154528 
3872.000000	65.156960 
3871.000000	65.151596 
3870.000000	65.141916 
3869.000000	65.132331 
3868.000000	65.126991 
3867.000000	65.129256 
3866.000000	65.140700 
3865.000000	65.161156 
3864.000000	65.188121 
3863.000000	65.217804 
3862.000000	65.245580 
3861.000000	65.267539 
3860.000000	65.280556 
3859.000000	65.283250 
3858.000000	65.275359 
3857.000000	65.257692 
3856.000000	65.231347 
3855.000000	65.197467 
3854.000000	65.157032 
3853.000000	65.110778 
3852.000000	65.059900 
3851.000000	65.006375 
3850.000000	64.953017 
3849.000000	64.903330 
3848.000000	64.860987 
3847.000000	64.829039 
3846.000000	64.809298 
3845.000000	64.802408 
3844.000000	64.807033 
3843.000000	64.820480 
3842.000000	64.839601 
3841.000000	64.861345 
3840.000000	64.883232 
3839.000000	64.903402 
3838.000000	64.920902 
3837.000000	64.935302 
3836.000000	64.946055 
3835.000000	64.952421 
3834.000000	64.953470 
3833.000000	64.948487 
3832.000000	64.937233 
3831.000000	64.920520 
3830.000000	64.900565 
3829.000000	64.880561 
3828.000000	64.864516 
3827.000000	64.856171 
3826.000000	64.858055 
3825.000000	64.870929 
3824.000000	64.893651 
3823.000000	64.923334 
3822.000000	64.955997 
3821.000000	64.987611 
3820.000000	65.014767 
3819.000000	65.035104 
3818.000000	65.047430 
3817.000000	65.051674 
3816.000000	65.048480 
3815.000000	65.038728 
3814.000000	65.023016 
3813.000000	65.002059 
3812.000000	64.976453 
3811.000000	64.946985 
3810.000000	64.914870 
3809.000000	64.881825 
3808.000000	64.850163 
3807.000000	64.822530 
3806.000000	64.801740 
3805.000000	64.790105 
3804.000000	64.789676 
3803.000000	64.801573 
3802.000000	64.825844 
3801.000000	64.861392 
3800.000000	64.905476 
3799.000000	64.953899 
3798.000000	65.001320 
3797.000000	65.041899 
3796.000000	65.070462 
3795.000000	65.083241 
3794.000000	65.078902 
3793.000000	65.058755 
3792.000000	65.026712 
3791.000000	64.988374 
3790.000000	64.949727 
3789.000000	64.916062 
3788.000000	64.891147 
3787.000000	64.876627 
3786.000000	64.872145 
3785.000000	64.875674 
3784.000000	64.884662 
3783.000000	64.896583 
3782.000000	64.909672 
3781.000000	64.922857 
3780.000000	64.935445 
3779.000000	64.947175 
3778.000000	64.957475 
3777.000000	64.966058 
3776.000000	64.972615 
3775.000000	64.977502 
3774.000000	64.981794 
3773.000000	64.986991 
3772.000000	64.994692 
3771.000000	65.005946 
3770.000000	65.020775 
3769.000000	65.037918 
3768.000000	65.054917 
3767.000000	65.068578 
3766.000000	65.075540 
3765.000000	65.073299 
3764.000000	65.060639 
3763.000000	65.038061 
3762.000000	65.007710 
3761.000000	64.972591 
3760.000000	64.935994 
3759.000000	64.901137 
3758.000000	64.870333 
3757.000000	64.844846 
3756.000000	64.824819 
3755.000000	64.809966 
3754.000000	64.799523 
3753.000000	64.792394 
3752.000000	64.787602 
3751.000000	64.784169 
3750.000000	64.781665 
3749.000000	64.779973 
3748.000000	64.779448 
3747.000000	64.780616 
3746.000000	64.784049 
3745.000000	64.789962 
3744.000000	64.798140 
3743.000000	64.807772 
3742.000000	64.817667 
3741.000000	64.826726 
3740.000000	64.834117 
3739.000000	64.839696 
3738.000000	64.844107 
3737.000000	64.848685 
3736.000000	64.855194 
3735.000000	64.865255 
3734.000000	64.879775 
3733.000000	64.898753 
3732.000000	64.921236 
3731.000000	64.945697 
3730.000000	64.970517 
3729.000000	64.994335 
3728.000000	65.016674 
3727.000000	65.037703 
3726.000000	65.057826 
3725.000000	65.077686 
3724.000000	65.097355 
3723.000000	65.116524 
3722.000000	65.134525 
3721.000000	65.150451 
3720.000000	65.163683 
3719.000000	65.173935 
3718.000000	65.181493 
3717.000000	65.186882 
3716.000000	65.190744 
3715.000000	65.193581 
3714.000000	65.195679 
3713.000000	65.197062 
3712.000000	65.197706 
3711.000000	65.198230 
3710.000000	65.199780 
3709.000000	65.204191 
3708.000000	65.213274 
3707.000000	65.228533 
3706.000000	65.250229 
3705.000000	65.276932 
3704.000000	65.305566 
3703.000000	65.331983 
3702.000000	65.351653 
3701.000000	65.360856 
3700.000000	65.357327 
3699.000000	65.341114 
3698.000000	65.314316 
3697.000000	65.280747 
3696.000000	65.244936 
3695.000000	65.211534 
3694.000000	65.184211 
3693.000000	65.165066 
3692.000000	65.154504 
3691.000000	65.151548 
3690.000000	65.153837 
3689.000000	65.158390 
3688.000000	65.161943 
3687.000000	65.161418 
3686.000000	65.154242 
3685.000000	65.138721 
3684.000000	65.114235 
3683.000000	65.081691 
3682.000000	65.043520 
3681.000000	65.003228 
3680.000000	64.964842 
3679.000000	64.932203 
3678.000000	64.908266 
3677.000000	64.894676 
3676.000000	64.891529 
3675.000000	64.897465 
3674.000000	64.909839 
3673.000000	64.925861 
3672.000000	64.942884 
3671.000000	64.959168 
3670.000000	64.973640 
3669.000000	64.986157 
3668.000000	64.996743 
3667.000000	65.005707 
3666.000000	65.012931 
3665.000000	65.017986 
3664.000000	65.019822 
3663.000000	65.017437 
3662.000000	65.010309 
3661.000000	64.998412 
3660.000000	64.982461 
3659.000000	64.963889 
3658.000000	64.944982 
3657.000000	64.928674 
3656.000000	64.918112 
3655.000000	64.916253 
3654.000000	64.925122 
3653.000000	64.945244 
3652.000000	64.975166 
3651.000000	65.011572 
3650.000000	65.049576 
3649.000000	65.083336 
3648.000000	65.107440 
3647.000000	65.117812 
3646.000000	65.112876 
3645.000000	65.093684 
3644.000000	65.063929 
3643.000000	65.029287 
3642.000000	64.996266 
3641.000000	64.971041 
3640.000000	64.958000 
3639.000000	64.959335 
3638.000000	64.974427 
3637.000000	65.000295 
3636.000000	65.032267 
3635.000000	65.065073 
3634.000000	65.093684 
3633.000000	65.114235 
3632.000000	65.124392 
3631.000000	65.123438 
3630.000000	65.112090 
3629.000000	65.092110 
3628.000000	65.066051 
3627.000000	65.036630 
3626.000000	65.006494 
3625.000000	64.977860 
3624.000000	64.952731 
3623.000000	64.932417 
3622.000000	64.917826 
3621.000000	64.909267 
3620.000000	64.906120 
3619.000000	64.907407 
3618.000000	64.911603 
3617.000000	64.917421 
3616.000000	64.923262 
3615.000000	64.928317 
3614.000000	64.932560 
3613.000000	64.936947 
3612.000000	64.942789 
3611.000000	64.951634 
3610.000000	64.964532 
3609.000000	64.981698 
3608.000000	65.002441 
3607.000000	65.025305 
3606.000000	65.048456 
3605.000000	65.070366 
3604.000000	65.090107 
3603.000000	65.107798 
3602.000000	65.124368 
3601.000000	65.141320 
3600.000000	65.159964 
3599.000000	65.181016 
3598.000000	65.203809 
3597.000000	65.226817 
3596.000000	65.247321 
3595.000000	65.262150 
3594.000000	65.268182 
3593.000000	65.263390 
3592.000000	65.247106 
3591.000000	65.220451 
3590.000000	65.185785 
3589.000000	65.146470 
3588.000000	65.105986 
3587.000000	65.067696 
3586.000000	65.033841 
3585.000000	65.005493 
3584.000000	64.982724 
3583.000000	64.965009 
3582.000000	64.951562 
3581.000000	64.941453 
3580.000000	64.934325 
3579.000000	64.930224 
3578.000000	64.929485 
3577.000000	64.932346 
3576.000000	64.938879 
3575.000000	64.948940 
3574.000000	64.961934 
3573.000000	64.976954 
3572.000000	64.993143 
3571.000000	65.009641 
3570.000000	65.025687 
3569.000000	65.040326 
3568.000000	65.052437 
3567.000000	65.060305 
3566.000000	65.062046 
3565.000000	65.055632 
3564.000000	65.039682 
3563.000000	65.013694 
3562.000000	64.978766 
3561.000000	64.937019 
3560.000000	64.891552 
3559.000000	64.845776 
3558.000000	64.802908 
3557.000000	64.765524 
3556.000000	64.734959 
3555.000000	64.711594 
3554.000000	64.695167 
3553.000000	64.685010 
3552.000000	64.680576 
3551.000000	64.681434 
3550.000000	64.687323 
3549.000000	64.698219 
3548.000000	64.713835 
3547.000000	64.733433 
3546.000000	64.755749 
3545.000000	64.778685 
3544.000000	64.799952 
3543.000000	64.817237 
3542.000000	64.828848 
3541.000000	64.833807 
3540.000000	64.832258 
3539.000000	64.825487 
3538.000000	64.815545 
3537.000000	64.805173 
3536.000000	64.796972 
3535.000000	64.793348 
3534.000000	64.795684 
3533.000000	64.804100 
3532.000000	64.817523 
3531.000000	64.834165 
3530.000000	64.851522 
3529.000000	64.866900 
3528.000000	64.878129 
3527.000000	64.883971 
3526.000000	64.884281 
3525.000000	64.879751 
3524.000000	64.872002 
3523.000000	64.862966 
3522.000000	64.854550 
3521.000000	64.848279 
3520.000000	64.845132 
3519.000000	64.845299 
3518.000000	64.848685 
3517.000000	64.854884 
3516.000000	64.863133 
3515.000000	64.872598 
3514.000000	64.882469 
3513.000000	64.891862 
3512.000000	64.899897 
3511.000000	64.905929 
3510.000000	64.909815 
3509.000000	64.912295 
3508.000000	64.914655 
3507.000000	64.918661 
3506.000000	64.926266 
3505.000000	64.938759 
3504.000000	64.956688 
3503.000000	64.978837 
3502.000000	65.002727 
3501.000000	65.024709 
3500.000000	65.040802 
3499.000000	65.047693 
3498.000000	65.043449 
3497.000000	65.028142 
3496.000000	65.003776 
3495.000000	64.973807 
3494.000000	64.942479 
3493.000000	64.913582 
3492.000000	64.889717 
3491.000000	64.871811 
3490.000000	64.859032 
3489.000000	64.849400 
3488.000000	64.840602 
3487.000000	64.830565 
3486.000000	64.818525 
3485.000000	64.804720 
3484.000000	64.790821 
3483.000000	64.779043 
3482.000000	64.771914 
3481.000000	64.770960 
3480.000000	64.777064 
3479.000000	64.789986 
3478.000000	64.808654 
3477.000000	64.831423 
3476.000000	64.856553 
3475.000000	64.882540 
3474.000000	64.908170 
3473.000000	64.932489 
3472.000000	64.954733 
3471.000000	64.974141 
3470.000000	64.989852 
3469.000000	65.000939 
3468.000000	65.006804 
3467.000000	65.007138 
3466.000000	65.002298 
3465.000000	64.993262 
3464.000000	64.981532 
3463.000000	64.968752 
3462.000000	64.956808 
3461.000000	64.947009 
3460.000000	64.940166 
3459.000000	64.936208 
3458.000000	64.934539 
3457.000000	64.934062 
3456.000000	64.933371 
3455.000000	64.931225 
3454.000000	64.926576 
3453.000000	64.919161 
3452.000000	64.909386 
3451.000000	64.898419 
3450.000000	64.887833 
3449.000000	64.879465 
3448.000000	64.875078 
3447.000000	64.875745 
3446.000000	64.881753 
3445.000000	64.892435 
3444.000000	64.906215 
3443.000000	64.920878 
3442.000000	64.933872 
3441.000000	64.943122 
3440.000000	64.947104 
3439.000000	64.945244 
3438.000000	64.937829 
3437.000000	64.925694 
3436.000000	64.910197 
3435.000000	64.892625 
3434.000000	64.874100 
3433.000000	64.855647 
3432.000000	64.838075 
3431.000000	64.822077 
3430.000000	64.808440 
3429.000000	64.797830 
3428.000000	64.790964 
3427.000000	64.788198 
3426.000000	64.789557 
3425.000000	64.794373 
3424.000000	64.801621 
3423.000000	64.809918 
3422.000000	64.818191 
3421.000000	64.825630 
3420.000000	64.832186 
3419.000000	64.838266 
3418.000000	64.844536 
3417.000000	64.851498 
3416.000000	64.859127 
3415.000000	64.866971 
3414.000000	64.874100 
3413.000000	64.879298 
3412.000000	64.881634 
3411.000000	64.880609 
3410.000000	64.876389 
3409.000000	64.869570 
3408.000000	64.861011 
3407.000000	64.851570 
3406.000000	64.841818 
3405.000000	64.832258 
3404.000000	64.823293 
3403.000000	64.815402 
3402.000000	64.809560 
3401.000000	64.807033 
3400.000000	64.809274 
3399.000000	64.817142 
3398.000000	64.830660 
3397.000000	64.848589 
3396.000000	64.868593 
3395.000000	64.887714 
3394.000000	64.902997 
3393.000000	64.912533 
3392.000000	64.915895 
3391.000000	64.914226 
3390.000000	64.910006 
3389.000000	64.906048 
3388.000000	64.904856 
3387.000000	64.907574 
3386.000000	64.913868 
3385.000000	64.922142 
3384.000000	64.929938 
3383.000000	64.934921 
3382.000000	64.935445 
3381.000000	64.931416 
3380.000000	64.923644 
3379.000000	64.913582 
3378.000000	64.902615 
3377.000000	64.891338 
3376.000000	64.879393 
3375.000000	64.865541 
3374.000000	64.848518 
3373.000000	64.827537 
3372.000000	64.803409 
3371.000000	64.778518 
3370.000000	64.756727 
3369.000000	64.742374 
3368.000000	64.739203 
3367.000000	64.749145 
3366.000000	64.771509 
3365.000000	64.802813 
3364.000000	64.837479 
3363.000000	64.868927 
3362.000000	64.891147 
3361.000000	64.900135 
3360.000000	64.894986 
3359.000000	64.877939 
3358.000000	64.853906 
3357.000000	64.829063 
3356.000000	64.809513 
3355.000000	64.799666 
3354.000000	64.801573 
3353.000000	64.814424 
3352.000000	64.835238 
3351.000000	64.859461 
3350.000000	64.882564 
3349.000000	64.900875 
3348.000000	64.912414 
3347.000000	64.916849 
3346.000000	64.915299 
3345.000000	64.909815 
3344.000000	64.902377 
3343.000000	64.894509 
3342.000000	64.886927 
3341.000000	64.879798 
3340.000000	64.872932 
3339.000000	64.866232 
3338.000000	64.860105 
3337.000000	64.855074 
3336.000000	64.851593 
3335.000000	64.849877 
3334.000000	64.849543 
3333.000000	64.849424 
3332.000000	64.848113 
3331.000000	64.844012 
3330.000000	64.836311 
3329.000000	64.825153 
3328.000000	64.812159 
3327.000000	64.799714 
3326.000000	64.790916 
3325.000000	64.788532 
3324.000000	64.794373 
3323.000000	64.808797 
3322.000000	64.830350 
3321.000000	64.856338 
3320.000000	64.882946 
3319.000000	64.906311 
3318.000000	64.923095 
3317.000000	64.931178 
3316.000000	64.929986 
3315.000000	64.920330 
3314.000000	64.904356 
3313.000000	64.885115 
3312.000000	64.866185 
3311.000000	64.850950 
3310.000000	64.842510 
3309.000000	64.843082 
3308.000000	64.853715 
3307.000000	64.874243 
3306.000000	64.903068 
3305.000000	64.937138 
3304.000000	64.972305 
3303.000000	65.004110 
3302.000000	65.028429 
3301.000000	65.042233 
3300.000000	65.044307 
3299.000000	65.035176 
3298.000000	65.017294 
3297.000000	64.994072 
3296.000000	64.969611 
3295.000000	64.947390 
3294.000000	64.930105 
3293.000000	64.918661 
3292.000000	64.913010 
3291.000000	64.911413 
3290.000000	64.911437 
3289.000000	64.910387 
3288.000000	64.905977 
3287.000000	64.897108 
3286.000000	64.883875 
3285.000000	64.867806 
3284.000000	64.851331 
3283.000000	64.837479 
3282.000000	64.828777 
3281.000000	64.826917 
3280.000000	64.832234 
3279.000000	64.843487 
3278.000000	64.858198 
3277.000000	64.873242 
3276.000000	64.885544 
3275.000000	64.892697 
3274.000000	64.893674 
3273.000000	64.888691 
3272.000000	64.879322 
3271.000000	64.867877 
3270.000000	64.857029 
3269.000000	64.848899 
3268.000000	64.844942 
3267.000000	64.845681 
3266.000000	64.851021 
3265.000000	64.860463 
3264.000000	64.873385 
3263.000000	64.889311 
3262.000000	64.908099 
3261.000000	64.929652 
3260.000000	64.953994 
3259.000000	64.980864 
3258.000000	65.009713 
3257.000000	65.039157 
3256.000000	65.067362 
3255.000000	65.092110 
3254.000000	65.111160 
3253.000000	65.122771 
3252.000000	65.125894 
3251.000000	65.120482 
3250.000000	65.107560 
3249.000000	65.088891 
3248.000000	65.066742 
3247.000000	65.043568 
3246.000000	65.021467 
3245.000000	65.002226 
3244.000000	64.987063 
3243.000000	64.976763 
3242.000000	64.971637 
3241.000000	64.971518 
3240.000000	64.975881 
3239.000000	64.983701 
3238.000000	64.993453 
3237.000000	65.003108 
3236.000000	65.010094 
3235.000000	65.011978 
3234.000000	65.006613 
3233.000000	64.993071 
3232.000000	64.971852 
3231.000000	64.945030 
3230.000000	64.915871 
3229.000000	64.888262 
3228.000000	64.865899 
3227.000000	64.851355 
3226.000000	64.845657 
3225.000000	64.848041 
3224.000000	64.856362 
3223.000000	64.867663 
3222.000000	64.878916 
3221.000000	64.887905 
3220.000000	64.893579 
3219.000000	64.895749 
3218.000000	64.895248 
3217.000000	64.893007 
3216.000000	64.889883 
3215.000000	64.886164 
3214.000000	64.881873 
3213.000000	64.876818 
3212.000000	64.870929 
3211.000000	64.864945 
3210.000000	64.859914 
3209.000000	64.856982 
3208.000000	64.857053 
3207.000000	64.860463 
3206.000000	64.866900 
3205.000000	64.875125 
3204.000000	64.883661 
3203.000000	64.890837 
3202.000000	64.895415 
3201.000000	64.896798 
3200.000000	64.895153 
3199.000000	64.891266 
3198.000000	64.885973 
3197.000000	64.880084 
3196.000000	64.874124 
3195.000000	64.868092 
3194.000000	64.861392 
3193.000000	64.853119 
3192.000000	64.842581 
3191.000000	64.829468 
3190.000000	64.813780 
3189.000000	64.796447 
3188.000000	64.778590 
3187.000000	64.762425 
3186.000000	64.750313 
3185.000000	64.744663 
3184.000000	64.747548 
3183.000000	64.759969 
3182.000000	64.781546 
3181.000000	64.810228 
3180.000000	64.842367 
3179.000000	64.873290 
3178.000000	64.898085 
3177.000000	64.912390 
3176.000000	64.913535 
3175.000000	64.900922 
3174.000000	64.876103 
3173.000000	64.842724 
3172.000000	64.805746 
3171.000000	64.770555 
3170.000000	64.742112 
3169.000000	64.724230 
3168.000000	64.719080 
3167.000000	64.727020 
3166.000000	64.746832 
3165.000000	64.776110 
3164.000000	64.811491 
3163.000000	64.848899 
3162.000000	64.884138 
3161.000000	64.913058 
3160.000000	64.932250 
3159.000000	64.939260 
3158.000000	64.933419 
3157.000000	64.915680 
3156.000000	64.888620 
3155.000000	64.856100 
3154.000000	64.822673 
3153.000000	64.792823 
3152.000000	64.770340 
3151.000000	64.757776 
3150.000000	64.756035 
3149.000000	64.764356 
3148.000000	64.780688 
3147.000000	64.802026 
3146.000000	64.824914 
3145.000000	64.846301 
3144.000000	64.863991 
3143.000000	64.877128 
3142.000000	64.886045 
3141.000000	64.892005 
3140.000000	64.896726 
3139.000000	64.901661 
3138.000000	64.907932 
3137.000000	64.915537 
3136.000000	64.923858 
3135.000000	64.931416 
3134.000000	64.936804 
3133.000000	64.938640 
3132.000000	64.936423 
3131.000000	64.930248 
3130.000000	64.920973 
3129.000000	64.909696 
3128.000000	64.897394 
3127.000000	64.884710 
3126.000000	64.871692 
3125.000000	64.858412 
3124.000000	64.844870 
3123.000000	64.831614 
3122.000000	64.819741 
3121.000000	64.810800 
3120.000000	64.806413 
3119.000000	64.807677 
3118.000000	64.814877 
3117.000000	64.827346 
3116.000000	64.843368 
3115.000000	64.860391 
3114.000000	64.875674 
3113.000000	64.886808 
3112.000000	64.892005 
3111.000000	64.890432 
3110.000000	64.882373 
3109.000000	64.869236 
3108.000000	64.853215 
3107.000000	64.836907 
3106.000000	64.823007 
3105.000000	64.813899 
3104.000000	64.811325 
3103.000000	64.816164 
3102.000000	64.828085 
3101.000000	64.845705 
3100.000000	64.866709 
3099.000000	64.888167 
3098.000000	64.907145 
3097.000000	64.921116 
3096.000000	64.928579 
3095.000000	64.929270 
3094.000000	64.924001 
3093.000000	64.914226 
3092.000000	64.901685 
3091.000000	64.888048 
3090.000000	64.874601 
3089.000000	64.862012 
3088.000000	64.850592 
3087.000000	64.840340 
3086.000000	64.831256 
3085.000000	64.823555 
3084.000000	64.817547 
3083.000000	64.813709 
3082.000000	64.812421 
3081.000000	64.813899 
3080.000000	64.817833 
3079.000000	64.823532 
3078.000000	64.829730 
3077.000000	64.835000 
3076.000000	64.837980 
3075.000000	64.837503 
3074.000000	64.832949 
3073.000000	64.824342 
3072.000000	64.812135 
3071.000000	64.797520 
3070.000000	64.782142 
3069.000000	64.767932 
3068.000000	64.756584 
3067.000000	64.749598 
3066.000000	64.748024 
3065.000000	64.752054 
3064.000000	64.761137 
3063.000000	64.773941 
3062.000000	64.788794 
3061.000000	64.803838 
3060.000000	64.817571 
3059.000000	64.829134 
3058.000000	64.838552 
3057.000000	64.846801 
3056.000000	64.855432 
3055.000000	64.866375 
3054.000000	64.880967 
3053.000000	64.899921 
3052.000000	64.922666 
3051.000000	64.947366 
3050.000000	64.971041 
3049.000000	64.990472 
3048.000000	65.002489 
3047.000000	65.005040 
3046.000000	64.997100 
3045.000000	64.979386 
3044.000000	64.953637 
3043.000000	64.922308 
3042.000000	64.887881 
3041.000000	64.852547 
3040.000000	64.818024 
3039.000000	64.785575 
3038.000000	64.756131 
3037.000000	64.730691 
3036.000000	64.710378 
3035.000000	64.696359 
3034.000000	64.689588 
3033.000000	64.690613 
3032.000000	64.699125 
3031.000000	64.714026 
3030.000000	64.733123 
3029.000000	64.753675 
3028.000000	64.773082 
3027.000000	64.789199 
3026.000000	64.800453 
3025.000000	64.806342 
3024.000000	64.807081 
3023.000000	64.803481 
3022.000000	64.796495 
3021.000000	64.787101 
3020.000000	64.776372 
3019.000000	64.765191 
3018.000000	64.754509 
3017.000000	64.745235 
3016.000000	64.738202 
3015.000000	64.734077 
3014.000000	64.733290 
3013.000000	64.735817 
3012.000000	64.741396 
3011.000000	64.749622 
3010.000000	64.759945 
3009.000000	64.771676 
3008.000000	64.784002 
3007.000000	64.796185 
3006.000000	64.807462 
3005.000000	64.817047 
3004.000000	64.824032 
3003.000000	64.827537 
3002.000000	64.826774 
3001.000000	64.821267 
3000.000000	64.810824 
2999.000000	64.795804 
2998.000000	64.777040 
2997.000000	64.755940 
2996.000000	64.734339 
2995.000000	64.713907 
2994.000000	64.696264 
2993.000000	64.682674 
2992.000000	64.673852 
2991.000000	64.669775 
2990.000000	64.669942 
2989.000000	64.673304 
2988.000000	64.678788 
2987.000000	64.685273 
2986.000000	64.692139 
2985.000000	64.699316 
2984.000000	64.707136 
2983.000000	64.716243 
2982.000000	64.727067 
2981.000000	64.739561 
2980.000000	64.753007 
2979.000000	64.766025 
2978.000000	64.776825 
2977.000000	64.783573 
2976.000000	64.785194 
2975.000000	64.781332 
2974.000000	64.772582 
2973.000000	64.760231 
2972.000000	64.746165 
2971.000000	64.732193 
2970.000000	64.719581 
2969.000000	64.708876 
2968.000000	64.699792 
2967.000000	64.691448 
2966.000000	64.682865 
2965.000000	64.673137 
2964.000000	64.661979 
2963.000000	64.649605 
2962.000000	64.636588 
2961.000000	64.623689 
2960.000000	64.611411 
2959.000000	64.600038 
2958.000000	64.589428 
2957.000000	64.579176 
2956.000000	64.568996 
2955.000000	64.559125 
2954.000000	64.550590 
2953.000000	64.544868 
2952.000000	64.544034 
2951.000000	64.550256 
2950.000000	64.565277 
2949.000000	64.589691 
2948.000000	64.622712 
2947.000000	64.662098 
2946.000000	64.704275 
2945.000000	64.744925 
2944.000000	64.779639 
2943.000000	64.804744 
2942.000000	64.818024 
2941.000000	64.818978 
2940.000000	64.808773 
2939.000000	64.789891 
2938.000000	64.765620 
2937.000000	64.739632 
2936.000000	64.715075 
2935.000000	64.694261 
2934.000000	64.678406 
2933.000000	64.667797 
2932.000000	64.661884 
2931.000000	64.659690 
2930.000000	64.660000 
2929.000000	64.661669 
2928.000000	64.663720 
2927.000000	64.665508 
2926.000000	64.666438 
2925.000000	64.666128 
2924.000000	64.664411 
2923.000000	64.661288 
2922.000000	64.656829 
2921.000000	64.650964 
2920.000000	64.643645 
2919.000000	64.634919 
2918.000000	64.624619 
2917.000000	64.613008 
2916.000000	64.600753 
2915.000000	64.589262 
2914.000000	64.580249 
2913.000000	64.575862 
2912.000000	64.578270 
2911.000000	64.589071 
2910.000000	64.608693 
2909.000000	64.636158 
2908.000000	64.668941 
2907.000000	64.703345 
2906.000000	64.735221 
2905.000000	64.760661 
2904.000000	64.776778 
2903.000000	64.782309 
2902.000000	64.777874 
2901.000000	64.765405 
2900.000000	64.747691 
2899.000000	64.727568 
2898.000000	64.707112 
2897.000000	64.687466 
2896.000000	64.668583 
2895.000000	64.649796 
2894.000000	64.630150 
2893.000000	64.609241 
2892.000000	64.587259 
2891.000000	64.565253 
2890.000000	64.545130 
2889.000000	64.528870 
2888.000000	64.518475 
2887.000000	64.514875 
2886.000000	64.518332 
2885.000000	64.527797 
2884.000000	64.541721 
2883.000000	64.557909 
2882.000000	64.574360 
2881.000000	64.589548 
2880.000000	64.602613 
2879.000000	64.613389 
2878.000000	64.622163 
2877.000000	64.629483 
2876.000000	64.635825 
2875.000000	64.641451 
2874.000000	64.646506 
2873.000000	64.650893 
2872.000000	64.654541 
2871.000000	64.657139 
2870.000000	64.658474 
2869.000000	64.658355 
2868.000000	64.656829 
2867.000000	64.653944 
2866.000000	64.650011 
2865.000000	64.645552 
2864.000000	64.641356 
2863.000000	64.638352 
2862.000000	64.637088 
2861.000000	64.637637 
2860.000000	64.639639 
2859.000000	64.642047 
2858.000000	64.643287 
2857.000000	64.641785 
2856.000000	64.636325 
2855.000000	64.626693 
2854.000000	64.613723 
2853.000000	64.599299 
2852.000000	64.586091 
2851.000000	64.576649 
2850.000000	64.572644 
2849.000000	64.574384 
2848.000000	64.580655 
2847.000000	64.588952 
2846.000000	64.596199 
2845.000000	64.599609 
2844.000000	64.597392 
2843.000000	64.589166 
2842.000000	64.576148 
2841.000000	64.560651 
2840.000000	64.545607 
2839.000000	64.534068 
2838.000000	64.528584 
2837.000000	64.530444 
2836.000000	64.539742 
2835.000000	64.555358 
2834.000000	64.575219 
2833.000000	64.596724 
2832.000000	64.617180 
2831.000000	64.634299 
2830.000000	64.646601 
2829.000000	64.653468 
2828.000000	64.655566 
2827.000000	64.654612 
2826.000000	64.653062 
2825.000000	64.653635 
2824.000000	64.658570 
2823.000000	64.669203 
2822.000000	64.685583 
2821.000000	64.706397 
2820.000000	64.729428 
2819.000000	64.751768 
2818.000000	64.770722 
2817.000000	64.784193 
2816.000000	64.790868 
2815.000000	64.790296 
2814.000000	64.782977 
2813.000000	64.769840 
2812.000000	64.752388 
2811.000000	64.732050 
2810.000000	64.710593 
2809.000000	64.689421 
2808.000000	64.669942 
2807.000000	64.653015 
2806.000000	64.639449 
2805.000000	64.629435 
2804.000000	64.622926 
2803.000000	64.619565 
2802.000000	64.618635 
2801.000000	64.619565 
2800.000000	64.621973 
2799.000000	64.625597 
2798.000000	64.630460 
2797.000000	64.636611 
2796.000000	64.644026 
2795.000000	64.652419 
2794.000000	64.661216 
2793.000000	64.669609 
2792.000000	64.676809 
2791.000000	64.682221 
2790.000000	64.685821 
2789.000000	64.688134 
2788.000000	64.690160 
2787.000000	64.693117 
2786.000000	64.698219 
2785.000000	64.706349 
2784.000000	64.717721 
2783.000000	64.731860 
2782.000000	64.747691 
2781.000000	64.763832 
2780.000000	64.778614 
2779.000000	64.790797 
2778.000000	64.799475 
2777.000000	64.804100 
2776.000000	64.804553 
2775.000000	64.801144 
2774.000000	64.794611 
2773.000000	64.785933 
2772.000000	64.776325 
2771.000000	64.767169 
2770.000000	64.759445 
2769.000000	64.753913 
2768.000000	64.750695 
2767.000000	64.749264 
2766.000000	64.748620 
2765.000000	64.747524 
2764.000000	64.744782 
2763.000000	64.739608 
2762.000000	64.731717 
2761.000000	64.721560 
2760.000000	64.709997 
2759.000000	64.698123 
2758.000000	64.687085 
2757.000000	64.677643 
2756.000000	64.670109 
2755.000000	64.664459 
2754.000000	64.660286 
2753.000000	64.657115 
2752.000000	64.654517 
2751.000000	64.652347 
2750.000000	64.650678 
2749.000000	64.649724 
2748.000000	64.649629 
2747.000000	64.650225 
2746.000000	64.651083 
2745.000000	64.651393 
2744.000000	64.650368 
2743.000000	64.647221 
2742.000000	64.641475 
2741.000000	64.633250 
2740.000000	64.623332 
2739.000000	64.613008 
2738.000000	64.604043 
2737.000000	64.598345 
2736.000000	64.597487 
2735.000000	64.602589 
2734.000000	64.613890 
2733.000000	64.630818 
2732.000000	64.651870 
2731.000000	64.675021 
2730.000000	64.697742 
2729.000000	64.717507 
2728.000000	64.732217 
2727.000000	64.740157 
2726.000000	64.740514 
2725.000000	64.733409 
2724.000000	64.719843 
2723.000000	64.701604 
2722.000000	64.681077 
2721.000000	64.660859 
2720.000000	64.643335 
2719.000000	64.630508 
2718.000000	64.623498 
2717.000000	64.622616 
2716.000000	64.627146 
2715.000000	64.635729 
2714.000000	64.646530 
2713.000000	64.657688 
2712.000000	64.667582 
2711.000000	64.674997 
2710.000000	64.679288 
2709.000000	64.680480 
2708.000000	64.678788 
2707.000000	64.674711 
2706.000000	64.668750 
2705.000000	64.661502 
2704.000000	64.653515 
2703.000000	64.645314 
2702.000000	64.637517 
2701.000000	64.630508 
2700.000000	64.624571 
2699.000000	64.619684 
2698.000000	64.615440 
2697.000000	64.611291 
2696.000000	64.606595 
2695.000000	64.601039 
2694.000000	64.594531 
2693.000000	64.587497 
2692.000000	64.580726 
2691.000000	64.575219 
2690.000000	64.572000 
2689.000000	64.571714 
2688.000000	64.574432 
2687.000000	64.579725 
2686.000000	64.586877 
2685.000000	64.595198 
2684.000000	64.604020 
2683.000000	64.613008 
2682.000000	64.622187 
2681.000000	64.631581 
2680.000000	64.641261 
2679.000000	64.650869 
2678.000000	64.659881 
2677.000000	64.667654 
2676.000000	64.673471 
2675.000000	64.677047 
2674.000000	64.678359 
2673.000000	64.677548 
2672.000000	64.674830 
2671.000000	64.670443 
2670.000000	64.664530 
2669.000000	64.657449 
2668.000000	64.649605 
2667.000000	64.641785 
2666.000000	64.635133 
2665.000000	64.630937 
2664.000000	64.630270 
2663.000000	64.634013 
2662.000000	64.642119 
2661.000000	64.653682 
2660.000000	64.666891 
2659.000000	64.679551 
2658.000000	64.689660 
2657.000000	64.696025 
2656.000000	64.698457 
2655.000000	64.697957 
2654.000000	64.696311 
2653.000000	64.695715 
2652.000000	64.697957 
2651.000000	64.703869 
2650.000000	64.713501 
2649.000000	64.725923 
2648.000000	64.739727 
2647.000000	64.753055 
2646.000000	64.764237 
2645.000000	64.771771 
2644.000000	64.774799 
2643.000000	64.772987 
2642.000000	64.766454 
2641.000000	64.755892 
2640.000000	64.742374 
2639.000000	64.727330 
2638.000000	64.712262 
2637.000000	64.698719 
2636.000000	64.687991 
2635.000000	64.680814 
2634.000000	64.677381 
2633.000000	64.677000 
2632.000000	64.678430 
2631.000000	64.680099 
2630.000000	64.680385 
2629.000000	64.677929 
2628.000000	64.672064 
2627.000000	64.662575 
2626.000000	64.650106 
2625.000000	64.635658 
2624.000000	64.620804 
2623.000000	64.607238 
2622.000000	64.596962 
2621.000000	64.591789 
2620.000000	64.592981 
2619.000000	64.601302 
2618.000000	64.616394 
2617.000000	64.637017 
2616.000000	64.661026 
2615.000000	64.685583 
2614.000000	64.707612 
2613.000000	64.724349 
2612.000000	64.733672 
2611.000000	64.734530 
2610.000000	64.726877 
2609.000000	64.711737 
2608.000000	64.690923 
2607.000000	64.666604 
2606.000000	64.641022 
2605.000000	64.616346 
2604.000000	64.594578 
2603.000000	64.577460 
2602.000000	64.566397 
2601.000000	64.562487 
2600.000000	64.566206 
2599.000000	64.577341 
2598.000000	64.594721 
2597.000000	64.616179 
2596.000000	64.638805 
2595.000000	64.659547 
2594.000000	64.675354 
2593.000000	64.684128 
2592.000000	64.685082 
2591.000000	64.678978 
2590.000000	64.668059 
2589.000000	64.655542 
2588.000000	64.644932 
2587.000000	64.639329 
2586.000000	64.640665 
2585.000000	64.649248 
2584.000000	64.663910 
2583.000000	64.682221 
2582.000000	64.701151 
2581.000000	64.717817 
2580.000000	64.730215 
2579.000000	64.737343 
2578.000000	64.739394 
2577.000000	64.737367 
2576.000000	64.732527 
2575.000000	64.726161 
2574.000000	64.718890 
2573.000000	64.710783 
2572.000000	64.701390 
2571.000000	64.690232 
2570.000000	64.677190 
2569.000000	64.662575 
2568.000000	64.647459 
2567.000000	64.633321 
2566.000000	64.621853 
2565.000000	64.614391 
2564.000000	64.611649 
2563.000000	64.613389 
2562.000000	64.618587 
2561.000000	64.625740 
2560.000000	64.633274 
2559.000000	64.639782 
2558.000000	64.644455 
2557.000000	64.647006 
2556.000000	64.647507 
2555.000000	64.646267 
2554.000000	64.643430 
2553.000000	64.638757 
2552.000000	64.631795 
2551.000000	64.621973 
2550.000000	64.608836 
2549.000000	64.592432 
2548.000000	64.573526 
2547.000000	64.553499 
2546.000000	64.534187 
2545.000000	64.517712 
2544.000000	64.505934 
2543.000000	64.500164 
2542.000000	64.500904 
2541.000000	64.507937 
2540.000000	64.520192 
2539.000000	64.536237 
2538.000000	64.554286 
2537.000000	64.572429 
2536.000000	64.588999 
2535.000000	64.602613 
2534.000000	64.612340 
2533.000000	64.617872 
2532.000000	64.619421 
2531.000000	64.617633 
2530.000000	64.613652 
2529.000000	64.608979 
2528.000000	64.605236 
2527.000000	64.603805 
2526.000000	64.605689 
2525.000000	64.611244 
2524.000000	64.620304 
2523.000000	64.631962 
2522.000000	64.644813 
2521.000000	64.657258 
2520.000000	64.667773 
2519.000000	64.674925 
2518.000000	64.677619 
2517.000000	64.675331 
2516.000000	64.668035 
2515.000000	64.656257 
2514.000000	64.640903 
2513.000000	64.623260 
2512.000000	64.604592 
2511.000000	64.585924 
2510.000000	64.567995 
2509.000000	64.551138 
2508.000000	64.535498 
2507.000000	64.521050 
2506.000000	64.508104 
2505.000000	64.497184 
2504.000000	64.489316 
2503.000000	64.485883 
2502.000000	64.488434 
2501.000000	64.498090 
2500.000000	64.515328 
2499.000000	64.539670 
2498.000000	64.569664 
2497.000000	64.603042 
2496.000000	64.637231 
2495.000000	64.669585 
2494.000000	64.698123 
2493.000000	64.721465 
2492.000000	64.738726 
2491.000000	64.749360 
2490.000000	64.753150 
2489.000000	64.750051 
2488.000000	64.740371 
2487.000000	64.724874 
2486.000000	64.705061 
2485.000000	64.683055 
2484.000000	64.661550 
2483.000000	64.643216 
2482.000000	64.630532 
2481.000000	64.624810 
2480.000000	64.626359 
2479.000000	64.634180 
2478.000000	64.646148 
2477.000000	64.659619 
2476.000000	64.672040 
2475.000000	64.681434 
2474.000000	64.686751 
2473.000000	64.687967 
2472.000000	64.685964 
2471.000000	64.682245 
2470.000000	64.678335 
2469.000000	64.675617 
2468.000000	64.674854 
2467.000000	64.676403 
2466.000000	64.679908 
2465.000000	64.684605 
2464.000000	64.689421 
2463.000000	64.693212 
2462.000000	64.695024 
2461.000000	64.694309 
2460.000000	64.691066 
2459.000000	64.685869 
2458.000000	64.679503 
2457.000000	64.672923 
2456.000000	64.666652 
2455.000000	64.661121 
2454.000000	64.655804 
2453.000000	64.649796 
2452.000000	64.641642 
2451.000000	64.629983 
2450.000000	64.613890 
2449.000000	64.593148 
2448.000000	64.568638 
2447.000000	64.542126 
2446.000000	64.516115 
2445.000000	64.493179 
2444.000000	64.475584 
2443.000000	64.464616 
2442.000000	64.460754 
2441.000000	64.463329 
2440.000000	64.471077 
2439.000000	64.482378 
2438.000000	64.495611 
2437.000000	64.509749 
2436.000000	64.524149 
2435.000000	64.538764 
2434.000000	64.553785 
2433.000000	64.569592 
2432.000000	64.586305 
2431.000000	64.603590 
2430.000000	64.620780 
2429.000000	64.636754 
2428.000000	64.650511 
2427.000000	64.661073 
2426.000000	64.667940 
2425.000000	64.670848 
2424.000000	64.670252 
2423.000000	64.666795 
2422.000000	64.661216 
2421.000000	64.654159 
2420.000000	64.646196 
2419.000000	64.637541 
2418.000000	64.628338 
2417.000000	64.618635 
2416.000000	64.608716 
2415.000000	64.598917 
2414.000000	64.589571 
2413.000000	64.581155 
2412.000000	64.573979 
2411.000000	64.567804 
2410.000000	64.562010 
2409.000000	64.555668 
2408.000000	64.547848 
2407.000000	64.538049 
2406.000000	64.526653 
2405.000000	64.514565 
2404.000000	64.503717 
2403.000000	64.496302 
2402.000000	64.494490 
2401.000000	64.499545 
2400.000000	64.511466 
2399.000000	64.528751 
2398.000000	64.548707 
2397.000000	64.567780 
2396.000000	64.582586 
2395.000000	64.590644 
2394.000000	64.590930 
2393.000000	64.584207 
2392.000000	64.572715 
2391.000000	64.559578 
2390.000000	64.548254 
2389.000000	64.541554 
2388.000000	64.541149 
2387.000000	64.547419 
2386.000000	64.559602 
2385.000000	64.575934 
2384.000000	64.594244 
2383.000000	64.612126 
2382.000000	64.627575 
2381.000000	64.638805 
2380.000000	64.644646 
2379.000000	64.644289 
2378.000000	64.637422 
2377.000000	64.624333 
2376.000000	64.605879 
2375.000000	64.583444 
2374.000000	64.559006 
2373.000000	64.534854 
2372.000000	64.513444 
2371.000000	64.496898 
2370.000000	64.486765 
2369.000000	64.483714 
2368.000000	64.487624 
2367.000000	64.497494 
2366.000000	64.511632 
2365.000000	64.528083 
2364.000000	64.544796 
2363.000000	64.560079 
2362.000000	64.572286 
2361.000000	64.580273 
2360.000000	64.583253 
2359.000000	64.580869 
2358.000000	64.573192 
2357.000000	64.560723 
2356.000000	64.544463 
2355.000000	64.526033 
2354.000000	64.507508 
2353.000000	64.491057 
2352.000000	64.478731 
2351.000000	64.471983 
2350.000000	64.471411 
2349.000000	64.476442 
2348.000000	64.485526 
2347.000000	64.496159 
2346.000000	64.505743 
2345.000000	64.511942 
2344.000000	64.513278 
2343.000000	64.509344 
2342.000000	64.501023 
2341.000000	64.490008 
2340.000000	64.478516 
2339.000000	64.468550 
2338.000000	64.461445 
2337.000000	64.457702 
2336.000000	64.456796 
2335.000000	64.457583 
2334.000000	64.458823 
2333.000000	64.459872 
2332.000000	64.460730 
2331.000000	64.462232 
2330.000000	64.465856 
2329.000000	64.473462 
2328.000000	64.486289 
2327.000000	64.504909 
2326.000000	64.528536 
2325.000000	64.555168 
2324.000000	64.582133 
2323.000000	64.606285 
2322.000000	64.624881 
2321.000000	64.636015 
2320.000000	64.639139 
2319.000000	64.635062 
2318.000000	64.625763 
2317.000000	64.613771 
2316.000000	64.601707 
2315.000000	64.591574 
2314.000000	64.584589 
2313.000000	64.580583 
2312.000000	64.578461 
2311.000000	64.576005 
2310.000000	64.570689 
2309.000000	64.559912 
2308.000000	64.541959 
2307.000000	64.516234 
2306.000000	64.483666 
2305.000000	64.446592 
2304.000000	64.408659 
2303.000000	64.374041 
2302.000000	64.346814 
2301.000000	64.330124 
2300.000000	64.325714 
2299.000000	64.333677 
2298.000000	64.352440 
2297.000000	64.378952 
2296.000000	64.409470 
2295.000000	64.440107 
2294.000000	64.467525 
2293.000000	64.489078 
2292.000000	64.503479 
2291.000000	64.510536 
2290.000000	64.511013 
2289.000000	64.506292 
2288.000000	64.498114 
2287.000000	64.488124 
2286.000000	64.477872 
2285.000000	64.468741 
2284.000000	64.461708 
2283.000000	64.457368 
2282.000000	64.455938 
2281.000000	64.457678 
2280.000000	64.462566 
2279.000000	64.470577 
2278.000000	64.481568 
2277.000000	64.495015 
2276.000000	64.510035 
2275.000000	64.525318 
2274.000000	64.539003 
2273.000000	64.549231 
2272.000000	64.554166 
2271.000000	64.552521 
2270.000000	64.543962 
2269.000000	64.529252 
2268.000000	64.510154 
2267.000000	64.489173 
2266.000000	64.469122 
2265.000000	64.452719 
2264.000000	64.442133 
2263.000000	64.438581 
2262.000000	64.442300 
2261.000000	64.452481 
2260.000000	64.467811 
2259.000000	64.486527 
2258.000000	64.506745 
2257.000000	64.526844 
2256.000000	64.545369 
2255.000000	64.561080 
2254.000000	64.573049 
2253.000000	64.580583 
2252.000000	64.583230 
2251.000000	64.580821 
2250.000000	64.573597 
2249.000000	64.562153 
2248.000000	64.547109 
2247.000000	64.529705 
2246.000000	64.510941 
2245.000000	64.491891 
2244.000000	64.473319 
2243.000000	64.455676 
2242.000000	64.439105 
2241.000000	64.423465 
2240.000000	64.408493 
2239.000000	64.393758 
2238.000000	64.379358 
2237.000000	64.365792 
2236.000000	64.354133 
2235.000000	64.345645 
2234.000000	64.341449 
2233.000000	64.342236 
2232.000000	64.347958 
2231.000000	64.357542 
2230.000000	64.369058 
2229.000000	64.380168 
2228.000000	64.388370 
2227.000000	64.391708 
2226.000000	64.389324 
2225.000000	64.381480 
2224.000000	64.369702 
2223.000000	64.356231 
2222.000000	64.343619 
2221.000000	64.334225 
2220.000000	64.329552 
2219.000000	64.330172 
2218.000000	64.335751 
2217.000000	64.344882 
2216.000000	64.355993 
2215.000000	64.367055 
2214.000000	64.376282 
2213.000000	64.382004 
2212.000000	64.383196 
2211.000000	64.379501 
2210.000000	64.371132 
2209.000000	64.358949 
2208.000000	64.344429 
2207.000000	64.329266 
2206.000000	64.315223 
2205.000000	64.303755 
2204.000000	64.295840 
2203.000000	64.292049 
2202.000000	64.292240 
2201.000000	64.295983 
2200.000000	64.302539 
2199.000000	64.311146 
2198.000000	64.321136 
2197.000000	64.331865 
2196.000000	64.342856 
2195.000000	64.353370 
2194.000000	64.362740 
2193.000000	64.370155 
2192.000000	64.374947 
2191.000000	64.376831 
2190.000000	64.376020 
2189.000000	64.373540 
2188.000000	64.370727 
2187.000000	64.368963 
2186.000000	64.369249 
2185.000000	64.372038 
2184.000000	64.376759 
2183.000000	64.382386 
2182.000000	64.387297 
2181.000000	64.389991 
2180.000000	64.389181 
2179.000000	64.384579 
2178.000000	64.376592 
2177.000000	64.366436 
2176.000000	64.355683 
2175.000000	64.345788 
2174.000000	64.337849 
2173.000000	64.332389 
2172.000000	64.329314 
2171.000000	64.327883 
2170.000000	64.327239 
2169.000000	64.326429 
2168.000000	64.324688 
2167.000000	64.321541 
2166.000000	64.316868 
2165.000000	64.310956 
2164.000000	64.304351 
2163.000000	64.297842 
2162.000000	64.292311 
2161.000000	64.288330 
2160.000000	64.286327 
2159.000000	64.285969 
2158.000000	64.286518 
2157.000000	64.286518 
2156.000000	64.284420 
2155.000000	64.278674 
2154.000000	64.268350 
2153.000000	64.253520 
2152.000000	64.235329 
2151.000000	64.215970 
2150.000000	64.198255 
2149.000000	64.185070 
2148.000000	64.178824 
2147.000000	64.180731 
2146.000000	64.190745 
2145.000000	64.207410 
2144.000000	64.228320 
2143.000000	64.250779 
2142.000000	64.272284 
2141.000000	64.291143 
2140.000000	64.306545 
2139.000000	64.318370 
2138.000000	64.327001 
2137.000000	64.332771 
2136.000000	64.335751 
2135.000000	64.335513 
2134.000000	64.331459 
2133.000000	64.323353 
2132.000000	64.311575 
2131.000000	64.297461 
2130.000000	64.283084 
2129.000000	64.271259 
2128.000000	64.264512 
2127.000000	64.264559 
2126.000000	64.271807 
2125.000000	64.285278 
2124.000000	64.302563 
2123.000000	64.320492 
2122.000000	64.335751 
2121.000000	64.345812 
2120.000000	64.349246 
2119.000000	64.345908 
2118.000000	64.337038 
2117.000000	64.324784 
2116.000000	64.311671 
2115.000000	64.300036 
2114.000000	64.291906 
2113.000000	64.288496 
2112.000000	64.290356 
2111.000000	64.297127 
2110.000000	64.307904 
2109.000000	64.321255 
2108.000000	64.335346 
2107.000000	64.348101 
2106.000000	64.357566 
2105.000000	64.362144 
2104.000000	64.360761 
2103.000000	64.353275 
2102.000000	64.340448 
2101.000000	64.323902 
2100.000000	64.305830 
2099.000000	64.288473 
2098.000000	64.273619 
2097.000000	64.262270 
2096.000000	64.254403 
2095.000000	64.249014 
2094.000000	64.244556 
2093.000000	64.239311 
2092.000000	64.232063 
2091.000000	64.222407 
2090.000000	64.210939 
2089.000000	64.198875 
2088.000000	64.188003 
2087.000000	64.180231 
2086.000000	64.176821 
2085.000000	64.178490 
2084.000000	64.184832 
2083.000000	64.194560 
2082.000000	64.205598 
2081.000000	64.215707 
2080.000000	64.222931 
2079.000000	64.225935 
2078.000000	64.224600 
2077.000000	64.219474 
2076.000000	64.212131 
2075.000000	64.204216 
2074.000000	64.197373 
2073.000000	64.192676 
2072.000000	64.190769 
2071.000000	64.191651 
2070.000000	64.195013 
2069.000000	64.200568 
2068.000000	64.208030 
2067.000000	64.217162 
2066.000000	64.227843 
2065.000000	64.240121 
2064.000000	64.254021 
2063.000000	64.269304 
2062.000000	64.285731 
2061.000000	64.302635 
2060.000000	64.319229 
2059.000000	64.334368 
2058.000000	64.346790 
2057.000000	64.355301 
2056.000000	64.358854 
2055.000000	64.356875 
2054.000000	64.349341 
2053.000000	64.336824 
2052.000000	64.320540 
2051.000000	64.302039 
2050.000000	64.283037 
2049.000000	64.265108 
2048.000000	64.249539 
2047.000000	64.237141 
2046.000000	64.228129 
2045.000000	64.222431 
2044.000000	64.219856 
2043.000000	64.220166 
2042.000000	64.223074 
2041.000000	64.228343 
2040.000000	64.235568 
2039.000000	64.243984 
2038.000000	64.252471 
2037.000000	64.259696 
2036.000000	64.264225 
2035.000000	64.264965 
2034.000000	64.261221 
2033.000000	64.253115 
2032.000000	64.241433 
2031.000000	64.227628 
2030.000000	64.213490 
2029.000000	64.200782 
2028.000000	64.190912 
2027.000000	64.184546 
2026.000000	64.181733 
2025.000000	64.181923 
2024.000000	64.184069 
2023.000000	64.187049 
2022.000000	64.189767 
2021.000000	64.191532 
2020.000000	64.192128 
2019.000000	64.191627 
2018.000000	64.190578 
2017.000000	64.189577 
2016.000000	64.189291 
2015.000000	64.190220 
2014.000000	64.192652 
2013.000000	64.196658 
2012.000000	64.202046 
2011.000000	64.208626 
2010.000000	64.216208 
2009.000000	64.224934 
2008.000000	64.234995 
2007.000000	64.246702 
2006.000000	64.260196 
2005.000000	64.275312 
2004.000000	64.291596 
2003.000000	64.307904 
2002.000000	64.322876 
2001.000000	64.334774 
2000.000000	64.342236 
1999.000000	64.344239 
1998.000000	64.340424 
1997.000000	64.331126 
1996.000000	64.317536 
1995.000000	64.301085 
1994.000000	64.283585 
1993.000000	64.266443 
1992.000000	64.250755 
1991.000000	64.236927 
1990.000000	64.224958 
1989.000000	64.214515 
1988.000000	64.205217 
1987.000000	64.196753 
1986.000000	64.189147 
1985.000000	64.182639 
1984.000000	64.177703 
1983.000000	64.174938 
1982.000000	64.174938 
1981.000000	64.177989 
1980.000000	64.184117 
1979.000000	64.193248 
1978.000000	64.204955 
1977.000000	64.218759 
1976.000000	64.234089 
1975.000000	64.250326 
1974.000000	64.266729 
1973.000000	64.282488 
1972.000000	64.296770 
1971.000000	64.308643 
1970.000000	64.317297 
1969.000000	64.322233 
1968.000000	64.323186 
1967.000000	64.320349 
1966.000000	64.314270 
1965.000000	64.305806 
1964.000000	64.295911 
1963.000000	64.285516 
1962.000000	64.275288 
1961.000000	64.265561 
1960.000000	64.256310 
1959.000000	64.247131 
1958.000000	64.237570 
1957.000000	64.227223 
1956.000000	64.215826 
1955.000000	64.203500 
1954.000000	64.190530 
1953.000000	64.177536 
1952.000000	64.164996 
1951.000000	64.153337 
1950.000000	64.142727 
1949.000000	64.133262 
1948.000000	64.124894 
1947.000000	64.117813 
1946.000000	64.112114 
1945.000000	64.108109 
1944.000000	64.106178 
1943.000000	64.106631 
1942.000000	64.109492 
1941.000000	64.114332 
1940.000000	64.120316 
1939.000000	64.126348 
1938.000000	64.131307 
1937.000000	64.134168 
1936.000000	64.134430 
1935.000000	64.132118 
1934.000000	64.127850 
1933.000000	64.122724 
1932.000000	64.118051 
1931.000000	64.114999 
1930.000000	64.114451 
1929.000000	64.116907 
1928.000000	64.122295 
1927.000000	64.130330 
1926.000000	64.140248 
1925.000000	64.151215 
1924.000000	64.162206 
1923.000000	64.172339 
1922.000000	64.180922 
1921.000000	64.187407 
1920.000000	64.191675 
1919.000000	64.193844 
1918.000000	64.194369 
1917.000000	64.193916 
1916.000000	64.193129 
1915.000000	64.192581 
1914.000000	64.192628 
1913.000000	64.193630 
1912.000000	64.195561 
1911.000000	64.198207 
1910.000000	64.200973 
1909.000000	64.203023 
1908.000000	64.203286 
1907.000000	64.200592 
1906.000000	64.193892 
1905.000000	64.182662 
1904.000000	64.166951 
1903.000000	64.147496 
1902.000000	64.125800 
1901.000000	64.103937 
1900.000000	64.084339 
1899.000000	64.069247 
1898.000000	64.060640 
1897.000000	64.059782 
1896.000000	64.067053 
1895.000000	64.081764 
1894.000000	64.102387 
1893.000000	64.126491 
1892.000000	64.151239 
1891.000000	64.173626 
1890.000000	64.190649 
1889.000000	64.200234 
1888.000000	64.200997 
1887.000000	64.192819 
1886.000000	64.176750 
1885.000000	64.155030 
1884.000000	64.130496 
1883.000000	64.106416 
1882.000000	64.085721 
1881.000000	64.070677 
1880.000000	64.062547 
1879.000000	64.061546 
1878.000000	64.066982 
1877.000000	64.077615 
1876.000000	64.091730 
1875.000000	64.107656 
1874.000000	64.124035 
1873.000000	64.139628 
1872.000000	64.153695 
1871.000000	64.165639 
1870.000000	64.175057 
1869.000000	64.181900 
1868.000000	64.186263 
1867.000000	64.188504 
1866.000000	64.188957 
1865.000000	64.188337 
1864.000000	64.187359 
1863.000000	64.186716 
1862.000000	64.186668 
1861.000000	64.187288 
1860.000000	64.188241 
1859.000000	64.188957 
1858.000000	64.188480 
1857.000000	64.186120 
1856.000000	64.180994 
1855.000000	64.172625 
1854.000000	64.160799 
1853.000000	64.145660 
1852.000000	64.127612 
1851.000000	64.107298 
1850.000000	64.085721 
1849.000000	64.064025 
1848.000000	64.043569 
1847.000000	64.025521 
1846.000000	64.011025 
1845.000000	64.000773 
1844.000000	63.995122 
1843.000000	63.993930 
1842.000000	63.996577 
1841.000000	64.002275 
1840.000000	64.010167 
1839.000000	64.019441 
1838.000000	64.029598 
1837.000000	64.040303 
1836.000000	64.051413 
1835.000000	64.062714 
1834.000000	64.073920 
1833.000000	64.084410 
1832.000000	64.093470 
1831.000000	64.100146 
1830.000000	64.103865 
1829.000000	64.104151 
1828.000000	64.101123 
1827.000000	64.095282 
1826.000000	64.087653 
1825.000000	64.079308 
1824.000000	64.071321 
1823.000000	64.064383 
1822.000000	64.058876 
1821.000000	64.054775 
1820.000000	64.051723 
1819.000000	64.049410 
1818.000000	64.047598 
1817.000000	64.046382 
1816.000000	64.046263 
1815.000000	64.047718 
1814.000000	64.051556 
1813.000000	64.058065 
1812.000000	64.067268 
1811.000000	64.078402 
1810.000000	64.090466 
1809.000000	64.102053 
1808.000000	64.111828 
1807.000000	64.118647 
1806.000000	64.122104 
1805.000000	64.122390 
1804.000000	64.120459 
1803.000000	64.117598 
1802.000000	64.115095 
1801.000000	64.113974 
1800.000000	64.114499 
1799.000000	64.116311 
1798.000000	64.118337 
1797.000000	64.119029 
1796.000000	64.116716 
1795.000000	64.110016 
1794.000000	64.098072 
1793.000000	64.080691 
1792.000000	64.058399 
1791.000000	64.032363 
1790.000000	64.004254 
1789.000000	63.975954 
1788.000000	63.949441 
1787.000000	63.926315 
1786.000000	63.907790 
1785.000000	63.894605 
1784.000000	63.886761 
1783.000000	63.883733 
1782.000000	63.884401 
1781.000000	63.887715 
1780.000000	63.892197 
1779.000000	63.896965 
1778.000000	63.901281 
1777.000000	63.905072 
1776.000000	63.908576 
1775.000000	63.912343 
1774.000000	63.916873 
1773.000000	63.922524 
1772.000000	63.929224 
1771.000000	63.936567 
1770.000000	63.943719 
1769.000000	63.949871 
1768.000000	63.954210 
1767.000000	63.956117 
1766.000000	63.955140 
1765.000000	63.951086 
1764.000000	63.943982 
1763.000000	63.933801 
1762.000000	63.920354 
1761.000000	63.903617 
1760.000000	63.883495 
1759.000000	63.860154 
1758.000000	63.833928 
1757.000000	63.805770 
1756.000000	63.777351 
1755.000000	63.750672 
1754.000000	63.727951 
1753.000000	63.711285 
1752.000000	63.702178 
1751.000000	63.701248 
1750.000000	63.707804 
1749.000000	63.720154 
1748.000000	63.735675 
1747.000000	63.751268 
1746.000000	63.763904 
1745.000000	63.771271 
1744.000000	63.772177 
1743.000000	63.766646 
1742.000000	63.755750 
1741.000000	63.741278 
1740.000000	63.725280 
1739.000000	63.709449 
1738.000000	63.694930 
1737.000000	63.682246 
1736.000000	63.671541 
1735.000000	63.662672 
1734.000000	63.655805 
1733.000000	63.651227 
1732.000000	63.649272 
1731.000000	63.650083 
1730.000000	63.653564 
1729.000000	63.659167 
1728.000000	63.665843 
1727.000000	63.672375 
1726.000000	63.677740 
1725.000000	63.681483 
1724.000000	63.683772 
1723.000000	63.685584 
1722.000000	63.688445 
1721.000000	63.694047 
1720.000000	63.703680 
1719.000000	63.717913 
1718.000000	63.736200 
1717.000000	63.757061 
1716.000000	63.778305 
1715.000000	63.797545 
1714.000000	63.812732 
1713.000000	63.822484 
1712.000000	63.826441 
1711.000000	63.825416 
1710.000000	63.821029 
1709.000000	63.815665 
1708.000000	63.811659 
1707.000000	63.811254 
1706.000000	63.815903 
1705.000000	63.825941 
1704.000000	63.840603 
1703.000000	63.858270 
1702.000000	63.876581 
1701.000000	63.893318 
1700.000000	63.906431 
1699.000000	63.914752 
1698.000000	63.917803 
1697.000000	63.915801 
1696.000000	63.909482 
1695.000000	63.899779 
1694.000000	63.887596 
1693.000000	63.873887 
1692.000000	63.859415 
1691.000000	63.845014 
1690.000000	63.831567 
1689.000000	63.820075 
1688.000000	63.811397 
1687.000000	63.806223 
1686.000000	63.804888 
1685.000000	63.807177 
1684.000000	63.812184 
1683.000000	63.818383 
1682.000000	63.824057 
1681.000000	63.827705 
1680.000000	63.828134 
1679.000000	63.824939 
1678.000000	63.818430 
1677.000000	63.809680 
1676.000000	63.800168 
1675.000000	63.791608 
1674.000000	63.785624 
1673.000000	63.783526 
1672.000000	63.786005 
1671.000000	63.793134 
1670.000000	63.804459 
1669.000000	63.819122 
1668.000000	63.835787 
1667.000000	63.853120 
1666.000000	63.870072 
1665.000000	63.885736 
1664.000000	63.899564 
1663.000000	63.910961 
1662.000000	63.919472 
1661.000000	63.924551 
1660.000000	63.925719 
1659.000000	63.922524 
1658.000000	63.914847 
1657.000000	63.903045 
1656.000000	63.888192 
1655.000000	63.872051 
1654.000000	63.856697 
1653.000000	63.844394 
1652.000000	63.836908 
1651.000000	63.835334 
1650.000000	63.839459 
1649.000000	63.848042 
1648.000000	63.858890 
1647.000000	63.869500 
1646.000000	63.877391 
1645.000000	63.880848 
1644.000000	63.879013 
1643.000000	63.872003 
1642.000000	63.860869 
1641.000000	63.847064 
1640.000000	63.832259 
1639.000000	63.818001 
1638.000000	63.805627 
1637.000000	63.795900 
1636.000000	63.789272 
1635.000000	63.785815 
1634.000000	63.785362 
1633.000000	63.787412 
1632.000000	63.791465 
1631.000000	63.796973 
1630.000000	63.803267 
1629.000000	63.809704 
1628.000000	63.815808 
1627.000000	63.821148 
1626.000000	63.825607 
1625.000000	63.829064 
1624.000000	63.831639 
1623.000000	63.833427 
1622.000000	63.834738 
1621.000000	63.835716 
1620.000000	63.836526 
1619.000000	63.837265 
1618.000000	63.837909 
1617.000000	63.838291 
1616.000000	63.838291 
1615.000000	63.837480 
1614.000000	63.835430 
1613.000000	63.831758 
1612.000000	63.826179 
1611.000000	63.818764 
1610.000000	63.809680 
1609.000000	63.799476 
1608.000000	63.788700 
1607.000000	63.778042 
1606.000000	63.768148 
1605.000000	63.759469 
1604.000000	63.752198 
1603.000000	63.746237 
1602.000000	63.741445 
1601.000000	63.737630 
1600.000000	63.734793 
1599.000000	63.732981 
1598.000000	63.732314 
1597.000000	63.733053 
1596.000000	63.735389 
1595.000000	63.739275 
1594.000000	63.744235 
1593.000000	63.749575 
1592.000000	63.754224 
1591.000000	63.757133 
1590.000000	63.757157 
1589.000000	63.753294 
1588.000000	63.744997 
1587.000000	63.732242 
1586.000000	63.715815 
1585.000000	63.697075 
1584.000000	63.678050 
1583.000000	63.661122 
1582.000000	63.648700 
1581.000000	63.642787 
1580.000000	63.644742 
1579.000000	63.654756 
1578.000000	63.671875 
1577.000000	63.694000 
1576.000000	63.718223 
1575.000000	63.741374 
1574.000000	63.760447 
1573.000000	63.773179 
1572.000000	63.778305 
1571.000000	63.775801 
1570.000000	63.766574 
1569.000000	63.752365 
1568.000000	63.735246 
1567.000000	63.717675 
1566.000000	63.701915 
1565.000000	63.690090 
1564.000000	63.684082 
1563.000000	63.684916 
1562.000000	63.693070 
1561.000000	63.707923 
1560.000000	63.727903 
1559.000000	63.750648 
1558.000000	63.773322 
1557.000000	63.793039 
1556.000000	63.807296 
1555.000000	63.814640 
1554.000000	63.814592 
1553.000000	63.808012 
1552.000000	63.796639 
1551.000000	63.782787 
1550.000000	63.768649 
1549.000000	63.756084 
1548.000000	63.746166 
1547.000000	63.739180 
1546.000000	63.734650 
1545.000000	63.731622 
1544.000000	63.729023 
1543.000000	63.725972 
1542.000000	63.722085 
1541.000000	63.717198 
1540.000000	63.711643 
1539.000000	63.706040 
1538.000000	63.701009 
1537.000000	63.697123 
1536.000000	63.694596 
1535.000000	63.693428 
1534.000000	63.693261 
1533.000000	63.693356 
1532.000000	63.693094 
1531.000000	63.691878 
1530.000000	63.689327 
1529.000000	63.685369 
1528.000000	63.680505 
1527.000000	63.675618 
1526.000000	63.671851 
1525.000000	63.670277 
1524.000000	63.671708 
1523.000000	63.676428 
1522.000000	63.684034 
1521.000000	63.693571 
1520.000000	63.703536 
1519.000000	63.712525 
1518.000000	63.719296 
1517.000000	63.723397 
1516.000000	63.724994 
1515.000000	63.724946 
1514.000000	63.724732 
1513.000000	63.725686 
1512.000000	63.729023 
1511.000000	63.735198 
1510.000000	63.743996 
1509.000000	63.754463 
1508.000000	63.765287 
1507.000000	63.774943 
1506.000000	63.782215 
1505.000000	63.786435 
1504.000000	63.787484 
1503.000000	63.785862 
1502.000000	63.782429 
1501.000000	63.778257 
1500.000000	63.774418 
1499.000000	63.771748 
1498.000000	63.770747 
1497.000000	63.771653 
1496.000000	63.774347 
1495.000000	63.778471 
1494.000000	63.783454 
1493.000000	63.788533 
1492.000000	63.792681 
1491.000000	63.794708 
1490.000000	63.793563 
1489.000000	63.788294 
1488.000000	63.778495 
1487.000000	63.764262 
1486.000000	63.746500 
1485.000000	63.726711 
1484.000000	63.706922 
1483.000000	63.689279 
1482.000000	63.675594 
1481.000000	63.667011 
1480.000000	63.663649 
1479.000000	63.664817 
1478.000000	63.669037 
1477.000000	63.674402 
1476.000000	63.679265 
1475.000000	63.682270 
1474.000000	63.682937 
1473.000000	63.681435 
1472.000000	63.678669 
1471.000000	63.675689 
1470.000000	63.673329 
1469.000000	63.672089 
1468.000000	63.671994 
1467.000000	63.672661 
1466.000000	63.673257 
1465.000000	63.672876 
1464.000000	63.670778 
1463.000000	63.666558 
1462.000000	63.660025 
1461.000000	63.651299 
1460.000000	63.640546 
1459.000000	63.627958 
1458.000000	63.613891 
1457.000000	63.598799 
1456.000000	63.583278 
1455.000000	63.568258 
1454.000000	63.554787 
1453.000000	63.544106 
1452.000000	63.537192 
1451.000000	63.534665 
1450.000000	63.536524 
1449.000000	63.542103 
1448.000000	63.550257 
1447.000000	63.559627 
1446.000000	63.569259 
1445.000000	63.578748 
1444.000000	63.588356 
1443.000000	63.599133 
1442.000000	63.612484 
1441.000000	63.629722 
1440.000000	63.651347 
1439.000000	63.676548 
1438.000000	63.703179 
1437.000000	63.728165 
1436.000000	63.747930 
1435.000000	63.759231 
1434.000000	63.760018 
1433.000000	63.750195 
1432.000000	63.731408 
1431.000000	63.707113 
1430.000000	63.681411 
1429.000000	63.658499 
1428.000000	63.641500 
1427.000000	63.631963 
1426.000000	63.629484 
1425.000000	63.632130 
1424.000000	63.636827 
1423.000000	63.640451 
1422.000000	63.640260 
1421.000000	63.634705 
1420.000000	63.623595 
1419.000000	63.607859 
1418.000000	63.589334 
1417.000000	63.570094 
1416.000000	63.552069 
1415.000000	63.536882 
1414.000000	63.525438 
1413.000000	63.518071 
1412.000000	63.514780 
1411.000000	63.515210 
1410.000000	63.518905 
1409.000000	63.525223 
1408.000000	63.533401 
1407.000000	63.542675 
1406.000000	63.551855 
1405.000000	63.559651 
1404.000000	63.564658 
1403.000000	63.565564 
1402.000000	63.561367 
1401.000000	63.551616 
1400.000000	63.536477 
1399.000000	63.516950 
1398.000000	63.494729 
1397.000000	63.471841 
1396.000000	63.450264 
1395.000000	63.431668 
1394.000000	63.417243 
1393.000000	63.407492 
1392.000000	63.402390 
1391.000000	63.401412 
1390.000000	63.403797 
1389.000000	63.408708 
1388.000000	63.415694 
1387.000000	63.424301 
1386.000000	63.434338 
1385.000000	63.445544 
1384.000000	63.457608 
1383.000000	63.469982 
1382.000000	63.481903 
1381.000000	63.492345 
1380.000000	63.500332 
1379.000000	63.505125 
1378.000000	63.506388 
1377.000000	63.504314 
1376.000000	63.499689 
1375.000000	63.493633 
1374.000000	63.487577 
1373.000000	63.482880 
1372.000000	63.480687 
1371.000000	63.481497 
1370.000000	63.485312 
1369.000000	63.491606 
1368.000000	63.499498 
1367.000000	63.507819 
1366.000000	63.515520 
1365.000000	63.521766 
1364.000000	63.525891 
1363.000000	63.527703 
1362.000000	63.526940 
1361.000000	63.523459 
1360.000000	63.517165 
1359.000000	63.508296 
1358.000000	63.497400 
1357.000000	63.485550 
1356.000000	63.474345 
1355.000000	63.465666 
1354.000000	63.461470 
1353.000000	63.463282 
1352.000000	63.471627 
1351.000000	63.485956 
1350.000000	63.504624 
1349.000000	63.525199 
1348.000000	63.544869 
1347.000000	63.560676 
1346.000000	63.570618 
1345.000000	63.573408 
1344.000000	63.568854 
1343.000000	63.557600 
1342.000000	63.540744 
1341.000000	63.519811 
1340.000000	63.496351 
1339.000000	63.472414 
1338.000000	63.450193 
1337.000000	63.432049 
1336.000000	63.420367 
1335.000000	63.417005 
1334.000000	63.422966 
1333.000000	63.437652 
1332.000000	63.458943 
1331.000000	63.483572 
1330.000000	63.507509 
1329.000000	63.526868 
1328.000000	63.538718 
1327.000000	63.541698 
1326.000000	63.536095 
1325.000000	63.523769 
1324.000000	63.507628 
1323.000000	63.490676 
1322.000000	63.475584 
1321.000000	63.463950 
1320.000000	63.456511 
1319.000000	63.453149 
1318.000000	63.453316 
1317.000000	63.456320 
1316.000000	63.461542 
1315.000000	63.468790 
1314.000000	63.477873 
1313.000000	63.488459 
1312.000000	63.499855 
1311.000000	63.511037 
1310.000000	63.520812 
1309.000000	63.527965 
1308.000000	63.531637 
1307.000000	63.531422 
1306.000000	63.527536 
1305.000000	63.520860 
1304.000000	63.512492 
1303.000000	63.503456 
1302.000000	63.494491 
1301.000000	63.485908 
1300.000000	63.477778 
1299.000000	63.470005 
1298.000000	63.462448 
1297.000000	63.455057 
1296.000000	63.448023 
1295.000000	63.441443 
1294.000000	63.435339 
1293.000000	63.429403 
1292.000000	63.423061 
1291.000000	63.415741 
1290.000000	63.406944 
1289.000000	63.396763 
1288.000000	63.385701 
1287.000000	63.375139 
1286.000000	63.366723 
1285.000000	63.362002 
1284.000000	63.362121 
1283.000000	63.367247 
1282.000000	63.376545 
1281.000000	63.388109 
1280.000000	63.399457 
1279.000000	63.408112 
1278.000000	63.412141 
1277.000000	63.410496 
1276.000000	63.403105 
1275.000000	63.391089 
1274.000000	63.376045 
1273.000000	63.359832 
1272.000000	63.344120 
1271.000000	63.330149 
1270.000000	63.318753 
1269.000000	63.310384 
1268.000000	63.305068 
1267.000000	63.302779 
1266.000000	63.303399 
1265.000000	63.306665 
1264.000000	63.312196 
1263.000000	63.319182 
1262.000000	63.326597 
1261.000000	63.333225 
1260.000000	63.337898 
1259.000000	63.339924 
1258.000000	63.339066 
1257.000000	63.335680 
1256.000000	63.330841 
1255.000000	63.326001 
1254.000000	63.322520 
1253.000000	63.321423 
1252.000000	63.323235 
1251.000000	63.327884 
1250.000000	63.334798 
1249.000000	63.343214 
1248.000000	63.352417 
1247.000000	63.361525 
1246.000000	63.369870 
1245.000000	63.376498 
1244.000000	63.380503 
1243.000000	63.380765 
1242.000000	63.376045 
1241.000000	63.365411 
1240.000000	63.348484 
1239.000000	63.325762 
1238.000000	63.298416 
1237.000000	63.268685 
1236.000000	63.239264 
1235.000000	63.213133 
1234.000000	63.192939 
1233.000000	63.180804 
1232.000000	63.177776 
1231.000000	63.183903 
1230.000000	63.198304 
1229.000000	63.219475 
1228.000000	63.245296 
1227.000000	63.273596 
1226.000000	63.302302 
1225.000000	63.329529 
1224.000000	63.353753 
1223.000000	63.373923 
1222.000000	63.389420 
1221.000000	63.400316 
1220.000000	63.406968 
1219.000000	63.410210 
1218.000000	63.410782 
1217.000000	63.409638 
1216.000000	63.407278 
1215.000000	63.404011 
1214.000000	63.399553 
1213.000000	63.393521 
1212.000000	63.385510 
1211.000000	63.375139 
1210.000000	63.362622 
1209.000000	63.348770 
1208.000000	63.334965 
1207.000000	63.323020 
1206.000000	63.314819 
1205.000000	63.311839 
1204.000000	63.314604 
1203.000000	63.322567 
1202.000000	63.334059 
1201.000000	63.346576 
1200.000000	63.357353 
1199.000000	63.364148 
1198.000000	63.365411 
1197.000000	63.360857 
1196.000000	63.351440 
1195.000000	63.338875 
1194.000000	63.325238 
1193.000000	63.312315 
1192.000000	63.301348 
1191.000000	63.292765 
1190.000000	63.286209 
1189.000000	63.280630 
1188.000000	63.274860 
1187.000000	63.267874 
1186.000000	63.259148 
1185.000000	63.248825 
1184.000000	63.237476 
1183.000000	63.226246 
1182.000000	63.216280 
1181.000000	63.208532 
1180.000000	63.203549 
1179.000000	63.201308 
1178.000000	63.201332 
1177.000000	63.202595 
1176.000000	63.203644 
1175.000000	63.203120 
1174.000000	63.199853 
1173.000000	63.193297 
1172.000000	63.183450 
1171.000000	63.171029 
1170.000000	63.157391 
1169.000000	63.144016 
1168.000000	63.132286 
1167.000000	63.123178 
1166.000000	63.117337 
1165.000000	63.114976 
1164.000000	63.116145 
1163.000000	63.120698 
1162.000000	63.128280 
1161.000000	63.138437 
1160.000000	63.150310 
1159.000000	63.162946 
1158.000000	63.175153 
1157.000000	63.185763 
1156.000000	63.193821 
1155.000000	63.199019 
1154.000000	63.201618 
1153.000000	63.202261 
1152.000000	63.201975 
1151.000000	63.202023 
1150.000000	63.202929 
1149.000000	63.204622 
1148.000000	63.206267 
1147.000000	63.206529 
1146.000000	63.204050 
1145.000000	63.198065 
1144.000000	63.188695 
1143.000000	63.176918 
1142.000000	63.164329 
1141.000000	63.152742 
1140.000000	63.143539 
1139.000000	63.137340 
1138.000000	63.134169 
1137.000000	63.133287 
1136.000000	63.133645 
1135.000000	63.134121 
1134.000000	63.133645 
1133.000000	63.131761 
1132.000000	63.128280 
1131.000000	63.124108 
1130.000000	63.120532 
1129.000000	63.119649 
1128.000000	63.123559 
1127.000000	63.134145 
1126.000000	63.152360 
1125.000000	63.178014 
1124.000000	63.209366 
1123.000000	63.243246 
1122.000000	63.275456 
1121.000000	63.301444 
1120.000000	63.317394 
1119.000000	63.320827 
1118.000000	63.311171 
1117.000000	63.289809 
1116.000000	63.259696 
1115.000000	63.224530 
1114.000000	63.188052 
1113.000000	63.153076 
1112.000000	63.121414 
1111.000000	63.094282 
1110.000000	63.072371 
1109.000000	63.056397 
1108.000000	63.047146 
1107.000000	63.045191 
1106.000000	63.051056 
1105.000000	63.064265 
1104.000000	63.083648 
1103.000000	63.107109 
1102.000000	63.132190 
1101.000000	63.156247 
1100.000000	63.177108 
1099.000000	63.193249 
1098.000000	63.204073 
1097.000000	63.209795 
1096.000000	63.211107 
1095.000000	63.208913 
1094.000000	63.203954 
1093.000000	63.196659 
1092.000000	63.187003 
1091.000000	63.174581 
1090.000000	63.158965 
1089.000000	63.139486 
1088.000000	63.115739 
1087.000000	63.087558 
1086.000000	63.054943 
1085.000000	63.018536 
1084.000000	62.979412 
1083.000000	62.939572 
1082.000000	62.901663 
1081.000000	62.868881 
1080.000000	62.844157 
1079.000000	62.830066 
1078.000000	62.827920 
1077.000000	62.837696 
1076.000000	62.857627 
1075.000000	62.884616 
1074.000000	62.914609 
1073.000000	62.943458 
1072.000000	62.967467 
1071.000000	62.984347 
1070.000000	62.993240 
1069.000000	62.995123 
1068.000000	62.992501 
1067.000000	62.988615 
1066.000000	62.986493 
1065.000000	62.988591 
1064.000000	62.995791 
1063.000000	63.007497 
1062.000000	63.021755 
1061.000000	63.035655 
1060.000000	63.046026 
1059.000000	63.050532 
1058.000000	63.047909 
1057.000000	63.038229 
1056.000000	63.023114 
1055.000000	63.005185 
1054.000000	62.987732 
1053.000000	62.973690 
1052.000000	62.965488 
1051.000000	62.964606 
1050.000000	62.971329 
1049.000000	62.985205 
1048.000000	63.004803 
1047.000000	63.028287 
1046.000000	63.053369 
1045.000000	63.077616 
1044.000000	63.098502 
1043.000000	63.113737 
1042.000000	63.121366 
1041.000000	63.120436 
1040.000000	63.111066 
1039.000000	63.094615 
1038.000000	63.073492 
1037.000000	63.051009 
1036.000000	63.030815 
1035.000000	63.016271 
1034.000000	63.009953 
1033.000000	63.012957 
1032.000000	63.025021 
1031.000000	63.044166 
1030.000000	63.067269 
1029.000000	63.090109 
1028.000000	63.108563 
1027.000000	63.118910 
1026.000000	63.118481 
1025.000000	63.106083 
1024.000000	63.082265 
1023.000000	63.049149 
1022.000000	63.009881 
1021.000000	62.968444 
1020.000000	62.928843 
1019.000000	62.894606 
1018.000000	62.868046 
1017.000000	62.850379 
1016.000000	62.841558 
1015.000000	62.840771 
1014.000000	62.846565 
1013.000000	62.857413 
1012.000000	62.871861 
1011.000000	62.888813 
1010.000000	62.907314 
1009.000000	62.926530 
1008.000000	62.945818 
1007.000000	62.964439 
1006.000000	62.982010 
1005.000000	62.998366 
1004.000000	63.013482 
1003.000000	63.027667 
1002.000000	63.041353 
1001.000000	63.054871 
1000.000000	63.068485 
999.000000	 63.082337 
998.000000	 63.096261 
997.000000	 63.109850 
996.000000	 63.122773 
995.000000	 63.134789 
994.000000	 63.146066 
993.000000	 63.157033 
992.000000	 63.168549 
991.000000	 63.181591 
990.000000	 63.197255 
989.000000	 63.216447 
988.000000	 63.239502 
987.000000	 63.265991 
986.000000	 63.294792 
985.000000	 63.324141 
984.000000	 63.351607 
983.000000	 63.374471 
982.000000	 63.390231 
981.000000	 63.397002 
980.000000	 63.394069 
979.000000	 63.381886 
978.000000	 63.362073 
977.000000	 63.336944 
976.000000	 63.309288 
975.000000	 63.281393 
974.000000	 63.254833 
973.000000	 63.230037 
972.000000	 63.206601 
971.000000	 63.183522 
970.000000	 63.159680 
969.000000	 63.134670 
968.000000	 63.108921 
967.000000	 63.084173 
966.000000	 63.062572 
965.000000	 63.046622 
964.000000	 63.038325 
963.000000	 63.038659 
962.000000	 63.047242 
961.000000	 63.062644 
960.000000	 63.082480 
959.000000	 63.104248 
958.000000	 63.125514 
957.000000	 63.144612 
956.000000	 63.160419 
955.000000	 63.172292 
954.000000	 63.179540 
953.000000	 63.181543 
952.000000	 63.177609 
951.000000	 63.166928 
950.000000	 63.149023 
949.000000	 63.124513 
948.000000	 63.094997 
947.000000	 63.063526 
946.000000	 63.033723 
945.000000	 63.009428 
944.000000	 62.993931 
943.000000	 62.989187 
942.000000	 62.995624 
941.000000	 63.011693 
940.000000	 63.034749 
939.000000	 63.061428 
938.000000	 63.088655 
937.000000	 63.114047 
936.000000	 63.136243 
935.000000	 63.154816 
934.000000	 63.169884 
933.000000	 63.181662 
932.000000	 63.190293 
931.000000	 63.195395 
930.000000	 63.196206 
929.000000	 63.191652 
928.000000	 63.181042 
927.000000	 63.164091 
926.000000	 63.141059 
925.000000	 63.112497 
924.000000	 63.079428 
923.000000	 63.042902 
922.000000	 63.004183 
921.000000	 62.964677 
920.000000	 62.926006 
919.000000	 62.890553 
918.000000	 62.861084 
917.000000	 62.840819 
916.000000	 62.832617 
915.000000	 62.838172 
914.000000	 62.857198 
913.000000	 62.887144 
912.000000	 62.922930 
911.000000	 62.958145 
910.000000	 62.985897 
909.000000	 63.000702 
908.000000	 62.999081 
907.000000	 62.981104 
906.000000	 62.950205 
905.000000	 62.912416 
904.000000	 62.875032 
903.000000	 62.845134 
902.000000	 62.828016 
901.000000	 62.826442 
900.000000	 62.840056 
899.000000	 62.865924 
898.000000	 62.899327 
897.000000	 62.935066 
896.000000	 62.968349 
895.000000	 62.995409 
894.000000	 63.013982 
893.000000	 63.023209 
892.000000	 63.023686 
891.000000	 63.016819 
890.000000	 63.004398 
889.000000	 62.988638 
888.000000	 62.971067 
887.000000	 62.953019 
886.000000	 62.934803 
885.000000	 62.916398 
884.000000	 62.897276 
883.000000	 62.877011 
882.000000	 62.855386 
881.000000	 62.832713 
880.000000	 62.810158 
879.000000	 62.789440 
878.000000	 62.772607 
877.000000	 62.761378 
876.000000	 62.757086 
875.000000	 62.760305 
874.000000	 62.770748 
873.000000	 62.787532 
872.000000	 62.809658 
871.000000	 62.836074 
870.000000	 62.866282 
869.000000	 62.899732 
868.000000	 62.935638 
867.000000	 62.972307 
866.000000	 63.006997 
865.000000	 63.035988 
864.000000	 63.055276 
863.000000	 63.061094 
862.000000	 63.051223 
861.000000	 63.025569 
860.000000	 62.986564 
859.000000	 62.938785 
858.000000	 62.888574 
857.000000	 62.842106 
856.000000	 62.804508 
855.000000	 62.778568 
854.000000	 62.764644 
853.000000	 62.760496 
852.000000	 62.762022 
851.000000	 62.764763 
850.000000	 62.765192 
849.000000	 62.761640 
848.000000	 62.754750 
847.000000	 62.746953 
846.000000	 62.741851 
845.000000	 62.743067 
844.000000	 62.752962 
843.000000	 62.771987 
842.000000	 62.798452 
841.000000	 62.828922 
840.000000	 62.859106 
839.000000	 62.884688 
838.000000	 62.902283 
837.000000	 62.910270 
836.000000	 62.909007 
835.000000	 62.900137 
834.000000	 62.886595 
833.000000	 62.871646 
832.000000	 62.858819 
831.000000	 62.850809 
830.000000	 62.849831 
829.000000	 62.857389 
828.000000	 62.874364 
827.000000	 62.901067 
826.000000	 62.936758 
825.000000	 62.979364 
824.000000	 63.025689 
823.000000	 63.071680 
822.000000	 63.112854 
821.000000	 63.144731 
820.000000	 63.164067 
819.000000	 63.169193 
818.000000	 63.160371 
817.000000	 63.139772 
816.000000	 63.110995 
815.000000	 63.078212 
814.000000	 63.045716 
813.000000	 63.016462 
812.000000	 62.992596 
811.000000	 62.974262 
810.000000	 62.960338 
809.000000	 62.948489 
808.000000	 62.935972 
807.000000	 62.920594 
806.000000	 62.901425 
805.000000	 62.879371 
804.000000	 62.856316 
803.000000	 62.835454 
802.000000	 62.820100 
801.000000	 62.813305 
800.000000	 62.816619 
799.000000	 62.830257 
798.000000	 62.853074 
797.000000	 62.882757 
796.000000	 62.916135 
795.000000	 62.949991 
794.000000	 62.981319 
793.000000	 63.007664 
792.000000	 63.027405 
791.000000	 63.039827 
790.000000	 63.045382 
789.000000	 63.045358 
788.000000	 63.041853 
787.000000	 63.037490 
786.000000	 63.034677 
785.000000	 63.035964 
784.000000	 63.042449 
783.000000	 63.053774 
782.000000	 63.067841 
781.000000	 63.081550 
780.000000	 63.090872 
779.000000	 63.091778 
778.000000	 63.081026 
777.000000	 63.057184 
776.000000	 63.020610 
775.000000	 62.973475 
774.000000	 62.919425 
773.000000	 62.862873 
772.000000	 62.808203 
771.000000	 62.759280 
770.000000	 62.719035 
769.000000	 62.689328 
768.000000	 62.670874 
767.000000	 62.663602 
766.000000	 62.666463 
765.000000	 62.678027 
764.000000	 62.696576 
763.000000	 62.720537 
762.000000	 62.748074 
761.000000	 62.777590 
760.000000	 62.807869 
759.000000	 62.838196 
758.000000	 62.867951 
757.000000	 62.896633 
756.000000	 62.923836 
755.000000	 62.948942 
754.000000	 62.971234 
753.000000	 62.989711 
752.000000	 63.003396 
751.000000	 63.011598 
750.000000	 63.014388 
749.000000	 63.012599 
748.000000	 63.008022 
747.000000	 63.002920 
746.000000	 62.999868 
745.000000	 63.001108 
744.000000	 63.008093 
743.000000	 63.021254 
742.000000	 63.039779 
741.000000	 63.061857 
740.000000	 63.085079 
739.000000	 63.106942 
738.000000	 63.125371 
737.000000	 63.138628 
736.000000	 63.145327 
735.000000	 63.144588 
734.000000	 63.135671 
733.000000	 63.118100 
732.000000	 63.091492 
731.000000	 63.056087 
730.000000	 63.012814 
729.000000	 62.963938 
728.000000	 62.912774 
727.000000	 62.863492 
726.000000	 62.820243 
725.000000	 62.786960 
724.000000	 62.765765 
723.000000	 62.756586 
722.000000	 62.757015 
721.000000	 62.762904 
720.000000	 62.769079 
719.000000	 62.770390 
718.000000	 62.762999 
717.000000	 62.745285 
716.000000	 62.718129 
715.000000	 62.684583 
714.000000	 62.649297 
713.000000	 62.617444 
712.000000	 62.593293 
711.000000	 62.579369 
710.000000	 62.576079 
709.000000	 62.581586 
708.000000	 62.592530 
707.000000	 62.604618 
706.000000	 62.614202 
705.000000	 62.618494 
704.000000	 62.616562 
703.000000	 62.608814 
702.000000	 62.596535 
701.000000	 62.581276 
700.000000	 62.564492 
699.000000	 62.546777 
698.000000	 62.527704 
697.000000	 62.506365 
696.000000	 62.482309 
695.000000	 62.455654 
694.000000	 62.427854 
693.000000	 62.401270 
692.000000	 62.379169 
691.000000	 62.364244 
690.000000	 62.357950 
689.000000	 62.359714 
688.000000	 62.366795 
687.000000	 62.374997 
686.000000	 62.379670 
685.000000	 62.376976 
684.000000	 62.364912 
683.000000	 62.343525 
682.000000	 62.315511 
681.000000	 62.284946 
680.000000	 62.257075 
679.000000	 62.236666 
678.000000	 62.227582 
677.000000	 62.231850 
676.000000	 62.249660 
675.000000	 62.279415 
674.000000	 62.318158 
673.000000	 62.362313 
672.000000	 62.407875 
671.000000	 62.450838 
670.000000	 62.487888 
669.000000	 62.516331 
668.000000	 62.534856 
667.000000	 62.543272 
666.000000	 62.542533 
665.000000	 62.534570 
664.000000	 62.521529 
663.000000	 62.505197 
662.000000	 62.486815 
661.000000	 62.467145 
660.000000	 62.446689 
659.000000	 62.425875 
658.000000	 62.405753 
657.000000	 62.387609 
656.000000	 62.372994 
655.000000	 62.363266 
654.000000	 62.358617 
653.000000	 62.358617 
652.000000	 62.362051 
651.000000	 62.368035 
650.000000	 62.375593 
649.000000	 62.384843 
648.000000	 62.397217 
647.000000	 62.414479 
646.000000	 62.438392 
645.000000	 62.469577 
644.000000	 62.506628 
643.000000	 62.545967 
642.000000	 62.582325 
641.000000	 62.610006 
640.000000	 62.623906 
639.000000	 62.621665 
638.000000	 62.604475 
637.000000	 62.576770 
636.000000	 62.545156 
635.000000	 62.516856 
634.000000	 62.497711 
633.000000	 62.491154 
632.000000	 62.497115 
631.000000	 62.512373 
630.000000	 62.531280 
629.000000	 62.547254 
628.000000	 62.554097 
627.000000	 62.547564 
626.000000	 62.525844 
625.000000	 62.489676 
624.000000	 62.441802 
623.000000	 62.385821 
622.000000	 62.325549 
621.000000	 62.263584 
620.000000	 62.202596 
619.000000	 62.143993 
618.000000	 62.091231 
617.000000	 62.049484 
616.000000	 62.026405 
615.000000	 62.029910 
614.000000	 62.067413 
613.000000	 62.143445 
612.000000	 62.256956 
611.000000	 62.400126 
610.000000	 62.558412 
609.000000	 62.712788 
608.000000	 62.842893 
607.000000	 62.931394 
606.000000	 62.967538 
605.000000	 62.949371 
604.000000	 62.884640 
603.000000	 62.788653 
602.000000	 62.680196 
601.000000	 62.577438 
600.000000	 62.494993 
599.000000	 62.441229 
598.000000	 62.419056 
597.000000	 62.424802 
596.000000	 62.452936 
595.000000	 62.494373 
594.000000	 62.539386 
593.000000	 62.577342 
592.000000	 62.597703 
591.000000	 62.591600 
590.000000	 62.551999 
589.000000	 62.476658 
588.000000	 62.368416 
587.000000	 62.235879 
586.000000	 62.092089 
585.000000	 61.952662 
584.000000	 61.833357 
583.000000	 61.747241 
582.000000	 61.702585 
581.000000	 61.701226 
580.000000	 61.738634 
579.000000	 61.805582 
578.000000	 61.890625 
577.000000	 61.981511 
576.000000	 62.068319 
575.000000	 62.145018 
574.000000	 62.209987 
573.000000	 62.264060 
572.000000	 62.309813 
571.000000	 62.349605 
570.000000	 62.384772 
569.000000	 62.415599 
568.000000	 62.441396 
567.000000	 62.461233 
566.000000	 62.474775 
565.000000	 62.483763 
564.000000	 62.491202 
563.000000	 62.501525 
562.000000	 62.518215 
561.000000	 62.542939 
560.000000	 62.574410 
559.000000	 62.608957 
558.000000	 62.641096 
557.000000	 62.665033 
556.000000	 62.676787 
555.000000	 62.675118 
554.000000	 62.662649 
553.000000	 62.645125 
552.000000	 62.628102 
551.000000	 62.614893 
550.000000	 62.605452 
549.000000	 62.595915 
548.000000	 62.579011 
547.000000	 62.546873 
546.000000	 62.493419 
545.000000	 62.417554 
544.000000	 62.324976 
543.000000	 62.227463 
542.000000	 62.140870 
541.000000	 62.080216 
540.000000	 62.055349 
539.000000	 62.067317 
538.000000	 62.108182 
537.000000	 62.161850 
536.000000	 62.209057 
535.000000	 62.230944 
534.000000	 62.212848 
533.000000	 62.149381 
532.000000	 62.045454 
531.000000	 61.915183 
530.000000	 61.776924 
529.000000	 61.653351 
528.000000	 61.565947 
527.000000	 61.532711 
526.000000	 61.564564 
525.000000	 61.662077 
524.000000	 61.814880 
523.000000	 62.003684 
522.000000	 62.204122 
521.000000	 62.388253 
520.000000	 62.532496 
519.000000	 62.621140 
518.000000	 62.652182 
517.000000	 62.637066 
516.000000	 62.598752 
515.000000	 62.567901 
514.000000	 62.571644 
513.000000	 62.629890 
512.000000	 62.743043 
511.000000	 62.896609 
510.000000	 63.055348 
509.000000	 63.174676 
508.000000	 63.206982 
507.000000	 63.115859 
506.000000	 62.883996 
505.000000	 62.518596 
504.000000	 62.053465 
503.000000	 61.541461 
502.000000	 61.049938 
501.000000	 60.647130 
500.000000	 60.391402 
499.000000	 60.320019 
498.000000	 60.445857 
497.000000	 60.755419 
496.000000	 61.211943 
495.000000	 61.762189 
494.000000	 62.344026 
493.000000	 62.896680 
492.000000	 63.366317 
491.000000	 63.714981 
490.000000	 63.921976 
489.000000	 63.986539 
488.000000	 63.924789 
487.000000	 63.765573 
486.000000	 63.546609 
485.000000	 63.306331 
484.000000	 63.082480 
483.000000	 62.902879 
482.000000	 62.788486 
481.000000	 62.744998 
480.000000	 62.768745 
479.000000	 62.842321 
478.000000	 62.941670 
477.000000	 63.035583 
476.000000	 63.091254 
475.000000	 63.081407 
474.000000	 62.989711 
473.000000	 62.814784 
472.000000	 62.570786 
471.000000	 62.284731 
470.000000	 61.991691 
469.000000	 61.729979 
468.000000	 61.534261 
467.000000	 61.429286 
466.000000	 61.425757 
465.000000	 61.519598 
464.000000	 61.692333 
463.000000	 61.916232 
462.000000	 62.158727 
461.000000	 62.385129 
460.000000	 62.566709 
459.000000	 62.686467 
458.000000	 62.737584 
457.000000	 62.724566 
456.000000	 62.654638 
455.000000	 62.534976 
454.000000	 62.367343 
453.000000	 62.151432 
452.000000	 61.882400 
451.000000	 61.555743 
450.000000	 61.174345 
449.000000	 60.753774 
448.000000	 60.322165 
447.000000	 59.917998 
446.000000	 59.582996 
445.000000	 59.353661 
444.000000	 59.257149 
443.000000	 59.304952 
442.000000	 59.488892 
441.000000	 59.782338 
440.000000	 60.144019 
439.000000	 60.525941 
438.000000	 60.879826 
437.000000	 61.166524 
436.000000	 61.358523 
435.000000	 61.445903 
434.000000	 61.433315 
433.000000	 61.340618 
432.000000	 61.195349 
431.000000	 61.031675 
430.000000	 60.879373 
429.000000	 60.768580 
428.000000	 60.733294 
427.000000	 60.799384 
426.000000	 60.981321 
425.000000	 61.276459 
424.000000	 61.667585 
423.000000	 62.115359 
422.000000	 62.566709 
421.000000	 62.953853 
420.000000	 63.205170 
419.000000	 63.266563 
418.000000	 63.114929 
417.000000	 62.757062 
416.000000	 62.230181 
415.000000	 61.601996 
414.000000	 60.956907 
413.000000	 60.378003 
412.000000	 59.933328 
411.000000	 59.660863 
410.000000	 59.565329 
409.000000	 59.641551 
408.000000	 59.858226 
407.000000	 60.167407 
406.000000	 60.495066 
405.000000	 60.769414 
404.000000	 60.901522 
403.000000	 60.787224 
402.000000	 60.334420 
401.000000	 59.484052 
400.000000	 58.235120 
399.000000	 56.637573 
398.000000	 54.829692 
397.000000	 53.012323 
396.000000	 51.441025 
395.000000	 50.377607 
394.000000	 50.037026 
393.000000	 50.530219 
392.000000	 51.865792 
391.000000	 53.940200 
390.000000	 56.542158 
389.000000	 59.377717 
388.000000	 62.133622 
387.000000	 64.505958 
386.000000	 66.223978 
385.000000	 67.072367 
384.000000	 66.924786 
383.000000	 65.738320 
382.000000	 63.576412 
381.000000	 60.572695 
380.000000	 56.945633 
379.000000	 52.929258 
378.000000	 48.806381 
377.000000	 44.802856 
376.000000	 41.081333 
375.000000	 37.718653 
374.000000	 34.701561 
373.000000	 32.008957 
372.000000	 29.590749 
371.000000	 27.531957 
370.000000	 26.018404 

