PE IR       SPECTRUM    SPECTRUM    ASCII       PEDS        1.60        
  -1
BZ6E23~1.ASC
17/04/07
15:23:42.00
17/04/07
15:23:42.00
tln
$BZ1503107-1_t0026$<tbV0>[5.2,-7.8,8.0,0.0,27,1,0]
370.000000
64









2002,4.07    
MIRTGS : RIGHTBACK : INTERNAL 2
MIR : ON : INTERNAL 2
OPTKBR

0.200000
8
8.000000
FILLER
RATIO
SPECTRUM
UNLOCKED 256

DOUBLE
64
COMBINED
1
0
0


1.000000
RATIO


1
0
TRUE
51149
0
LEFT NOT FITTED RIGHT NOT FITTED 0
NONE
NONE
15600
12.000000
4.427000
51148
TRUE
1 0 8 72 0 0 0 0 

15798.010000






#HDR
-1
-1
#GR
CM-1
%T
0.00002384185791015625
0.0
5000.000000
-1.000000
4631
8
83.397316
41.624712
#DATA
5000.000000	66.142249 
4999.000000	65.882897 
4998.000000	65.626311 
4997.000000	65.389227 
4996.000000	65.183663 
4995.000000	65.018987 
4994.000000	64.899706 
4993.000000	64.826488 
4992.000000	64.795970 
4991.000000	64.800810 
4990.000000	64.831519 
4989.000000	64.875793 
4988.000000	64.922547 
4987.000000	64.961957 
4986.000000	64.987778 
4985.000000	64.996647 
4984.000000	64.988875 
4983.000000	64.967322 
4982.000000	64.935755 
4981.000000	64.897847 
4980.000000	64.857983 
4979.000000	64.820194 
4978.000000	64.788937 
4977.000000	64.767146 
4976.000000	64.756965 
4975.000000	64.757037 
4974.000000	64.762926 
4973.000000	64.766001 
4972.000000	64.754796 
4971.000000	64.718031 
4970.000000	64.646792 
4969.000000	64.539027 
4968.000000	64.399862 
4967.000000	64.243483 
4966.000000	64.090633 
4965.000000	63.964486 
4964.000000	63.884663 
4963.000000	63.863849 
4962.000000	63.904309 
4961.000000	63.997721 
4960.000000	64.126729 
4959.000000	64.269948 
4958.000000	64.406633 
4957.000000	64.520764 
4956.000000	64.603471 
4955.000000	64.653491 
4954.000000	64.675998 
4953.000000	64.679098 
4952.000000	64.671254 
4951.000000	64.659500 
4950.000000	64.648151 
4949.000000	64.640450 
4948.000000	64.637255 
4947.000000	64.640808 
4946.000000	64.651203 
4945.000000	64.667415 
4944.000000	64.685320 
4943.000000	64.697957 
4942.000000	64.697241 
4941.000000	64.675021 
4940.000000	64.627003 
4939.000000	64.554023 
4938.000000	64.463853 
4937.000000	64.369225 
4936.000000	64.286470 
4935.000000	64.231204 
4934.000000	64.215826 
4933.000000	64.246273 
4932.000000	64.322090 
4931.000000	64.436388 
4930.000000	64.578843 
4929.000000	64.737629 
4928.000000	64.901304 
4927.000000	65.059781 
4926.000000	65.204763 
4925.000000	65.329504 
4924.000000	65.426945 
4923.000000	65.490722 
4922.000000	65.516829 
4921.000000	65.504455 
4920.000000	65.458488 
4919.000000	65.387988 
4918.000000	65.306878 
4917.000000	65.229678 
4916.000000	65.170097 
4915.000000	65.136861 
4914.000000	65.132784 
4913.000000	65.153789 
4912.000000	65.191221 
4911.000000	65.233469 
4910.000000	65.269184 
4909.000000	65.290236 
4908.000000	65.293407 
4907.000000	65.280556 
4906.000000	65.257263 
4905.000000	65.230751 
4904.000000	65.207171 
4903.000000	65.189909 
4902.000000	65.178751 
4901.000000	65.170145 
4900.000000	65.158367 
4899.000000	65.137958 
4898.000000	65.105175 
4897.000000	65.058779 
4896.000000	65.000414 
4895.000000	64.934086 
4894.000000	64.865469 
4893.000000	64.799427 
4892.000000	64.740395 
4891.000000	64.691185 
4890.000000	64.654278 
4889.000000	64.631032 
4888.000000	64.623522 
4887.000000	64.633750 
4886.000000	64.664292 
4885.000000	64.716792 
4884.000000	64.790964 
4883.000000	64.883255 
4882.000000	64.986443 
4881.000000	65.089964 
4880.000000	65.181255 
4879.000000	65.247893 
4878.000000	65.279722 
4877.000000	65.271043 
4876.000000	65.222072 
4875.000000	65.139245 
4874.000000	65.034461 
4873.000000	64.923024 
4872.000000	64.821386 
4871.000000	64.744067 
4870.000000	64.701962 
4869.000000	64.699935 
4868.000000	64.736390 
4867.000000	64.803624 
4866.000000	64.889407 
4865.000000	64.979910 
4864.000000	65.061593 
4863.000000	65.124559 
4862.000000	65.163516 
4861.000000	65.178680 
4860.000000	65.174174 
4859.000000	65.157032 
4858.000000	65.135121 
4857.000000	65.114545 
4856.000000	65.098786 
4855.000000	65.087413 
4854.000000	65.077567 
4853.000000	65.064263 
4852.000000	65.043091 
4851.000000	65.010976 
4850.000000	64.967441 
4849.000000	64.915132 
4848.000000	64.859342 
4847.000000	64.806365 
4846.000000	64.762139 
4845.000000	64.731144 
4844.000000	64.715576 
4843.000000	64.715051 
4842.000000	64.726829 
4841.000000	64.746022 
4840.000000	64.767360 
4839.000000	64.785957 
4838.000000	64.798879 
4837.000000	64.805388 
4836.000000	64.807534 
4835.000000	64.808702 
4834.000000	64.813232 
4833.000000	64.824986 
4832.000000	64.845967 
4831.000000	64.875745 
4830.000000	64.911127 
4829.000000	64.947319 
4828.000000	64.978265 
4827.000000	64.998745 
4826.000000	65.004491 
4825.000000	64.993119 
4824.000000	64.964103 
4823.000000	64.919137 
4822.000000	64.861226 
4821.000000	64.794301 
4820.000000	64.722895 
4819.000000	64.651966 
4818.000000	64.586663 
4817.000000	64.532113 
4816.000000	64.492964 
4815.000000	64.472770 
4814.000000	64.472866 
4813.000000	64.492106 
4812.000000	64.526200 
4811.000000	64.569067 
4810.000000	64.613389 
4809.000000	64.652562 
4808.000000	64.681363 
4807.000000	64.697432 
4806.000000	64.701008 
4805.000000	64.695191 
4804.000000	64.684367 
4803.000000	64.673447 
4802.000000	64.666962 
4801.000000	64.667868 
4800.000000	64.677453 
4799.000000	64.695000 
4798.000000	64.718413 
4797.000000	64.744257 
4796.000000	64.768934 
4795.000000	64.788818 
4794.000000	64.800858 
4793.000000	64.803194 
4792.000000	64.795303 
4791.000000	64.777898 
4790.000000	64.752721 
4789.000000	64.722752 
4788.000000	64.691281 
4787.000000	64.661049 
4786.000000	64.633631 
4785.000000	64.609670 
4784.000000	64.588999 
4783.000000	64.570856 
4782.000000	64.554643 
4781.000000	64.540338 
4780.000000	64.528703 
4779.000000	64.520716 
4778.000000	64.517402 
4777.000000	64.518761 
4776.000000	64.524269 
4775.000000	64.532685 
4774.000000	64.542365 
4773.000000	64.551305 
4772.000000	64.558148 
4771.000000	64.562463 
4770.000000	64.564847 
4769.000000	64.566802 
4768.000000	64.570498 
4767.000000	64.578080 
4766.000000	64.591407 
4765.000000	64.611697 
4764.000000	64.639520 
4763.000000	64.674711 
4762.000000	64.716553 
4761.000000	64.763855 
4760.000000	64.814734 
4759.000000	64.866948 
4758.000000	64.917945 
4757.000000	64.965486 
4756.000000	65.008282 
4755.000000	65.045475 
4754.000000	65.077424 
4753.000000	65.103673 
4752.000000	65.123653 
4751.000000	65.134787 
4750.000000	65.133857 
4749.000000	65.116715 
4748.000000	65.080046 
4747.000000	65.022683 
4746.000000	64.947080 
4745.000000	64.859294 
4744.000000	64.768552 
4743.000000	64.685940 
4742.000000	64.622306 
4741.000000	64.585638 
4740.000000	64.579272 
4739.000000	64.601564 
4738.000000	64.646530 
4737.000000	64.705300 
4736.000000	64.768362 
4735.000000	64.827394 
4734.000000	64.876484 
4733.000000	64.912199 
4732.000000	64.933562 
4731.000000	64.940047 
4730.000000	64.931821 
4729.000000	64.909601 
4728.000000	64.874577 
4727.000000	64.828920 
4726.000000	64.775919 
4725.000000	64.720606 
4724.000000	64.668941 
4723.000000	64.626860 
4722.000000	64.599990 
4721.000000	64.592027 
4720.000000	64.605164 
4719.000000	64.638805 
4718.000000	64.691567 
4717.000000	64.760947 
4716.000000	64.844918 
4715.000000	64.941596 
4714.000000	65.049171 
4713.000000	65.164971 
4712.000000	65.285325 
4711.000000	65.404796 
4710.000000	65.516495 
4709.000000	65.612244 
4708.000000	65.684366 
4707.000000	65.726208 
4706.000000	65.733647 
4705.000000	65.705323 
4704.000000	65.643501 
4703.000000	65.553736 
4702.000000	65.445137 
4701.000000	65.328431 
4700.000000	65.215468 
4699.000000	65.116572 
4698.000000	65.040135 
4697.000000	64.990234 
4696.000000	64.966917 
4695.000000	64.966034 
4694.000000	64.980196 
4693.000000	65.001368 
4692.000000	65.021562 
4691.000000	65.036010 
4690.000000	65.043044 
4689.000000	65.044879 
4688.000000	65.045881 
4687.000000	65.051078 
4686.000000	65.063929 
4685.000000	65.084743 
4684.000000	65.110111 
4683.000000	65.134668 
4682.000000	65.152454 
4681.000000	65.158724 
4680.000000	65.151071 
4679.000000	65.130925 
4678.000000	65.102362 
4677.000000	65.070700 
4676.000000	65.040564 
4675.000000	65.014982 
4674.000000	64.993953 
4673.000000	64.975094 
4672.000000	64.954400 
4671.000000	64.927530 
4670.000000	64.892220 
4669.000000	64.848995 
4668.000000	64.802098 
4667.000000	64.757776 
4666.000000	64.724040 
4665.000000	64.707803 
4664.000000	64.714193 
4663.000000	64.744687 
4662.000000	64.796829 
4661.000000	64.864563 
4660.000000	64.938855 
4659.000000	65.009713 
4658.000000	65.067434 
4657.000000	65.104627 
4656.000000	65.117311 
4655.000000	65.105628 
4654.000000	65.073680 
4653.000000	65.028238 
4652.000000	64.977407 
4651.000000	64.928793 
4650.000000	64.888215 
4649.000000	64.858937 
4648.000000	64.841890 
4647.000000	64.835882 
4646.000000	64.839124 
4645.000000	64.849257 
4644.000000	64.864158 
4643.000000	64.882016 
4642.000000	64.901304 
4641.000000	64.920234 
4640.000000	64.936041 
4639.000000	64.945769 
4638.000000	64.946293 
4637.000000	64.935731 
4636.000000	64.914011 
4635.000000	64.883708 
4634.000000	64.849877 
4633.000000	64.819002 
4632.000000	64.797544 
4631.000000	64.790391 
4630.000000	64.799213 
4629.000000	64.822244 
4628.000000	64.854216 
4627.000000	64.887785 
4626.000000	64.915251 
4625.000000	64.930200 
4624.000000	64.928984 
4623.000000	64.911389 
4622.000000	64.880609 
4621.000000	64.842104 
4620.000000	64.802670 
4619.000000	64.768481 
4618.000000	64.744400 
4617.000000	64.733123 
4616.000000	64.735245 
4615.000000	64.749574 
4614.000000	64.773607 
4613.000000	64.804387 
4612.000000	64.838790 
4611.000000	64.873790 
4610.000000	64.906454 
4609.000000	64.933896 
4608.000000	64.953637 
4607.000000	64.963936 
4606.000000	64.964318 
4605.000000	64.955854 
4604.000000	64.941811 
4603.000000	64.927077 
4602.000000	64.917588 
4601.000000	64.918613 
4600.000000	64.934277 
4599.000000	64.965867 
4598.000000	65.011215 
4597.000000	65.064358 
4596.000000	65.117239 
4595.000000	65.160560 
4594.000000	65.185976 
4593.000000	65.187573 
4592.000000	65.163159 
4591.000000	65.115094 
4590.000000	65.049195 
4589.000000	64.974379 
4588.000000	64.900541 
4587.000000	64.837336 
4586.000000	64.792656 
4585.000000	64.771318 
4584.000000	64.774680 
4583.000000	64.800524 
4582.000000	64.844107 
4581.000000	64.898753 
4580.000000	64.957165 
4579.000000	65.013217 
4578.000000	65.062975 
4577.000000	65.105247 
4576.000000	65.141129 
4575.000000	65.173387 
4574.000000	65.205454 
4573.000000	65.240287 
4572.000000	65.279698 
4571.000000	65.323781 
4570.000000	65.370798 
4569.000000	65.418815 
4568.000000	65.465259 
4567.000000	65.508413 
4566.000000	65.546488 
4565.000000	65.578889 
4564.000000	65.604448 
4563.000000	65.622091 
4562.000000	65.629410 
4561.000000	65.623450 
4560.000000	65.600991 
4559.000000	65.560364 
4558.000000	65.501666 
4557.000000	65.427803 
4556.000000	65.344023 
4555.000000	65.257287 
4554.000000	65.175557 
4553.000000	65.106534 
4552.000000	65.057015 
4551.000000	65.032100 
4550.000000	65.034699 
4549.000000	65.065360 
4548.000000	65.122151 
4547.000000	65.200924 
4546.000000	65.295433 
4545.000000	65.398216 
4544.000000	65.501499 
4543.000000	65.597963 
4542.000000	65.681910 
4541.000000	65.749168 
4540.000000	65.797853 
4539.000000	65.826773 
4538.000000	65.836262 
4537.000000	65.826010 
4536.000000	65.796113 
4535.000000	65.745902 
4534.000000	65.675806 
4533.000000	65.587663 
4532.000000	65.486073 
4531.000000	65.378713 
4530.000000	65.275788 
4529.000000	65.188622 
4528.000000	65.127682 
4527.000000	65.100336 
4526.000000	65.109300 
4525.000000	65.152478 
4524.000000	65.223550 
4523.000000	65.313720 
4522.000000	65.413594 
4521.000000	65.515255 
4520.000000	65.613651 
4519.000000	65.706491 
4518.000000	65.793681 
4517.000000	65.875983 
4516.000000	65.953469 
4515.000000	66.024589 
4514.000000	66.085600 
4513.000000	66.132283 
4512.000000	66.159844 
4511.000000	66.165685 
4510.000000	66.149258 
4509.000000	66.114091 
4508.000000	66.065859 
4507.000000	66.012167 
4506.000000	65.959978 
4505.000000	65.914964 
4504.000000	65.879893 
4503.000000	65.855026 
4502.000000	65.837812 
4501.000000	65.824341 
4500.000000	65.810441 
4499.000000	65.793371 
4498.000000	65.771555 
4497.000000	65.745019 
4496.000000	65.715169 
4495.000000	65.684390 
4494.000000	65.655255 
4493.000000	65.630602 
4492.000000	65.612649 
4491.000000	65.603303 
4490.000000	65.604901 
4489.000000	65.618991 
4488.000000	65.646338 
4487.000000	65.685296 
4486.000000	65.731573 
4485.000000	65.778040 
4484.000000	65.815186 
4483.000000	65.833449 
4482.000000	65.825271 
4481.000000	65.787458 
4480.000000	65.722680 
4479.000000	65.638875 
4478.000000	65.546846 
4477.000000	65.459036 
4476.000000	65.385794 
4475.000000	65.335726 
4474.000000	65.314745 
4473.000000	65.325474 
4472.000000	65.367078 
4471.000000	65.434718 
4470.000000	65.520310 
4469.000000	65.613245 
4468.000000	65.701913 
4467.000000	65.777564 
4466.000000	65.835475 
4465.000000	65.871930 
4464.000000	65.885400 
4463.000000	65.881419 
4462.000000	65.868592 
4461.000000	65.850257 
4460.000000	65.827465 
4459.000000	65.805625 
4458.000000	65.790772 
4457.000000	65.780329 
4456.000000	65.773630 
4455.000000	65.783119 
4454.000000	65.819883 
4453.000000	65.893125 
4452.000000	65.999078 
4451.000000	66.114282 
4450.000000	66.206860 
4449.000000	66.247344 
4448.000000	66.212153 
4447.000000	66.086530 
4446.000000	65.883588 
4445.000000	65.644478 
4444.000000	65.420007 
4443.000000	65.253829 
4442.000000	65.170812 
4441.000000	65.162324 
4440.000000	65.174508 
4439.000000	65.115404 
4438.000000	64.883041 
4437.000000	64.381146 
4436.000000	63.564038 
4435.000000	62.420940 
4434.000000	61.002326 
4433.000000	59.367752 
4432.000000	57.551050 
4431.000000	55.566978 
4430.000000	53.377366 
4429.000000	50.985264 
4428.000000	48.444652 
4427.000000	45.932102 
4426.000000	43.724179 
4425.000000	42.176294 
4424.000000	41.624712 
4423.000000	42.319607 
4422.000000	44.315576 
4421.000000	47.482728 
4420.000000	51.501321 
4419.000000	55.936527 
4418.000000	60.314798 
4417.000000	64.207458 
4416.000000	67.299580 
4415.000000	69.425702 
4414.000000	70.576047 
4413.000000	70.875930 
4412.000000	70.535182 
4411.000000	69.813084 
4410.000000	68.948674 
4409.000000	68.139362 
4408.000000	67.494249 
4407.000000	67.074632 
4406.000000	66.867089 
4405.000000	66.830492 
4404.000000	66.894698 
4403.000000	66.998147 
4402.000000	67.090463 
4401.000000	67.131090 
4400.000000	67.104077 
4399.000000	67.008185 
4398.000000	66.859984 
4397.000000	66.677141 
4396.000000	66.483211 
4395.000000	66.301250 
4394.000000	66.149401 
4393.000000	66.038370 
4392.000000	65.971350 
4391.000000	65.944552 
4390.000000	65.953063 
4389.000000	65.994310 
4388.000000	66.058635 
4387.000000	66.130137 
4386.000000	66.202163 
4385.000000	66.274785 
4384.000000	66.339302 
4383.000000	66.382265 
4382.000000	66.394734 
4381.000000	66.370773 
4380.000000	66.309070 
4379.000000	66.212415 
4378.000000	66.085958 
4377.000000	65.937089 
4376.000000	65.778231 
4375.000000	65.620946 
4374.000000	65.473723 
4373.000000	65.340995 
4372.000000	65.224194 
4371.000000	65.121555 
4370.000000	65.029931 
4369.000000	64.946460 
4368.000000	64.869165 
4367.000000	64.799165 
4366.000000	64.739370 
4365.000000	64.695024 
4364.000000	64.671206 
4363.000000	64.672327 
4362.000000	64.699840 
4361.000000	64.752411 
4360.000000	64.825367 
4359.000000	64.911222 
4358.000000	65.001177 
4357.000000	65.085864 
4356.000000	65.157628 
4355.000000	65.211510 
4354.000000	65.246510 
4353.000000	65.265226 
4352.000000	65.273451 
4351.000000	65.278506 
4350.000000	65.287494 
4349.000000	65.306496 
4348.000000	65.338206 
4347.000000	65.381836 
4346.000000	65.432524 
4345.000000	65.484380 
4344.000000	65.529680 
4343.000000	65.560936 
4342.000000	65.572285 
4341.000000	65.561532 
4340.000000	65.529179 
4339.000000	65.478444 
4338.000000	65.414452 
4337.000000	65.343499 
4336.000000	65.271186 
4335.000000	65.201735 
4334.000000	65.137648 
4333.000000	65.080189 
4332.000000	65.029883 
4331.000000	64.987301 
4330.000000	64.953184 
4329.000000	64.929056 
4328.000000	64.916419 
4327.000000	64.917254 
4326.000000	64.931440 
4325.000000	64.958381 
4324.000000	64.996027 
4323.000000	65.042114 
4322.000000	65.093493 
4321.000000	65.147280 
4320.000000	65.201067 
4319.000000	65.252995 
4318.000000	65.301275 
4317.000000	65.344452 
4316.000000	65.381217 
4315.000000	65.410447 
4314.000000	65.431404 
4313.000000	65.443944 
4312.000000	65.448975 
4311.000000	65.448021 
4310.000000	65.443134 
4309.000000	65.436244 
4308.000000	65.428757 
4307.000000	65.421342 
4306.000000	65.413880 
4305.000000	65.405249 
4304.000000	65.394067 
4303.000000	65.379714 
4302.000000	65.362620 
4301.000000	65.344095 
4300.000000	65.326285 
4299.000000	65.311598 
4298.000000	65.301752 
4297.000000	65.297150 
4296.000000	65.296673 
4295.000000	65.297698 
4294.000000	65.297269 
4293.000000	65.292859 
4292.000000	65.283155 
4291.000000	65.268683 
4290.000000	65.251302 
4289.000000	65.233945 
4288.000000	65.219187 
4287.000000	65.208029 
4286.000000	65.199828 
4285.000000	65.192341 
4284.000000	65.182375 
4283.000000	65.166997 
4282.000000	65.144896 
4281.000000	65.117239 
4280.000000	65.087628 
4279.000000	65.061402 
4278.000000	65.044426 
4277.000000	65.041422 
4276.000000	65.054464 
4275.000000	65.082383 
4274.000000	65.120601 
4273.000000	65.162539 
4272.000000	65.201044 
4271.000000	65.230488 
4270.000000	65.248012 
4269.000000	65.254187 
4268.000000	65.252447 
4267.000000	65.247893 
4266.000000	65.245532 
4265.000000	65.248513 
4264.000000	65.257477 
4263.000000	65.269899 
4262.000000	65.281343 
4261.000000	65.286397 
4260.000000	65.281057 
4259.000000	65.263128 
4258.000000	65.233254 
4257.000000	65.194487 
4256.000000	65.151548 
4255.000000	65.109515 
4254.000000	65.072512 
4253.000000	65.043234 
4252.000000	65.022611 
4251.000000	65.010643 
4250.000000	65.006804 
4249.000000	65.010738 
4248.000000	65.022325 
4247.000000	65.041399 
4246.000000	65.067362 
4245.000000	65.098190 
4244.000000	65.130662 
4243.000000	65.160584 
4242.000000	65.183711 
4241.000000	65.196394 
4240.000000	65.196633 
4239.000000	65.184640 
4238.000000	65.162801 
4237.000000	65.135312 
4236.000000	65.107297 
4235.000000	65.083551 
4234.000000	65.067744 
4233.000000	65.061926 
4232.000000	65.066266 
4231.000000	65.079331 
4230.000000	65.098333 
4229.000000	65.120053 
4228.000000	65.141057 
4227.000000	65.158438 
4226.000000	65.169787 
4225.000000	65.173506 
4224.000000	65.168762 
4223.000000	65.155506 
4222.000000	65.134501 
4221.000000	65.107083 
4220.000000	65.074801 
4219.000000	65.039491 
4218.000000	65.002870 
4217.000000	64.967179 
4216.000000	64.934825 
4215.000000	64.909100 
4214.000000	64.893507 
4213.000000	64.891695 
4212.000000	64.906859 
4211.000000	64.940762 
4210.000000	64.992737 
4209.000000	65.059065 
4208.000000	65.133476 
4207.000000	65.207457 
4206.000000	65.271782 
4205.000000	65.317773 
4204.000000	65.338826 
4203.000000	65.332317 
4202.000000	65.300297 
4201.000000	65.248680 
4200.000000	65.185904 
4199.000000	65.121603 
4198.000000	65.064263 
4197.000000	65.019369 
4196.000000	64.988636 
4195.000000	64.970159 
4194.000000	64.959669 
4193.000000	64.952421 
4192.000000	64.944815 
4191.000000	64.935779 
4190.000000	64.926648 
4189.000000	64.920282 
4188.000000	64.919686 
4187.000000	64.925789 
4186.000000	64.937067 
4185.000000	64.948606 
4184.000000	64.954137 
4183.000000	64.946913 
4182.000000	64.923334 
4181.000000	64.883923 
4180.000000	64.834856 
4179.000000	64.786434 
4178.000000	64.751577 
4177.000000	64.742374 
4176.000000	64.767122 
4175.000000	64.827537 
4174.000000	64.918684 
4173.000000	65.029644 
4172.000000	65.146064 
4171.000000	65.253043 
4170.000000	65.338230 
4169.000000	65.394234 
4168.000000	65.419197 
4167.000000	65.416693 
4166.000000	65.394043 
4165.000000	65.359973 
4164.000000	65.323090 
4163.000000	65.289092 
4162.000000	65.260910 
4161.000000	65.237832 
4160.000000	65.217638 
4159.000000	65.197205 
4158.000000	65.174126 
4157.000000	65.147614 
4156.000000	65.118837 
4155.000000	65.090632 
4154.000000	65.066480 
4153.000000	65.049791 
4152.000000	65.042543 
4151.000000	65.045189 
4150.000000	65.056371 
4149.000000	65.073370 
4148.000000	65.092778 
4147.000000	65.110874 
4146.000000	65.124273 
4145.000000	65.130114 
4144.000000	65.126156 
4143.000000	65.110373 
4142.000000	65.081381 
4141.000000	65.038084 
4140.000000	64.980864 
4139.000000	64.912104 
4138.000000	64.836597 
4137.000000	64.761233 
4136.000000	64.694118 
4135.000000	64.643502 
4134.000000	64.615845 
4133.000000	64.614367 
4132.000000	64.638161 
4131.000000	64.681696 
4130.000000	64.736700 
4129.000000	64.793157 
4128.000000	64.842247 
4127.000000	64.877557 
4126.000000	64.897084 
4125.000000	64.902758 
4124.000000	64.900016 
4123.000000	64.895701 
4122.000000	64.896249 
4121.000000	64.905953 
4120.000000	64.926362 
4119.000000	64.956426 
4118.000000	64.993119 
4117.000000	65.032601 
4116.000000	65.071630 
4115.000000	65.108156 
4114.000000	65.141463 
4113.000000	65.171766 
4112.000000	65.199542 
4111.000000	65.224432 
4110.000000	65.245485 
4109.000000	65.260457 
4108.000000	65.266561 
4107.000000	65.260958 
4106.000000	65.242600 
4105.000000	65.212297 
4104.000000	65.173006 
4103.000000	65.129590 
4102.000000	65.088224 
4101.000000	65.054678 
4100.000000	65.033507 
4099.000000	65.026211 
4098.000000	65.031337 
4097.000000	65.044021 
4096.000000	65.057611 
4095.000000	65.064263 
4094.000000	65.056872 
4093.000000	65.030956 
4092.000000	64.985537 
4091.000000	64.923524 
4090.000000	64.851307 
4089.000000	64.777302 
4088.000000	64.710450 
4087.000000	64.658284 
4086.000000	64.625740 
4085.000000	64.614605 
4084.000000	64.623737 
4083.000000	64.649176 
4082.000000	64.685797 
4081.000000	64.728260 
4080.000000	64.772200 
4079.000000	64.814400 
4078.000000	64.853191 
4077.000000	64.887237 
4076.000000	64.915919 
4075.000000	64.938378 
4074.000000	64.953780 
4073.000000	64.961147 
4072.000000	64.959979 
4071.000000	64.950919 
4070.000000	64.935398 
4069.000000	64.915823 
4068.000000	64.895176 
4067.000000	64.876770 
4066.000000	64.863514 
4065.000000	64.857482 
4064.000000	64.859461 
4063.000000	64.868807 
4062.000000	64.883565 
4061.000000	64.900708 
4060.000000	64.916539 
4059.000000	64.927625 
4058.000000	64.931130 
4057.000000	64.926195 
4056.000000	64.913558 
4055.000000	64.896512 
4054.000000	64.879822 
4053.000000	64.869546 
4052.000000	64.871358 
4051.000000	64.889550 
4050.000000	64.925909 
4049.000000	64.979243 
4048.000000	65.045118 
4047.000000	65.116858 
4046.000000	65.186882 
4045.000000	65.248203 
4044.000000	65.295791 
4043.000000	65.327024 
4042.000000	65.341973 
4041.000000	65.342760 
4040.000000	65.332770 
4039.000000	65.315628 
4038.000000	65.294075 
4037.000000	65.270042 
4036.000000	65.244340 
4035.000000	65.216803 
4034.000000	65.186762 
4033.000000	65.153956 
4032.000000	65.118765 
4031.000000	65.082311 
4030.000000	65.046525 
4029.000000	65.013670 
4028.000000	64.986038 
4027.000000	64.965057 
4026.000000	64.951682 
4025.000000	64.945578 
4024.000000	64.946365 
4023.000000	64.952921 
4022.000000	64.964699 
4021.000000	64.981007 
4020.000000	65.001797 
4019.000000	65.027260 
4018.000000	65.057516 
4017.000000	65.091943 
4016.000000	65.129303 
4015.000000	65.167951 
4014.000000	65.205597 
4013.000000	65.239548 
4012.000000	65.267491 
4011.000000	65.288043 
4010.000000	65.300774 
4009.000000	65.306186 
4008.000000	65.305542 
4007.000000	65.300631 
4006.000000	65.293574 
4005.000000	65.286779 
4004.000000	65.282821 
4003.000000	65.284252 
4002.000000	65.293717 
4001.000000	65.312886 
4000.000000	65.342378 
3999.000000	65.380668 
3998.000000	65.424585 
3997.000000	65.468978 
3996.000000	65.507817 
3995.000000	65.534710 
3994.000000	65.544843 
3993.000000	65.535283 
3992.000000	65.505743 
3991.000000	65.458536 
3990.000000	65.398144 
3989.000000	65.330314 
3988.000000	65.261077 
3987.000000	65.195941 
3986.000000	65.138936 
3985.000000	65.092730 
3984.000000	65.058660 
3983.000000	65.036916 
3982.000000	65.026640 
3981.000000	65.026187 
3980.000000	65.033531 
3979.000000	65.045690 
3978.000000	65.059828 
3977.000000	65.072965 
3976.000000	65.083098 
3975.000000	65.089058 
3974.000000	65.090870 
3973.000000	65.089392 
3972.000000	65.086436 
3971.000000	65.083837 
3970.000000	65.083146 
3969.000000	65.085554 
3968.000000	65.091276 
3967.000000	65.099692 
3966.000000	65.109491 
3965.000000	65.119171 
3964.000000	65.127062 
3963.000000	65.131878 
3962.000000	65.132808 
3961.000000	65.129780 
3960.000000	65.123414 
3959.000000	65.114831 
3958.000000	65.105319 
3957.000000	65.095973 
3956.000000	65.087819 
3955.000000	65.081691 
3954.000000	65.077638 
3953.000000	65.075063 
3952.000000	65.073227 
3951.000000	65.071487 
3950.000000	65.069293 
3949.000000	65.066456 
3948.000000	65.063381 
3947.000000	65.060687 
3946.000000	65.058875 
3945.000000	65.057992 
3944.000000	65.057539 
3943.000000	65.056514 
3942.000000	65.053415 
3941.000000	65.046977 
3940.000000	65.036392 
3939.000000	65.021681 
3938.000000	65.003824 
3937.000000	64.984536 
3936.000000	64.965963 
3935.000000	64.950418 
3934.000000	64.939785 
3933.000000	64.935231 
3932.000000	64.936971 
3931.000000	64.944481 
3930.000000	64.956831 
3929.000000	64.972925 
3928.000000	64.991903 
3927.000000	65.013527 
3926.000000	65.038251 
3925.000000	65.067028 
3924.000000	65.100884 
3923.000000	65.140557 
3922.000000	65.185928 
3921.000000	65.235924 
3920.000000	65.288209 
3919.000000	65.339946 
3918.000000	65.387701 
3917.000000	65.428543 
3916.000000	65.460085 
3915.000000	65.481185 
3914.000000	65.491795 
3913.000000	65.493035 
3912.000000	65.486574 
3911.000000	65.474677 
3910.000000	65.459084 
3909.000000	65.441489 
3908.000000	65.422630 
3907.000000	65.402722 
3906.000000	65.381240 
3905.000000	65.357637 
3904.000000	65.331315 
3903.000000	65.302181 
3902.000000	65.270495 
3901.000000	65.237164 
3900.000000	65.203547 
3899.000000	65.171337 
3898.000000	65.142035 
3897.000000	65.116977 
3896.000000	65.097069 
3895.000000	65.082693 
3894.000000	65.073561 
3893.000000	65.068817 
3892.000000	65.067458 
3891.000000	65.068197 
3890.000000	65.069723 
3889.000000	65.070891 
3888.000000	65.070819 
3887.000000	65.069365 
3886.000000	65.066456 
3885.000000	65.062665 
3884.000000	65.058827 
3883.000000	65.055823 
3882.000000	65.054392 
3881.000000	65.054583 
3880.000000	65.055847 
3879.000000	65.056753 
3878.000000	65.055441 
3877.000000	65.049982 
3876.000000	65.039038 
3875.000000	65.022182 
3874.000000	65.000343 
3873.000000	64.975523 
3872.000000	64.950394 
3871.000000	64.927840 
3870.000000	64.910531 
3869.000000	64.900398 
3868.000000	64.898467 
3867.000000	64.904594 
3866.000000	64.918208 
3865.000000	64.937925 
3864.000000	64.962506 
3863.000000	64.990711 
3862.000000	65.021848 
3861.000000	65.055394 
3860.000000	65.091013 
3859.000000	65.128517 
3858.000000	65.166926 
3857.000000	65.204739 
3856.000000	65.239429 
3855.000000	65.268158 
3854.000000	65.287613 
3853.000000	65.294909 
3852.000000	65.288209 
3851.000000	65.267491 
3850.000000	65.235042 
3849.000000	65.195250 
3848.000000	65.154051 
3847.000000	65.117692 
3846.000000	65.091252 
3845.000000	65.077471 
3844.000000	65.075874 
3843.000000	65.082859 
3842.000000	65.092873 
3841.000000	65.099883 
3840.000000	65.098690 
3839.000000	65.086841 
3838.000000	65.064883 
3837.000000	65.037012 
3836.000000	65.009212 
3835.000000	64.988660 
3834.000000	64.981508 
3833.000000	64.991879 
3832.000000	65.020775 
3831.000000	65.066051 
3830.000000	65.123009 
3829.000000	65.185379 
3828.000000	65.246582 
3827.000000	65.300941 
3826.000000	65.344524 
3825.000000	65.375375 
3824.000000	65.393328 
3823.000000	65.400123 
3822.000000	65.398359 
3821.000000	65.390825 
3820.000000	65.379762 
3819.000000	65.366101 
3818.000000	65.349173 
3817.000000	65.327119 
3816.000000	65.297532 
3815.000000	65.258502 
3814.000000	65.209579 
3813.000000	65.152311 
3812.000000	65.090632 
3811.000000	65.029883 
3810.000000	64.976453 
3809.000000	64.935851 
3808.000000	64.912414 
3807.000000	64.908242 
3806.000000	64.923000 
3805.000000	64.953827 
3804.000000	64.996170 
3803.000000	65.044164 
3802.000000	65.091872 
3801.000000	65.133666 
3800.000000	65.165424 
3799.000000	65.184593 
3798.000000	65.190792 
3797.000000	65.185189 
3796.000000	65.170764 
3795.000000	65.151381 
3794.000000	65.131092 
3793.000000	65.113377 
3792.000000	65.100145 
3791.000000	65.091300 
3790.000000	65.085029 
3789.000000	65.078687 
3788.000000	65.069437 
3787.000000	65.055680 
3786.000000	65.037536 
3785.000000	65.017080 
3784.000000	64.997506 
3783.000000	64.982390 
3782.000000	64.974474 
3781.000000	64.974808 
3780.000000	64.982295 
3779.000000	64.994192 
3778.000000	65.006804 
3777.000000	65.016722 
3776.000000	65.021395 
3775.000000	65.020108 
3774.000000	65.014076 
3773.000000	65.006399 
3772.000000	65.000844 
3771.000000	65.001344 
3770.000000	65.010428 
3769.000000	65.029454 
3768.000000	65.058112 
3767.000000	65.094494 
3766.000000	65.135574 
3765.000000	65.177536 
3764.000000	65.216302 
3763.000000	65.248060 
3762.000000	65.269780 
3761.000000	65.279388 
3760.000000	65.276074 
3759.000000	65.260577 
3758.000000	65.235042 
3757.000000	65.202236 
3756.000000	65.165662 
3755.000000	65.129089 
3754.000000	65.096306 
3753.000000	65.070772 
3752.000000	65.055274 
3751.000000	65.051960 
3750.000000	65.061688 
3749.000000	65.083980 
3748.000000	65.116763 
3747.000000	65.156459 
3746.000000	65.198159 
3745.000000	65.236401 
3744.000000	65.265965 
3743.000000	65.282726 
3742.000000	65.284538 
3741.000000	65.271592 
3740.000000	65.246343 
3739.000000	65.212965 
3738.000000	65.176439 
3737.000000	65.141510 
3736.000000	65.111780 
3735.000000	65.089535 
3734.000000	65.076017 
3733.000000	65.071773 
3732.000000	65.077137 
3731.000000	65.092206 
3730.000000	65.117192 
3729.000000	65.151691 
3728.000000	65.194320 
3727.000000	65.242218 
3726.000000	65.291070 
3725.000000	65.335559 
3724.000000	65.370106 
3723.000000	65.390205 
3722.000000	65.393447 
3721.000000	65.380287 
3720.000000	65.354037 
3719.000000	65.320277 
3718.000000	65.285706 
3717.000000	65.256571 
3716.000000	65.237522 
3715.000000	65.230321 
3714.000000	65.233850 
3713.000000	65.244388 
3712.000000	65.256524 
3711.000000	65.264558 
3710.000000	65.263891 
3709.000000	65.251898 
3708.000000	65.228700 
3707.000000	65.197038 
3706.000000	65.162086 
3705.000000	65.130162 
3704.000000	65.107274 
3703.000000	65.098261 
3702.000000	65.104913 
3701.000000	65.126252 
3700.000000	65.157866 
3699.000000	65.193200 
3698.000000	65.224456 
3697.000000	65.244174 
3696.000000	65.247201 
3695.000000	65.231752 
3694.000000	65.200066 
3693.000000	65.157604 
3692.000000	65.112352 
3691.000000	65.072751 
3690.000000	65.046095 
3689.000000	65.036940 
3688.000000	65.046167 
3687.000000	65.070986 
3686.000000	65.105938 
3685.000000	65.144300 
3684.000000	65.179419 
3683.000000	65.205979 
3682.000000	65.221118 
3681.000000	65.224528 
3680.000000	65.217781 
3679.000000	65.203738 
3678.000000	65.185570 
3677.000000	65.165829 
3676.000000	65.146446 
3675.000000	65.128183 
3674.000000	65.111541 
3673.000000	65.096402 
3672.000000	65.082812 
3671.000000	65.070843 
3670.000000	65.060901 
3669.000000	65.053534 
3668.000000	65.049433 
3667.000000	65.049242 
3666.000000	65.053009 
3665.000000	65.060544 
3664.000000	65.071225 
3663.000000	65.084028 
3662.000000	65.097832 
3661.000000	65.111589 
3660.000000	65.124583 
3659.000000	65.136790 
3658.000000	65.148591 
3657.000000	65.160846 
3656.000000	65.174412 
3655.000000	65.190005 
3654.000000	65.207624 
3653.000000	65.226459 
3652.000000	65.244722 
3651.000000	65.260076 
3650.000000	65.269804 
3649.000000	65.271663 
3648.000000	65.264463 
3647.000000	65.248370 
3646.000000	65.224885 
3645.000000	65.196394 
3644.000000	65.165901 
3643.000000	65.136575 
3642.000000	65.111351 
3641.000000	65.092539 
3640.000000	65.081548 
3639.000000	65.079283 
3638.000000	65.085530 
3637.000000	65.099334 
3636.000000	65.118861 
3635.000000	65.141558 
3634.000000	65.164589 
3633.000000	65.185356 
3632.000000	65.201830 
3631.000000	65.212798 
3630.000000	65.218520 
3629.000000	65.220427 
3628.000000	65.220856 
3627.000000	65.222382 
3626.000000	65.227198 
3625.000000	65.236306 
3624.000000	65.249466 
3623.000000	65.265297 
3622.000000	65.281915 
3621.000000	65.297389 
3620.000000	65.310525 
3619.000000	65.320920 
3618.000000	65.329480 
3617.000000	65.337610 
3616.000000	65.346837 
3615.000000	65.357971 
3614.000000	65.371036 
3613.000000	65.384912 
3612.000000	65.397882 
3611.000000	65.407657 
3610.000000	65.412187 
3609.000000	65.410065 
3608.000000	65.400958 
3607.000000	65.385437 
3606.000000	65.364956 
3605.000000	65.341472 
3604.000000	65.317201 
3603.000000	65.294551 
3602.000000	65.275621 
3601.000000	65.262389 
3600.000000	65.256023 
3599.000000	65.256905 
3598.000000	65.264010 
3597.000000	65.275239 
3596.000000	65.287375 
3595.000000	65.296506 
3594.000000	65.299010 
3593.000000	65.292072 
3592.000000	65.274477 
3591.000000	65.247154 
3590.000000	65.213036 
3589.000000	65.176272 
3588.000000	65.141367 
3587.000000	65.112185 
3586.000000	65.091109 
3585.000000	65.078568 
3584.000000	65.073299 
3583.000000	65.072798 
3582.000000	65.074300 
3581.000000	65.075516 
3580.000000	65.075230 
3579.000000	65.073251 
3578.000000	65.070509 
3577.000000	65.068411 
3576.000000	65.068531 
3575.000000	65.072131 
3574.000000	65.080022 
3573.000000	65.092325 
3572.000000	65.108537 
3571.000000	65.127229 
3570.000000	65.146613 
3569.000000	65.164256 
3568.000000	65.177392 
3567.000000	65.183424 
3566.000000	65.180087 
3565.000000	65.166163 
3564.000000	65.142154 
3563.000000	65.110301 
3562.000000	65.074491 
3561.000000	65.039849 
3560.000000	65.011835 
3559.000000	64.994978 
3558.000000	64.992213 
3557.000000	65.004062 
3556.000000	65.028595 
3555.000000	65.062022 
3554.000000	65.099549 
3553.000000	65.136599 
3552.000000	65.169692 
3551.000000	65.197062 
3550.000000	65.218710 
3549.000000	65.236282 
3548.000000	65.251827 
3547.000000	65.267252 
3546.000000	65.283083 
3545.000000	65.298628 
3544.000000	65.311312 
3543.000000	65.318131 
3542.000000	65.315866 
3541.000000	65.302419 
3540.000000	65.277123 
3539.000000	65.241456 
3538.000000	65.198612 
3537.000000	65.152931 
3536.000000	65.109229 
3535.000000	65.071725 
3534.000000	65.043497 
3533.000000	65.026164 
3532.000000	65.019798 
3531.000000	65.023207 
3530.000000	65.034270 
3529.000000	65.050530 
3528.000000	65.069460 
3527.000000	65.088748 
3526.000000	65.106391 
3525.000000	65.120887 
3524.000000	65.131115 
3523.000000	65.136361 
3522.000000	65.136742 
3521.000000	65.133047 
3520.000000	65.126752 
3519.000000	65.119767 
3518.000000	65.114545 
3517.000000	65.113401 
3516.000000	65.118193 
3515.000000	65.129804 
3514.000000	65.147852 
3513.000000	65.170574 
3512.000000	65.195536 
3511.000000	65.219640 
3510.000000	65.239787 
3509.000000	65.253257 
3508.000000	65.258526 
3507.000000	65.255022 
3506.000000	65.243148 
3505.000000	65.224313 
3504.000000	65.200662 
3503.000000	65.174865 
3502.000000	65.149545 
3501.000000	65.127301 
3500.000000	65.110421 
3499.000000	65.100407 
3498.000000	65.097737 
3497.000000	65.101504 
3496.000000	65.109491 
3495.000000	65.118312 
3494.000000	65.124225 
3493.000000	65.123581 
3492.000000	65.113925 
3491.000000	65.094733 
3490.000000	65.068030 
3489.000000	65.037894 
3488.000000	65.009975 
3487.000000	64.989852 
3486.000000	64.982080 
3485.000000	64.989042 
3484.000000	65.010285 
3483.000000	65.042901 
3482.000000	65.082049 
3481.000000	65.122151 
3480.000000	65.158033 
3479.000000	65.185952 
3478.000000	65.204262 
3477.000000	65.212869 
3476.000000	65.213346 
3475.000000	65.208172 
3474.000000	65.199780 
3473.000000	65.190052 
3472.000000	65.179777 
3471.000000	65.168833 
3470.000000	65.156602 
3469.000000	65.142536 
3468.000000	65.126466 
3467.000000	65.108966 
3466.000000	65.091681 
3465.000000	65.077042 
3464.000000	65.067505 
3463.000000	65.065264 
3462.000000	65.071511 
3461.000000	65.086221 
3460.000000	65.107822 
3459.000000	65.133619 
3458.000000	65.160369 
3457.000000	65.184688 
3456.000000	65.203690 
3455.000000	65.215396 
3454.000000	65.219140 
3453.000000	65.214800 
3452.000000	65.202879 
3451.000000	65.183663 
3450.000000	65.157413 
3449.000000	65.124392 
3448.000000	65.085363 
3447.000000	65.041828 
3446.000000	64.996194 
3445.000000	64.952135 
3444.000000	64.914298 
3443.000000	64.887499 
3442.000000	64.875793 
3441.000000	64.881587 
3440.000000	64.905166 
3439.000000	64.944148 
3438.000000	64.994096 
3437.000000	65.048909 
3436.000000	65.102434 
3435.000000	65.148997 
3434.000000	65.185141 
3433.000000	65.209484 
3432.000000	65.223288 
3431.000000	65.229892 
3430.000000	65.233635 
3429.000000	65.238881 
3428.000000	65.248703 
3427.000000	65.264868 
3426.000000	65.286469 
3425.000000	65.311026 
3424.000000	65.334200 
3423.000000	65.351629 
3422.000000	65.359210 
3421.000000	65.354299 
3420.000000	65.336084 
3419.000000	65.306067 
3418.000000	65.267395 
3417.000000	65.224361 
3416.000000	65.181732 
3415.000000	65.143990 
3414.000000	65.114641 
3413.000000	65.095806 
3412.000000	65.088081 
3411.000000	65.090918 
3410.000000	65.102648 
3409.000000	65.121316 
3408.000000	65.144395 
3407.000000	65.169787 
3406.000000	65.195941 
3405.000000	65.222167 
3404.000000	65.247988 
3403.000000	65.273284 
3402.000000	65.298366 
3401.000000	65.323424 
3400.000000	65.348434 
3399.000000	65.372729 
3398.000000	65.395474 
3397.000000	65.415143 
3396.000000	65.430450 
3395.000000	65.440201 
3394.000000	65.443849 
3393.000000	65.441346 
3392.000000	65.433430 
3391.000000	65.421414 
3390.000000	65.406918 
3389.000000	65.391612 
3388.000000	65.376973 
3387.000000	65.363693 
3386.000000	65.351653 
3385.000000	65.340423 
3384.000000	65.328907 
3383.000000	65.315747 
3382.000000	65.299654 
3381.000000	65.279722 
3380.000000	65.255498 
3379.000000	65.227484 
3378.000000	65.196871 
3377.000000	65.165328 
3376.000000	65.135049 
3375.000000	65.108418 
3374.000000	65.087604 
3373.000000	65.074062 
3372.000000	65.068125 
3371.000000	65.068936 
3370.000000	65.074443 
3369.000000	65.081477 
3368.000000	65.087056 
3367.000000	65.088796 
3366.000000	65.085792 
3365.000000	65.078687 
3364.000000	65.070223 
3363.000000	65.064358 
3362.000000	65.065574 
3361.000000	65.077662 
3360.000000	65.102815 
3359.000000	65.140581 
3358.000000	65.188169 
3357.000000	65.240550 
3356.000000	65.291380 
3355.000000	65.334534 
3354.000000	65.364861 
3353.000000	65.379762 
3352.000000	65.379214 
3351.000000	65.365862 
3350.000000	65.344357 
3349.000000	65.320158 
3348.000000	65.298891 
3347.000000	65.284681 
3346.000000	65.280055 
3345.000000	65.284919 
3344.000000	65.297126 
3343.000000	65.312933 
3342.000000	65.328145 
3341.000000	65.338897 
3340.000000	65.342569 
3339.000000	65.338420 
3338.000000	65.327501 
3337.000000	65.312337 
3336.000000	65.295910 
3335.000000	65.281152 
3334.000000	65.269994 
3333.000000	65.263414 
3332.000000	65.261268 
3331.000000	65.262627 
3330.000000	65.265870 
3329.000000	65.269422 
3328.000000	65.271735 
3327.000000	65.271496 
3326.000000	65.267634 
3325.000000	65.259003 
3324.000000	65.244674 
3323.000000	65.223741 
3322.000000	65.195894 
3321.000000	65.161490 
3320.000000	65.121889 
3319.000000	65.079545 
3318.000000	65.037822 
3317.000000	65.000414 
3316.000000	64.970993 
3315.000000	64.952206 
3314.000000	64.945459 
3313.000000	64.950346 
3312.000000	64.964675 
3311.000000	64.985060 
3310.000000	65.007114 
3309.000000	65.026426 
3308.000000	65.039134 
3307.000000	65.042543 
3306.000000	65.035343 
3305.000000	65.017747 
3304.000000	64.991569 
3303.000000	64.959812 
3302.000000	64.926385 
3301.000000	64.895582 
3300.000000	64.871668 
3299.000000	64.857983 
3298.000000	64.856529 
3297.000000	64.867377 
3296.000000	64.889025 
3295.000000	64.918279 
3294.000000	64.950895 
3293.000000	64.982318 
3292.000000	65.008616 
3291.000000	65.026855 
3290.000000	65.035343 
3289.000000	65.034151 
3288.000000	65.024590 
3287.000000	65.009117 
3286.000000	64.990687 
3285.000000	64.972496 
3284.000000	64.957642 
3283.000000	64.948534 
3282.000000	64.946794 
3281.000000	64.952802 
3280.000000	64.965891 
3279.000000	64.984059 
3278.000000	65.004372 
3277.000000	65.023207 
3276.000000	65.037083 
3275.000000	65.043401 
3274.000000	65.041184 
3273.000000	65.031290 
3272.000000	65.016460 
3271.000000	65.000700 
3270.000000	64.988207 
3269.000000	64.982843 
3268.000000	64.986777 
3267.000000	65.000295 
3266.000000	65.021324 
3265.000000	65.046429 
3264.000000	65.071177 
3263.000000	65.091466 
3262.000000	65.104293 
3261.000000	65.108132 
3260.000000	65.103483 
3259.000000	65.092301 
3258.000000	65.077638 
3257.000000	65.062737 
3256.000000	65.050482 
3255.000000	65.042901 
3254.000000	65.040922 
3253.000000	65.044403 
3252.000000	65.052151 
3251.000000	65.062332 
3250.000000	65.072798 
3249.000000	65.081763 
3248.000000	65.088248 
3247.000000	65.092229 
3246.000000	65.094590 
3245.000000	65.096688 
3244.000000	65.100121 
3243.000000	65.106105 
3242.000000	65.115046 
3241.000000	65.126085 
3240.000000	65.137481 
3239.000000	65.146756 
3238.000000	65.151619 
3237.000000	65.150427 
3236.000000	65.142846 
3235.000000	65.129947 
3234.000000	65.113854 
3233.000000	65.097498 
3232.000000	65.083813 
3231.000000	65.075016 
3230.000000	65.071916 
3229.000000	65.074062 
3228.000000	65.079903 
3227.000000	65.087366 
3226.000000	65.094399 
3225.000000	65.099382 
3224.000000	65.101361 
3223.000000	65.099930 
3222.000000	65.095257 
3221.000000	65.087628 
3220.000000	65.077424 
3219.000000	65.064907 
3218.000000	65.050816 
3217.000000	65.036368 
3216.000000	65.023326 
3215.000000	65.014123 
3214.000000	65.011072 
3213.000000	65.015697 
3212.000000	65.028142 
3211.000000	65.046644 
3210.000000	65.067791 
3209.000000	65.086913 
3208.000000	65.099191 
3207.000000	65.100860 
3206.000000	65.090179 
3205.000000	65.067982 
3204.000000	65.037679 
3203.000000	65.004229 
3202.000000	64.972996 
3201.000000	64.948511 
3200.000000	64.933276 
3199.000000	64.927506 
3198.000000	64.929199 
3197.000000	64.935088 
3196.000000	64.941573 
3195.000000	64.946103 
3194.000000	64.947342 
3193.000000	64.945888 
3192.000000	64.943480 
3191.000000	64.942789 
3190.000000	64.945983 
3189.000000	64.954614 
3188.000000	64.969182 
3187.000000	64.988756 
3186.000000	65.011501 
3185.000000	65.034770 
3184.000000	65.056228 
3183.000000	65.073871 
3182.000000	65.086388 
3181.000000	65.093278 
3180.000000	65.094494 
3179.000000	65.090656 
3178.000000	65.082621 
3177.000000	65.071415 
3176.000000	65.058064 
3175.000000	65.043616 
3174.000000	65.029454 
3173.000000	65.017032 
3172.000000	65.007829 
3171.000000	65.003252 
3170.000000	65.004396 
3169.000000	65.011978 
3168.000000	65.026259 
3167.000000	65.046763 
3166.000000	65.072774 
3165.000000	65.103101 
3164.000000	65.136337 
3163.000000	65.171027 
3162.000000	65.205669 
3161.000000	65.238833 
3160.000000	65.269136 
3159.000000	65.295481 
3158.000000	65.316534 
3157.000000	65.331435 
3156.000000	65.338921 
3155.000000	65.338039 
3154.000000	65.327596 
3153.000000	65.307116 
3152.000000	65.276575 
3151.000000	65.236854 
3150.000000	65.189933 
3149.000000	65.138912 
3148.000000	65.087652 
3147.000000	65.040206 
3146.000000	65.000247 
3145.000000	64.970445 
3144.000000	64.951848 
3143.000000	64.943766 
3142.000000	64.943838 
3141.000000	64.948821 
3140.000000	64.955115 
3139.000000	64.959812 
3138.000000	64.961123 
3137.000000	64.958715 
3136.000000	64.953494 
3135.000000	64.947152 
3134.000000	64.941406 
3133.000000	64.937567 
3132.000000	64.936280 
3131.000000	64.937400 
3130.000000	64.940214 
3129.000000	64.943814 
3128.000000	64.947462 
3127.000000	64.951181 
3126.000000	64.955496 
3125.000000	64.961481 
3124.000000	64.970231 
3123.000000	64.982581 
3122.000000	64.998579 
3121.000000	65.017318 
3120.000000	65.037012 
3119.000000	65.055394 
3118.000000	65.070343 
3117.000000	65.080189 
3116.000000	65.084385 
3115.000000	65.083765 
3114.000000	65.080451 
3113.000000	65.077257 
3112.000000	65.077018 
3111.000000	65.082049 
3110.000000	65.093731 
3109.000000	65.111708 
3108.000000	65.134406 
3107.000000	65.159106 
3106.000000	65.182828 
3105.000000	65.203046 
3104.000000	65.218043 
3103.000000	65.227437 
3102.000000	65.231919 
3101.000000	65.232920 
3100.000000	65.231966 
3099.000000	65.230345 
3098.000000	65.228366 
3097.000000	65.225672 
3096.000000	65.220999 
3095.000000	65.212988 
3094.000000	65.200448 
3093.000000	65.182924 
3092.000000	65.160918 
3091.000000	65.136051 
3090.000000	65.110993 
3089.000000	65.089035 
3088.000000	65.073370 
3087.000000	65.066409 
3086.000000	65.069556 
3085.000000	65.082693 
3084.000000	65.104150 
3083.000000	65.130877 
3082.000000	65.159130 
3081.000000	65.185046 
3080.000000	65.205073 
3079.000000	65.216922 
3078.000000	65.219807 
3077.000000	65.214395 
3076.000000	65.202593 
3075.000000	65.186929 
3074.000000	65.170216 
3073.000000	65.154933 
3072.000000	65.142798 
3071.000000	65.134811 
3070.000000	65.131378 
3069.000000	65.132427 
3068.000000	65.137672 
3067.000000	65.146565 
3066.000000	65.158462 
3065.000000	65.172362 
3064.000000	65.186929 
3063.000000	65.200781 
3062.000000	65.212655 
3061.000000	65.221643 
3060.000000	65.227389 
3059.000000	65.230178 
3058.000000	65.230631 
3057.000000	65.229845 
3056.000000	65.228438 
3055.000000	65.226411 
3054.000000	65.222930 
3053.000000	65.216469 
3052.000000	65.205526 
3051.000000	65.189075 
3050.000000	65.167427 
3049.000000	65.142297 
3048.000000	65.116834 
3047.000000	65.094923 
3046.000000	65.080308 
3045.000000	65.075659 
3044.000000	65.081357 
3043.000000	65.095686 
3042.000000	65.114712 
3041.000000	65.133357 
3040.000000	65.146350 
3039.000000	65.149545 
3038.000000	65.140628 
3037.000000	65.119934 
3036.000000	65.090203 
3035.000000	65.056037 
3034.000000	65.022659 
3033.000000	64.995002 
3032.000000	64.976763 
3031.000000	64.969849 
3030.000000	64.974117 
3029.000000	64.987730 
3028.000000	65.007853 
3027.000000	65.031456 
3026.000000	65.055584 
3025.000000	65.078449 
3024.000000	65.098977 
3023.000000	65.117311 
3022.000000	65.133953 
3021.000000	65.149688 
3020.000000	65.164804 
3019.000000	65.179300 
3018.000000	65.192627 
3017.000000	65.204048 
3016.000000	65.213084 
3015.000000	65.219593 
3014.000000	65.224123 
3013.000000	65.227365 
3012.000000	65.230131 
3011.000000	65.232729 
3010.000000	65.234994 
3009.000000	65.236163 
3008.000000	65.235090 
3007.000000	65.230607 
3006.000000	65.221810 
3005.000000	65.208387 
3004.000000	65.190911 
3003.000000	65.170478 
3002.000000	65.148878 
3001.000000	65.127873 
3000.000000	65.109324 
2999.000000	65.094423 
2998.000000	65.084004 
2997.000000	65.078425 
2996.000000	65.077400 
2995.000000	65.080142 
2994.000000	65.085315 
2993.000000	65.091395 
2992.000000	65.096688 
2991.000000	65.099477 
2990.000000	65.098524 
2989.000000	65.093183 
2988.000000	65.083670 
2987.000000	65.071082 
2986.000000	65.056991 
2985.000000	65.043091 
2984.000000	65.030813 
2983.000000	65.021085 
2982.000000	65.014147 
2981.000000	65.009808 
2980.000000	65.007591 
2979.000000	65.006875 
2978.000000	65.007114 
2977.000000	65.007758 
2976.000000	65.008378 
2975.000000	65.008306 
2974.000000	65.006661 
2973.000000	65.002298 
2972.000000	64.994001 
2971.000000	64.980912 
2970.000000	64.962553 
2969.000000	64.939332 
2968.000000	64.912724 
2967.000000	64.885163 
2966.000000	64.859724 
2965.000000	64.839744 
2964.000000	64.828157 
2963.000000	64.827013 
2962.000000	64.837145 
2961.000000	64.858150 
2960.000000	64.888191 
2959.000000	64.924573 
2958.000000	64.963984 
2957.000000	65.002989 
2956.000000	65.038442 
2955.000000	65.067720 
2954.000000	65.088915 
2953.000000	65.101122 
2952.000000	65.104413 
2951.000000	65.099525 
2950.000000	65.087866 
2949.000000	65.071487 
2948.000000	65.052533 
2947.000000	65.033364 
2946.000000	65.015840 
2945.000000	65.001630 
2944.000000	64.991283 
2943.000000	64.984369 
2942.000000	64.979577 
2941.000000	64.975166 
2940.000000	64.969587 
2939.000000	64.961862 
2938.000000	64.951944 
2937.000000	64.940929 
2936.000000	64.930534 
2935.000000	64.922428 
2934.000000	64.917898 
2933.000000	64.917254 
2932.000000	64.919900 
2931.000000	64.924502 
2930.000000	64.929509 
2929.000000	64.933729 
2928.000000	64.936852 
2927.000000	64.939403 
2926.000000	64.942502 
2925.000000	64.947152 
2924.000000	64.953851 
2923.000000	64.962291 
2922.000000	64.970970 
2921.000000	64.978194 
2920.000000	64.982581 
2919.000000	64.983868 
2918.000000	64.983272 
2917.000000	64.983153 
2916.000000	64.986515 
2915.000000	64.995861 
2914.000000	65.012431 
2913.000000	65.035629 
2912.000000	65.063166 
2911.000000	65.091586 
2910.000000	65.117216 
2909.000000	65.137124 
2908.000000	65.149831 
2907.000000	65.155506 
2906.000000	65.155816 
2905.000000	65.153145 
2904.000000	65.149807 
2903.000000	65.147304 
2902.000000	65.145993 
2901.000000	65.145111 
2900.000000	65.143156 
2899.000000	65.138721 
2898.000000	65.130949 
2897.000000	65.119910 
2896.000000	65.106558 
2895.000000	65.092444 
2894.000000	65.079307 
2893.000000	65.068507 
2892.000000	65.060639 
2891.000000	65.055537 
2890.000000	65.052151 
2889.000000	65.049242 
2888.000000	65.045404 
2887.000000	65.039515 
2886.000000	65.030980 
2885.000000	65.020155 
2884.000000	65.008020 
2883.000000	64.995908 
2882.000000	64.985442 
2881.000000	64.978408 
2880.000000	64.976215 
2879.000000	64.979553 
2878.000000	64.988589 
2877.000000	65.002727 
2876.000000	65.020632 
2875.000000	65.040516 
2874.000000	65.060400 
2873.000000	65.078496 
2872.000000	65.093588 
2871.000000	65.105128 
2870.000000	65.113234 
2869.000000	65.118432 
2868.000000	65.121388 
2867.000000	65.122771 
2866.000000	65.122795 
2865.000000	65.121293 
2864.000000	65.117788 
2863.000000	65.111470 
2862.000000	65.101718 
2861.000000	65.087819 
2860.000000	65.069937 
2859.000000	65.048336 
2858.000000	65.023612 
2857.000000	64.996623 
2856.000000	64.968180 
2855.000000	64.939355 
2854.000000	64.911127 
2853.000000	64.884734 
2852.000000	64.861607 
2851.000000	64.843320 
2850.000000	64.831495 
2849.000000	64.827442 
2848.000000	64.831924 
2847.000000	64.844894 
2846.000000	64.865612 
2845.000000	64.892339 
2844.000000	64.922738 
2843.000000	64.954137 
2842.000000	64.984011 
2841.000000	65.010166 
2840.000000	65.031123 
2839.000000	65.046119 
2838.000000	65.055322 
2837.000000	65.059566 
2836.000000	65.060305 
2835.000000	65.059518 
2834.000000	65.059280 
2833.000000	65.061855 
2832.000000	65.068793 
2831.000000	65.081119 
2830.000000	65.098619 
2829.000000	65.120220 
2828.000000	65.143489 
2827.000000	65.165209 
2826.000000	65.181827 
2825.000000	65.190386 
2824.000000	65.188980 
2823.000000	65.177083 
2822.000000	65.156173 
2821.000000	65.129303 
2820.000000	65.100359 
2819.000000	65.073442 
2818.000000	65.051984 
2817.000000	65.038037 
2816.000000	65.032267 
2815.000000	65.033602 
2814.000000	65.039825 
2813.000000	65.048098 
2812.000000	65.055751 
2811.000000	65.060758 
2810.000000	65.061688 
2809.000000	65.058398 
2808.000000	65.051364 
2807.000000	65.041995 
2806.000000	65.031766 
2805.000000	65.022349 
2804.000000	65.015053 
2803.000000	65.010786 
2802.000000	65.010190 
2801.000000	65.013408 
2800.000000	65.020084 
2799.000000	65.029549 
2798.000000	65.040874 
2797.000000	65.053129 
2796.000000	65.065550 
2795.000000	65.077352 
2794.000000	65.087962 
2793.000000	65.096902 
2792.000000	65.103650 
2791.000000	65.107631 
2790.000000	65.108227 
2789.000000	65.104842 
2788.000000	65.097045 
2787.000000	65.084958 
2786.000000	65.069246 
2785.000000	65.051293 
2784.000000	65.032863 
2783.000000	65.016102 
2782.000000	65.003204 
2781.000000	64.995908 
2780.000000	64.995384 
2779.000000	65.001821 
2778.000000	65.014672 
2777.000000	65.032553 
2776.000000	65.053534 
2775.000000	65.075659 
2774.000000	65.096783 
2773.000000	65.114951 
2772.000000	65.128636 
2771.000000	65.136671 
2770.000000	65.138626 
2769.000000	65.134787 
2768.000000	65.126037 
2767.000000	65.113806 
2766.000000	65.100026 
2765.000000	65.086746 
2764.000000	65.075755 
2763.000000	65.068244 
2762.000000	65.064692 
2761.000000	65.064692 
2760.000000	65.067195 
2759.000000	65.070605 
2758.000000	65.073156 
2757.000000	65.073347 
2756.000000	65.070199 
2755.000000	65.063643 
2754.000000	65.054321 
2753.000000	65.043568 
2752.000000	65.033125 
2751.000000	65.024805 
2750.000000	65.019941 
2749.000000	65.019297 
2748.000000	65.022802 
2747.000000	65.029716 
2746.000000	65.038681 
2745.000000	65.047812 
2744.000000	65.055227 
2743.000000	65.059113 
2742.000000	65.058302 
2741.000000	65.052127 
2740.000000	65.040659 
2739.000000	65.024518 
2738.000000	65.004992 
2737.000000	64.983773 
2736.000000	64.962840 
2735.000000	64.944195 
2734.000000	64.929556 
2733.000000	64.920377 
2732.000000	64.917588 
2731.000000	64.921212 
2730.000000	64.930820 
2729.000000	64.945173 
2728.000000	64.962840 
2727.000000	64.982271 
2726.000000	65.001964 
2725.000000	65.020918 
2724.000000	65.038156 
2723.000000	65.053009 
2722.000000	65.064692 
2721.000000	65.072488 
2720.000000	65.075445 
2719.000000	65.072655 
2718.000000	65.063500 
2717.000000	65.047907 
2716.000000	65.026545 
2715.000000	65.001058 
2714.000000	64.973902 
2713.000000	64.948010 
2712.000000	64.926481 
2711.000000	64.912128 
2710.000000	64.906716 
2709.000000	64.910817 
2708.000000	64.923739 
2707.000000	64.943695 
2706.000000	64.968109 
2705.000000	64.994215 
2704.000000	65.019202 
2703.000000	65.041136 
2702.000000	65.058588 
2701.000000	65.071368 
2700.000000	65.079903 
2699.000000	65.085315 
2698.000000	65.088796 
2697.000000	65.091514 
2696.000000	65.094208 
2695.000000	65.097069 
2694.000000	65.099883 
2693.000000	65.102243 
2692.000000	65.103793 
2691.000000	65.104269 
2690.000000	65.103888 
2689.000000	65.102982 
2688.000000	65.101838 
2687.000000	65.100455 
2686.000000	65.098452 
2685.000000	65.094876 
2684.000000	65.088510 
2683.000000	65.078210 
2682.000000	65.063381 
2681.000000	65.044116 
2680.000000	65.021347 
2679.000000	64.997029 
2678.000000	64.973616 
2677.000000	64.953565 
2676.000000	64.938998 
2675.000000	64.930772 
2674.000000	64.929032 
2673.000000	64.932870 
2672.000000	64.941000 
2671.000000	64.951872 
2670.000000	64.964413 
2669.000000	64.978003 
2668.000000	64.992713 
2667.000000	65.008687 
2666.000000	65.026164 
2665.000000	65.044927 
2664.000000	65.064096 
2663.000000	65.082073 
2662.000000	65.096855 
2661.000000	65.106391 
2660.000000	65.109348 
2659.000000	65.105390 
2658.000000	65.095663 
2657.000000	65.082454 
2656.000000	65.069198 
2655.000000	65.059208 
2654.000000	65.055060 
2653.000000	65.057754 
2652.000000	65.066552 
2651.000000	65.078902 
2650.000000	65.091300 
2649.000000	65.100002 
2648.000000	65.102243 
2647.000000	65.096783 
2646.000000	65.084362 
2645.000000	65.067315 
2644.000000	65.049147 
2643.000000	65.033268 
2642.000000	65.022182 
2641.000000	65.016841 
2640.000000	65.016341 
2639.000000	65.018606 
2638.000000	65.021085 
2637.000000	65.021467 
2636.000000	65.018415 
2635.000000	65.011811 
2634.000000	65.002822 
2633.000000	64.993238 
2632.000000	64.984917 
2631.000000	64.979267 
2630.000000	64.977002 
2629.000000	64.977931 
2628.000000	64.981269 
2627.000000	64.985847 
2626.000000	64.990377 
2625.000000	64.993786 
2624.000000	64.995431 
2623.000000	64.994978 
2622.000000	64.992618 
2621.000000	64.988565 
2620.000000	64.983701 
2619.000000	64.978909 
2618.000000	64.975523 
2617.000000	64.974665 
2616.000000	64.977192 
2615.000000	64.983463 
2614.000000	64.992856 
2613.000000	65.003991 
2612.000000	65.014719 
2611.000000	65.022683 
2610.000000	65.025877 
2609.000000	65.023159 
2608.000000	65.014815 
2607.000000	65.002417 
2606.000000	64.988636 
2605.000000	64.976525 
2604.000000	64.968872 
2603.000000	64.967513 
2602.000000	64.972805 
2601.000000	64.983725 
2600.000000	64.997887 
2599.000000	65.012240 
2598.000000	65.023803 
2597.000000	65.030336 
2596.000000	65.030550 
2595.000000	65.024471 
2594.000000	65.013194 
2593.000000	64.998674 
2592.000000	64.983057 
2591.000000	64.968585 
2590.000000	64.956974 
2589.000000	64.949250 
2588.000000	64.945888 
2587.000000	64.946413 
2586.000000	64.950013 
2585.000000	64.955258 
2584.000000	64.960598 
2583.000000	64.964556 
2582.000000	64.965891 
2581.000000	64.964151 
2580.000000	64.959549 
2579.000000	64.953112 
2578.000000	64.946389 
2577.000000	64.941215 
2576.000000	64.939284 
2575.000000	64.941668 
2574.000000	64.948582 
2573.000000	64.959383 
2572.000000	64.972877 
2571.000000	64.987564 
2570.000000	65.002226 
2569.000000	65.016055 
2568.000000	65.029001 
2567.000000	65.041518 
2566.000000	65.054273 
2565.000000	65.067839 
2564.000000	65.082240 
2563.000000	65.096759 
2562.000000	65.110087 
2561.000000	65.120649 
2560.000000	65.127158 
2559.000000	65.128898 
2558.000000	65.126061 
2557.000000	65.119743 
2556.000000	65.111780 
2555.000000	65.104055 
2554.000000	65.098118 
2553.000000	65.094804 
2552.000000	65.093970 
2551.000000	65.094709 
2550.000000	65.095686 
2549.000000	65.095663 
2548.000000	65.093994 
2547.000000	65.090847 
2546.000000	65.086960 
2545.000000	65.083456 
2544.000000	65.081596 
2543.000000	65.082240 
2542.000000	65.085530 
2541.000000	65.090703 
2540.000000	65.096330 
2539.000000	65.100407 
2538.000000	65.100955 
2537.000000	65.096235 
2536.000000	65.085077 
2535.000000	65.067100 
2534.000000	65.042948 
2533.000000	65.014052 
2532.000000	64.982533 
2531.000000	64.951086 
2530.000000	64.922237 
2529.000000	64.898252 
2528.000000	64.880657 
2527.000000	64.870262 
2526.000000	64.867067 
2525.000000	64.870309 
2524.000000	64.878797 
2523.000000	64.891409 
2522.000000	64.907264 
2521.000000	64.925885 
2520.000000	64.946985 
2519.000000	64.970636 
2518.000000	64.996790 
2517.000000	65.024948 
2516.000000	65.053796 
2515.000000	65.081453 
2514.000000	65.105605 
2513.000000	65.123987 
2512.000000	65.135145 
2511.000000	65.138816 
2510.000000	65.136265 
2509.000000	65.130090 
2508.000000	65.123558 
2507.000000	65.119910 
2506.000000	65.121340 
2505.000000	65.128636 
2504.000000	65.140771 
2503.000000	65.155267 
2502.000000	65.168762 
2501.000000	65.177917 
2500.000000	65.179944 
2499.000000	65.173339 
2498.000000	65.158009 
2497.000000	65.135002 
2496.000000	65.106463 
2495.000000	65.074920 
2494.000000	65.042996 
2493.000000	65.012836 
2492.000000	64.986395 
2491.000000	64.964842 
2490.000000	64.948868 
2489.000000	64.938426 
2488.000000	64.932775 
2487.000000	64.930653 
2486.000000	64.930176 
2485.000000	64.929652 
2484.000000	64.927482 
2483.000000	64.923095 
2482.000000	64.916753 
2481.000000	64.909815 
2480.000000	64.904189 
2479.000000	64.901852 
2478.000000	64.904236 
2477.000000	64.911365 
2476.000000	64.921927 
2475.000000	64.933037 
2474.000000	64.941263 
2473.000000	64.943122 
2472.000000	64.935946 
2471.000000	64.918804 
2470.000000	64.892530 
2469.000000	64.859771 
2468.000000	64.824342 
2467.000000	64.790368 
2466.000000	64.761495 
2465.000000	64.740347 
2464.000000	64.728331 
2463.000000	64.725565 
2462.000000	64.731454 
2461.000000	64.744734 
2460.000000	64.764165 
2459.000000	64.788317 
2458.000000	64.816212 
2457.000000	64.846611 
2456.000000	64.878439 
2455.000000	64.910149 
2454.000000	64.940047 
2453.000000	64.966320 
2452.000000	64.987325 
2451.000000	65.001988 
2450.000000	65.009689 
2449.000000	65.010571 
2448.000000	65.005302 
2447.000000	64.995265 
2446.000000	64.982056 
2445.000000	64.967250 
2444.000000	64.952182 
2443.000000	64.938092 
2442.000000	64.925742 
2441.000000	64.915633 
2440.000000	64.908003 
2439.000000	64.902830 
2438.000000	64.900040 
2437.000000	64.899492 
2436.000000	64.900851 
2435.000000	64.903497 
2434.000000	64.906573 
2433.000000	64.908981 
2432.000000	64.909386 
2431.000000	64.906716 
2430.000000	64.900255 
2429.000000	64.890360 
2428.000000	64.877986 
2427.000000	64.865446 
2426.000000	64.855813 
2425.000000	64.852571 
2424.000000	64.858818 
2423.000000	64.876222 
2422.000000	64.904761 
2421.000000	64.942097 
2420.000000	64.984035 
2419.000000	65.025043 
2418.000000	65.059494 
2417.000000	65.082573 
2416.000000	65.091347 
2415.000000	65.085124 
2414.000000	65.065479 
2413.000000	65.035796 
2412.000000	65.000438 
2411.000000	64.964008 
2410.000000	64.930295 
2409.000000	64.902043 
2408.000000	64.880394 
2407.000000	64.865136 
2406.000000	64.855194 
2405.000000	64.848828 
2404.000000	64.844560 
2403.000000	64.841246 
2402.000000	64.838838 
2401.000000	64.837718 
2400.000000	64.839458 
2399.000000	64.845728 
2398.000000	64.858365 
2397.000000	64.878535 
2396.000000	64.906406 
2395.000000	64.940690 
2394.000000	64.978694 
2393.000000	65.016818 
2392.000000	65.050840 
2391.000000	65.076923 
2390.000000	65.092134 
2389.000000	65.095090 
2388.000000	65.086078 
2387.000000	65.066766 
2386.000000	65.039849 
2385.000000	65.008378 
2384.000000	64.975452 
2383.000000	64.943456 
2382.000000	64.914298 
2381.000000	64.888787 
2380.000000	64.866995 
2379.000000	64.848423 
2378.000000	64.832305 
2377.000000	64.818143 
2376.000000	64.805507 
2375.000000	64.794611 
2374.000000	64.785599 
2373.000000	64.779257 
2372.000000	64.776158 
2371.000000	64.776992 
2370.000000	64.781951 
2369.000000	64.790940 
2368.000000	64.803457 
2367.000000	64.818811 
2366.000000	64.836049 
2365.000000	64.854407 
2364.000000	64.873266 
2363.000000	64.892148 
2362.000000	64.910602 
2361.000000	64.928102 
2360.000000	64.944076 
2359.000000	64.957833 
2358.000000	64.968466 
2357.000000	64.975380 
2356.000000	64.978194 
2355.000000	64.977359 
2354.000000	64.973688 
2353.000000	64.968204 
2352.000000	64.961743 
2351.000000	64.955186 
2350.000000	64.948916 
2349.000000	64.942955 
2348.000000	64.936971 
2347.000000	64.930915 
2346.000000	64.924812 
2345.000000	64.919161 
2344.000000	64.914608 
2343.000000	64.911961 
2342.000000	64.911794 
2341.000000	64.914274 
2340.000000	64.918851 
2339.000000	64.924407 
2338.000000	64.929413 
2337.000000	64.932394 
2336.000000	64.932227 
2335.000000	64.928412 
2334.000000	64.921236 
2333.000000	64.911818 
2332.000000	64.901471 
2331.000000	64.891815 
2330.000000	64.884376 
2329.000000	64.880323 
2328.000000	64.880228 
2327.000000	64.884138 
2326.000000	64.891719 
2325.000000	64.902281 
2324.000000	64.914774 
2323.000000	64.928340 
2322.000000	64.942049 
2321.000000	64.955163 
2320.000000	64.967012 
2319.000000	64.977002 
2318.000000	64.984512 
2317.000000	64.989018 
2316.000000	64.990043 
2315.000000	64.987182 
2314.000000	64.980411 
2313.000000	64.969921 
2312.000000	64.956450 
2311.000000	64.941048 
2310.000000	64.924907 
2309.000000	64.909172 
2308.000000	64.894890 
2307.000000	64.882707 
2306.000000	64.872813 
2305.000000	64.865040 
2304.000000	64.858794 
2303.000000	64.853644 
2302.000000	64.849257 
2301.000000	64.845514 
2300.000000	64.842653 
2299.000000	64.840936 
2298.000000	64.840698 
2297.000000	64.841890 
2296.000000	64.844393 
2295.000000	64.847707 
2294.000000	64.851260 
2293.000000	64.854454 
2292.000000	64.856934 
2291.000000	64.858579 
2290.000000	64.859628 
2289.000000	64.860415 
2288.000000	64.861273 
2287.000000	64.862537 
2286.000000	64.864230 
2285.000000	64.866185 
2284.000000	64.868044 
2283.000000	64.869379 
2282.000000	64.869976 
2281.000000	64.869785 
2280.000000	64.869093 
2279.000000	64.868235 
2278.000000	64.867734 
2277.000000	64.868068 
2276.000000	64.869475 
2275.000000	64.871859 
2274.000000	64.874935 
2273.000000	64.878273 
2272.000000	64.881277 
2271.000000	64.883446 
2270.000000	64.884305 
2269.000000	64.883732 
2268.000000	64.881849 
2267.000000	64.879131 
2266.000000	64.875984 
2265.000000	64.872932 
2264.000000	64.870357 
2263.000000	64.868497 
2262.000000	64.867424 
2261.000000	64.866971 
2260.000000	64.866876 
2259.000000	64.867019 
2258.000000	64.867401 
2257.000000	64.868330 
2256.000000	64.870333 
2255.000000	64.874100 
2254.000000	64.880180 
2253.000000	64.888930 
2252.000000	64.900350 
2251.000000	64.913892 
2250.000000	64.928579 
2249.000000	64.943146 
2248.000000	64.956164 
2247.000000	64.966344 
2246.000000	64.972567 
2245.000000	64.974164 
2244.000000	64.970922 
2243.000000	64.963173 
2242.000000	64.951634 
2241.000000	64.937639 
2240.000000	64.922642 
2239.000000	64.908552 
2238.000000	64.897036 
2237.000000	64.889740 
2236.000000	64.887714 
2235.000000	64.891195 
2234.000000	64.899611 
2233.000000	64.911508 
2232.000000	64.924716 
2231.000000	64.936876 
2230.000000	64.945793 
2229.000000	64.949989 
2228.000000	64.948749 
2227.000000	64.942622 
2226.000000	64.932847 
2225.000000	64.921307 
2224.000000	64.909839 
2223.000000	64.900016 
2222.000000	64.892864 
2221.000000	64.888739 
2220.000000	64.887595 
2219.000000	64.888858 
2218.000000	64.891839 
2217.000000	64.896059 
2216.000000	64.900898 
2215.000000	64.906024 
2214.000000	64.911150 
2213.000000	64.916110 
2212.000000	64.920735 
2211.000000	64.924931 
2210.000000	64.928770 
2209.000000	64.932489 
2208.000000	64.936590 
2207.000000	64.941716 
2206.000000	64.948463 
2205.000000	64.957332 
2204.000000	64.968419 
2203.000000	64.981436 
2202.000000	64.995622 
2201.000000	65.009832 
2200.000000	65.022659 
2199.000000	65.032553 
2198.000000	65.038037 
2197.000000	65.037941 
2196.000000	65.031671 
2195.000000	65.019130 
2194.000000	65.001058 
2193.000000	64.978814 
2192.000000	64.954352 
2191.000000	64.930033 
2190.000000	64.908194 
2189.000000	64.890813 
2188.000000	64.879298 
2187.000000	64.874196 
2186.000000	64.875125 
2185.000000	64.880895 
2184.000000	64.889693 
2183.000000	64.899659 
2182.000000	64.909124 
2181.000000	64.916849 
2180.000000	64.922380 
2179.000000	64.925789 
2178.000000	64.927911 
2177.000000	64.929676 
2176.000000	64.932250 
2175.000000	64.936542 
2174.000000	64.943289 
2173.000000	64.952683 
2172.000000	64.964580 
2171.000000	64.978432 
2170.000000	64.993238 
2169.000000	65.007686 
2168.000000	65.020275 
2167.000000	65.029311 
2166.000000	65.033292 
2165.000000	65.031099 
2164.000000	65.022253 
2163.000000	65.006971 
2162.000000	64.986586 
2161.000000	64.962983 
2160.000000	64.938688 
2159.000000	64.916181 
2158.000000	64.897680 
2157.000000	64.884638 
2156.000000	64.877557 
2155.000000	64.876079 
2154.000000	64.878964 
2153.000000	64.884948 
2152.000000	64.892888 
2151.000000	64.902138 
2150.000000	64.912366 
2149.000000	64.923667 
2148.000000	64.936137 
2147.000000	64.949417 
2146.000000	64.962434 
2145.000000	64.973592 
2144.000000	64.980959 
2143.000000	64.982843 
2142.000000	64.978218 
2141.000000	64.967370 
2140.000000	64.951920 
2139.000000	64.934563 
2138.000000	64.918375 
2137.000000	64.906144 
2136.000000	64.899539 
2135.000000	64.898872 
2134.000000	64.902567 
2133.000000	64.908099 
2132.000000	64.912629 
2131.000000	64.913630 
2130.000000	64.909744 
2129.000000	64.900994 
2128.000000	64.888811 
2127.000000	64.875507 
2126.000000	64.863848 
2125.000000	64.856195 
2124.000000	64.854168 
2123.000000	64.858174 
2122.000000	64.867377 
2121.000000	64.880108 
2120.000000	64.894127 
2119.000000	64.907050 
2118.000000	64.916920 
2117.000000	64.922189 
2116.000000	64.922118 
2115.000000	64.916515 
2114.000000	64.905810 
2113.000000	64.890766 
2112.000000	64.872455 
2111.000000	64.852118 
2110.000000	64.831256 
2109.000000	64.811325 
2108.000000	64.794015 
2107.000000	64.780807 
2106.000000	64.772748 
2105.000000	64.770436 
2104.000000	64.773726 
2103.000000	64.781832 
2102.000000	64.793252 
2101.000000	64.806056 
2100.000000	64.817976 
2099.000000	64.827013 
2098.000000	64.831566 
2097.000000	64.830851 
2096.000000	64.825010 
2095.000000	64.815306 
2094.000000	64.803814 
2093.000000	64.793229 
2092.000000	64.786076 
2091.000000	64.784431 
2090.000000	64.789104 
2089.000000	64.799404 
2088.000000	64.813327 
2087.000000	64.828014 
2086.000000	64.840412 
2085.000000	64.848136 
2084.000000	64.850211 
2083.000000	64.847087 
2082.000000	64.840865 
2081.000000	64.834690 
2080.000000	64.831924 
2079.000000	64.835286 
2078.000000	64.845919 
2077.000000	64.863276 
2076.000000	64.884877 
2075.000000	64.906883 
2074.000000	64.924907 
2073.000000	64.935135 
2072.000000	64.935064 
2071.000000	64.924097 
2070.000000	64.903545 
2069.000000	64.876151 
2068.000000	64.845347 
2067.000000	64.814400 
2066.000000	64.785790 
2065.000000	64.760780 
2064.000000	64.739656 
2063.000000	64.722084 
2062.000000	64.707684 
2061.000000	64.696574 
2060.000000	64.689350 
2059.000000	64.687204 
2058.000000	64.691233 
2057.000000	64.702272 
2056.000000	64.719939 
2055.000000	64.742732 
2054.000000	64.767932 
2053.000000	64.792037 
2052.000000	64.811539 
2051.000000	64.823532 
2050.000000	64.826416 
2049.000000	64.820027 
2048.000000	64.805769 
2047.000000	64.786243 
2046.000000	64.764571 
2045.000000	64.743852 
2044.000000	64.726638 
2043.000000	64.714407 
2042.000000	64.707732 
2041.000000	64.706158 
2040.000000	64.708542 
2039.000000	64.713382 
2038.000000	64.719271 
2037.000000	64.724993 
2036.000000	64.729905 
2035.000000	64.733767 
2034.000000	64.737081 
2033.000000	64.740657 
2032.000000	64.745426 
2031.000000	64.752340 
2030.000000	64.762091 
2029.000000	64.774823 
2028.000000	64.789986 
2027.000000	64.806556 
2026.000000	64.823007 
2025.000000	64.837694 
2024.000000	64.849257 
2023.000000	64.856648 
2022.000000	64.859437 
2021.000000	64.858031 
2020.000000	64.853310 
2019.000000	64.846634 
2018.000000	64.839482 
2017.000000	64.833188 
2016.000000	64.828872 
2015.000000	64.827299 
2014.000000	64.828610 
2013.000000	64.832544 
2012.000000	64.838290 
2011.000000	64.844965 
2010.000000	64.851570 
2009.000000	64.857244 
2008.000000	64.861297 
2007.000000	64.863538 
2006.000000	64.864277 
2005.000000	64.864158 
2004.000000	64.863967 
2003.000000	64.864134 
2002.000000	64.864778 
2001.000000	64.865255 
2000.000000	64.864206 
1999.000000	64.860105 
1998.000000	64.851570 
1997.000000	64.838051 
1996.000000	64.819860 
1995.000000	64.798641 
1994.000000	64.776873 
1993.000000	64.757561 
1992.000000	64.743328 
1991.000000	64.736056 
1990.000000	64.736247 
1989.000000	64.743256 
1988.000000	64.755129 
1987.000000	64.769387 
1986.000000	64.783477 
1985.000000	64.795589 
1984.000000	64.804673 
1983.000000	64.810562 
1982.000000	64.813899 
1981.000000	64.815568 
1980.000000	64.816355 
1979.000000	64.816975 
1978.000000	64.817786 
1977.000000	64.818835 
1976.000000	64.820051 
1975.000000	64.821290 
1974.000000	64.822340 
1973.000000	64.823007 
1972.000000	64.823007 
1971.000000	64.822053 
1970.000000	64.819645 
1969.000000	64.815235 
1968.000000	64.808297 
1967.000000	64.798712 
1966.000000	64.786815 
1965.000000	64.773368 
1964.000000	64.759492 
1963.000000	64.746689 
1962.000000	64.736437 
1961.000000	64.730024 
1960.000000	64.728307 
1959.000000	64.731693 
1958.000000	64.739990 
1957.000000	64.752507 
1956.000000	64.767932 
1955.000000	64.784479 
1954.000000	64.800214 
1953.000000	64.813184 
1952.000000	64.822149 
1951.000000	64.826655 
1950.000000	64.827251 
1949.000000	64.825320 
1948.000000	64.822745 
1947.000000	64.821290 
1946.000000	64.822268 
1945.000000	64.825797 
1944.000000	64.830970 
1943.000000	64.835858 
1942.000000	64.838147 
1941.000000	64.835548 
1940.000000	64.826726 
1939.000000	64.811491 
1938.000000	64.790987 
1937.000000	64.767479 
1936.000000	64.743804 
1935.000000	64.722776 
1934.000000	64.706659 
1933.000000	64.696931 
1932.000000	64.694190 
1931.000000	64.698314 
1930.000000	64.708685 
1929.000000	64.724230 
1928.000000	64.743661 
1927.000000	64.765334 
1926.000000	64.787435 
1925.000000	64.807868 
1924.000000	64.824700 
1923.000000	64.836049 
1922.000000	64.840745 
1921.000000	64.838504 
1920.000000	64.829993 
1919.000000	64.817118 
1918.000000	64.802193 
1917.000000	64.788174 
1916.000000	64.777350 
1915.000000	64.771366 
1914.000000	64.770436 
1913.000000	64.773511 
1912.000000	64.778423 
1911.000000	64.782524 
1910.000000	64.783406 
1909.000000	64.779448 
1908.000000	64.770507 
1907.000000	64.757657 
1906.000000	64.743065 
1905.000000	64.729142 
1904.000000	64.718103 
1903.000000	64.711356 
1902.000000	64.709258 
1901.000000	64.711093 
1900.000000	64.715647 
1899.000000	64.721417 
1898.000000	64.727187 
1897.000000	64.732313 
1896.000000	64.736700 
1895.000000	64.740777 
1894.000000	64.745163 
1893.000000	64.750361 
1892.000000	64.756321 
1891.000000	64.762425 
1890.000000	64.767575 
1889.000000	64.770269 
1888.000000	64.769244 
1887.000000	64.763617 
1886.000000	64.753293 
1885.000000	64.739084 
1884.000000	64.722776 
1883.000000	64.706730 
1882.000000	64.693427 
1881.000000	64.685082 
1880.000000	64.683127 
1879.000000	64.687919 
1878.000000	64.698791 
1877.000000	64.714121 
1876.000000	64.731764 
1875.000000	64.749479 
1874.000000	64.765620 
1873.000000	64.779210 
1872.000000	64.790129 
1871.000000	64.798855 
1870.000000	64.805960 
1869.000000	64.811921 
1868.000000	64.816784 
1867.000000	64.820194 
1866.000000	64.821362 
1865.000000	64.819312 
1864.000000	64.813518 
1863.000000	64.803910 
1862.000000	64.791202 
1861.000000	64.776897 
1860.000000	64.762926 
1859.000000	64.751529 
1858.000000	64.744567 
1857.000000	64.743208 
1856.000000	64.747548 
1855.000000	64.756679 
1854.000000	64.768600 
1853.000000	64.780783 
1852.000000	64.790439 
1851.000000	64.795184 
1850.000000	64.793705 
1849.000000	64.785861 
1848.000000	64.772987 
1847.000000	64.757537 
1846.000000	64.742588 
1845.000000	64.731240 
1844.000000	64.725756 
1843.000000	64.727044 
1842.000000	64.734458 
1841.000000	64.745903 
1840.000000	64.758419 
1839.000000	64.769029 
1838.000000	64.775371 
1837.000000	64.776325 
1836.000000	64.772081 
1835.000000	64.764213 
1834.000000	64.754891 
1833.000000	64.746403 
1832.000000	64.740514 
1831.000000	64.737796 
1830.000000	64.738011 
1829.000000	64.739823 
1828.000000	64.741373 
1827.000000	64.740967 
1826.000000	64.737439 
1825.000000	64.730477 
1824.000000	64.720559 
1823.000000	64.708805 
1822.000000	64.696598 
1821.000000	64.685297 
1820.000000	64.676022 
1819.000000	64.669322 
1818.000000	64.665365 
1817.000000	64.663815 
1816.000000	64.664149 
1815.000000	64.665746 
1814.000000	64.668130 
1813.000000	64.671039 
1812.000000	64.674472 
1811.000000	64.678573 
1810.000000	64.683723 
1809.000000	64.689993 
1808.000000	64.697480 
1807.000000	64.705944 
1806.000000	64.714908 
1805.000000	64.723896 
1804.000000	64.732432 
1803.000000	64.740180 
1802.000000	64.747023 
1801.000000	64.752936 
1800.000000	64.758133 
1799.000000	64.762830 
1798.000000	64.767408 
1797.000000	64.771986 
1796.000000	64.776587 
1795.000000	64.780998 
1794.000000	64.784979 
1793.000000	64.788126 
1792.000000	64.790010 
1791.000000	64.790105 
1790.000000	64.788031 
1789.000000	64.783453 
1788.000000	64.776206 
1787.000000	64.766526 
1786.000000	64.754915 
1785.000000	64.742088 
1784.000000	64.729094 
1783.000000	64.716553 
1782.000000	64.704895 
1781.000000	64.693903 
1780.000000	64.682912 
1779.000000	64.671015 
1778.000000	64.657521 
1777.000000	64.642143 
1776.000000	64.625382 
1775.000000	64.608263 
1774.000000	64.592385 
1773.000000	64.579296 
1772.000000	64.569926 
1771.000000	64.564466 
1770.000000	64.562463 
1769.000000	64.562606 
1768.000000	64.563131 
1767.000000	64.562463 
1766.000000	64.559483 
1765.000000	64.553833 
1764.000000	64.545798 
1763.000000	64.536333 
1762.000000	64.526653 
1761.000000	64.517974 
1760.000000	64.511466 
1759.000000	64.507651 
1758.000000	64.506840 
1757.000000	64.509177 
1756.000000	64.514231 
1755.000000	64.521312 
1754.000000	64.529228 
1753.000000	64.536571 
1752.000000	64.541554 
1751.000000	64.542388 
1750.000000	64.537405 
1749.000000	64.525556 
1748.000000	64.506459 
1747.000000	64.480662 
1746.000000	64.449524 
1745.000000	64.414978 
1744.000000	64.379119 
1743.000000	64.343833 
1742.000000	64.310550 
1741.000000	64.280200 
1740.000000	64.253044 
1739.000000	64.229130 
1738.000000	64.208436 
1737.000000	64.191436 
1736.000000	64.178752 
1735.000000	64.171743 
1734.000000	64.171600 
1733.000000	64.179658 
1732.000000	64.196443 
1731.000000	64.221787 
1730.000000	64.254450 
1729.000000	64.292144 
1728.000000	64.331817 
1727.000000	64.369988 
1726.000000	64.403247 
1725.000000	64.428663 
1724.000000	64.444279 
1723.000000	64.449286 
1722.000000	64.444279 
1721.000000	64.431166 
1720.000000	64.412665 
1719.000000	64.392232 
1718.000000	64.373469 
1717.000000	64.359617 
1716.000000	64.352798 
1715.000000	64.354085 
1714.000000	64.363455 
1713.000000	64.379692 
1712.000000	64.400887 
1711.000000	64.424943 
1710.000000	64.450144 
1709.000000	64.475369 
1708.000000	64.500260 
1707.000000	64.525055 
1706.000000	64.550304 
1705.000000	64.576339 
1704.000000	64.602971 
1703.000000	64.629387 
1702.000000	64.653849 
1701.000000	64.674544 
1700.000000	64.689683 
1699.000000	64.698076 
1698.000000	64.699602 
1697.000000	64.695692 
1696.000000	64.688587 
1695.000000	64.681386 
1694.000000	64.677000 
1693.000000	64.677834 
1692.000000	64.684987 
1691.000000	64.698076 
1690.000000	64.715480 
1689.000000	64.734649 
1688.000000	64.752578 
1687.000000	64.766550 
1686.000000	64.774489 
1685.000000	64.775419 
1684.000000	64.769268 
1683.000000	64.756846 
1682.000000	64.739704 
1681.000000	64.719748 
1680.000000	64.698910 
1679.000000	64.678835 
1678.000000	64.661097 
1677.000000	64.646863 
1676.000000	64.636850 
1675.000000	64.631080 
1674.000000	64.629220 
1673.000000	64.630436 
1672.000000	64.633536 
1671.000000	64.637255 
1670.000000	64.640450 
1669.000000	64.642381 
1668.000000	64.642739 
1667.000000	64.641594 
1666.000000	64.639210 
1665.000000	64.635825 
1664.000000	64.631438 
1663.000000	64.625573 
1662.000000	64.617419 
1661.000000	64.605998 
1660.000000	64.590477 
1659.000000	64.570665 
1658.000000	64.547038 
1657.000000	64.520812 
1656.000000	64.493536 
1655.000000	64.466953 
1654.000000	64.442396 
1653.000000	64.420461 
1652.000000	64.401125 
1651.000000	64.383888 
1650.000000	64.368391 
1649.000000	64.354395 
1648.000000	64.342689 
1647.000000	64.334392 
1646.000000	64.331412 
1645.000000	64.335370 
1644.000000	64.347648 
1643.000000	64.368462 
1642.000000	64.397001 
1641.000000	64.431095 
1640.000000	64.467883 
1639.000000	64.503931 
1638.000000	64.536023 
1637.000000	64.561653 
1636.000000	64.579248 
1635.000000	64.588141 
1634.000000	64.588785 
1633.000000	64.582371 
1632.000000	64.570593 
1631.000000	64.555168 
1630.000000	64.537930 
1629.000000	64.520382 
1628.000000	64.503526 
1627.000000	64.487695 
1626.000000	64.472794 
1625.000000	64.458584 
1624.000000	64.444732 
1623.000000	64.431309 
1622.000000	64.418506 
1621.000000	64.407038 
1620.000000	64.397811 
1619.000000	64.391779 
1618.000000	64.389419 
1617.000000	64.391088 
1616.000000	64.396572 
1615.000000	64.405632 
1614.000000	64.417648 
1613.000000	64.432168 
1612.000000	64.448928 
1611.000000	64.467835 
1610.000000	64.488720 
1609.000000	64.511084 
1608.000000	64.533901 
1607.000000	64.555621 
1606.000000	64.574289 
1605.000000	64.588117 
1604.000000	64.595675 
1603.000000	64.596676 
1602.000000	64.591741 
1601.000000	64.582085 
1600.000000	64.569020 
1599.000000	64.553952 
1598.000000	64.537739 
1597.000000	64.520621 
1596.000000	64.502382 
1595.000000	64.482998 
1594.000000	64.462542 
1593.000000	64.441585 
1592.000000	64.420986 
1591.000000	64.402079 
1590.000000	64.386320 
1589.000000	64.374923 
1588.000000	64.368772 
1587.000000	64.368057 
1586.000000	64.372563 
1585.000000	64.381456 
1584.000000	64.393854 
1583.000000	64.408612 
1582.000000	64.424943 
1581.000000	64.442396 
1580.000000	64.460659 
1579.000000	64.479470 
1578.000000	64.498615 
1577.000000	64.517831 
1576.000000	64.536452 
1575.000000	64.553761 
1574.000000	64.569044 
1573.000000	64.581990 
1572.000000	64.592647 
1571.000000	64.601421 
1570.000000	64.609169 
1569.000000	64.616847 
1568.000000	64.625382 
1567.000000	64.635252 
1566.000000	64.646601 
1565.000000	64.658713 
1564.000000	64.670681 
1563.000000	64.680695 
1562.000000	64.686799 
1561.000000	64.686942 
1560.000000	64.679598 
1559.000000	64.663958 
1558.000000	64.640545 
1557.000000	64.611053 
1556.000000	64.578342 
1555.000000	64.545750 
1554.000000	64.516496 
1553.000000	64.493012 
1552.000000	64.476418 
1551.000000	64.466619 
1550.000000	64.462208 
1549.000000	64.461088 
1548.000000	64.461016 
1547.000000	64.459991 
1546.000000	64.456987 
1545.000000	64.451646 
1544.000000	64.444661 
1543.000000	64.437174 
1542.000000	64.430642 
1541.000000	64.426398 
1540.000000	64.425206 
1539.000000	64.427137 
1538.000000	64.431571 
1537.000000	64.437294 
1536.000000	64.442849 
1535.000000	64.446949 
1534.000000	64.448690 
1533.000000	64.447641 
1532.000000	64.443874 
1531.000000	64.437913 
1530.000000	64.430522 
1529.000000	64.422726 
1528.000000	64.415764 
1527.000000	64.410924 
1526.000000	64.409613 
1525.000000	64.413070 
1524.000000	64.421987 
1523.000000	64.436244 
1522.000000	64.454793 
1521.000000	64.475798 
1520.000000	64.496707 
1519.000000	64.514851 
1518.000000	64.528012 
1517.000000	64.534926 
1516.000000	64.535617 
1515.000000	64.531350 
1514.000000	64.524507 
1513.000000	64.517712 
1512.000000	64.513325 
1511.000000	64.512538 
1510.000000	64.515471 
1509.000000	64.520978 
1508.000000	64.527225 
1507.000000	64.531970 
1506.000000	64.533543 
1505.000000	64.530944 
1504.000000	64.524340 
1503.000000	64.514636 
1502.000000	64.503240 
1501.000000	64.491868 
1500.000000	64.482164 
1499.000000	64.475369 
1498.000000	64.471960 
1497.000000	64.471435 
1496.000000	64.472532 
1495.000000	64.473223 
1494.000000	64.471364 
1493.000000	64.465284 
1492.000000	64.454364 
1491.000000	64.439201 
1490.000000	64.421629 
1489.000000	64.404368 
1488.000000	64.390802 
1487.000000	64.383745 
1486.000000	64.385223 
1485.000000	64.396119 
1484.000000	64.415884 
1483.000000	64.442849 
1482.000000	64.474129 
1481.000000	64.506196 
1480.000000	64.535427 
1479.000000	64.558601 
1478.000000	64.573335 
1477.000000	64.578223 
1476.000000	64.573168 
1475.000000	64.559197 
1474.000000	64.538097 
1473.000000	64.512276 
1472.000000	64.484143 
1471.000000	64.455962 
1470.000000	64.429402 
1469.000000	64.405584 
1468.000000	64.385008 
1467.000000	64.367747 
1466.000000	64.353680 
1465.000000	64.342522 
1464.000000	64.334130 
1463.000000	64.328265 
1462.000000	64.324665 
1461.000000	64.323234 
1460.000000	64.323425 
1459.000000	64.324975 
1458.000000	64.327454 
1457.000000	64.331078 
1456.000000	64.336037 
1455.000000	64.343142 
1454.000000	64.353108 
1453.000000	64.366722 
1452.000000	64.384222 
1451.000000	64.405155 
1450.000000	64.428162 
1449.000000	64.451098 
1448.000000	64.471268 
1447.000000	64.485859 
1446.000000	64.492392 
1445.000000	64.489364 
1444.000000	64.476537 
1443.000000	64.454936 
1442.000000	64.426851 
1441.000000	64.395499 
1440.000000	64.364385 
1439.000000	64.336609 
1438.000000	64.314341 
1437.000000	64.298701 
1436.000000	64.289402 
1435.000000	64.284944 
1434.000000	64.283156 
1433.000000	64.281415 
1432.000000	64.277815 
1431.000000	64.271235 
1430.000000	64.262080 
1429.000000	64.251613 
1428.000000	64.242100 
1427.000000	64.235806 
1426.000000	64.234972 
1425.000000	64.240646 
1424.000000	64.253115 
1423.000000	64.271688 
1422.000000	64.294791 
1421.000000	64.320445 
1420.000000	64.346456 
1419.000000	64.370822 
1418.000000	64.391946 
1417.000000	64.408636 
1416.000000	64.420509 
1415.000000	64.427971 
1414.000000	64.432096 
1413.000000	64.434313 
1412.000000	64.436078 
1411.000000	64.438343 
1410.000000	64.441514 
1409.000000	64.445042 
1408.000000	64.447307 
1407.000000	64.446234 
1406.000000	64.439845 
1405.000000	64.426994 
1404.000000	64.407610 
1403.000000	64.383268 
1402.000000	64.356827 
1401.000000	64.331674 
1400.000000	64.310932 
1399.000000	64.296603 
1398.000000	64.288997 
1397.000000	64.286875 
1396.000000	64.287853 
1395.000000	64.289236 
1394.000000	64.288926 
1393.000000	64.285850 
1392.000000	64.280200 
1391.000000	64.273166 
1390.000000	64.266490 
1389.000000	64.261674 
1388.000000	64.259696 
1387.000000	64.260435 
1386.000000	64.262843 
1385.000000	64.265465 
1384.000000	64.266777 
1383.000000	64.265871 
1382.000000	64.262747 
1381.000000	64.258480 
1380.000000	64.254927 
1379.000000	64.254140 
1378.000000	64.257574 
1377.000000	64.265751 
1376.000000	64.277791 
1375.000000	64.291834 
1374.000000	64.305114 
1373.000000	64.314746 
1372.000000	64.318418 
1371.000000	64.315223 
1370.000000	64.305710 
1369.000000	64.291787 
1368.000000	64.276432 
1367.000000	64.262962 
1366.000000	64.254307 
1365.000000	64.252328 
1364.000000	64.257645 
1363.000000	64.269304 
1362.000000	64.285445 
1361.000000	64.303374 
1360.000000	64.320278 
1359.000000	64.333701 
1358.000000	64.341497 
1357.000000	64.342355 
1356.000000	64.335703 
1355.000000	64.321780 
1354.000000	64.301466 
1353.000000	64.276528 
1352.000000	64.249300 
1351.000000	64.222812 
1350.000000	64.200115 
1349.000000	64.184188 
1348.000000	64.177536 
1347.000000	64.181542 
1346.000000	64.196252 
1345.000000	64.220356 
1344.000000	64.251017 
1343.000000	64.284539 
1342.000000	64.316964 
1341.000000	64.344453 
1340.000000	64.364099 
1339.000000	64.374208 
1338.000000	64.374566 
1337.000000	64.366483 
1336.000000	64.352393 
1335.000000	64.335584 
1334.000000	64.319515 
1333.000000	64.307403 
1332.000000	64.301705 
1331.000000	64.303827 
1330.000000	64.313864 
1329.000000	64.330649 
1328.000000	64.352035 
1327.000000	64.375376 
1326.000000	64.398145 
1325.000000	64.418029 
1324.000000	64.433598 
1323.000000	64.444303 
1322.000000	64.450168 
1321.000000	64.452099 
1320.000000	64.450931 
1319.000000	64.447212 
1318.000000	64.441013 
1317.000000	64.432096 
1316.000000	64.419984 
1315.000000	64.404416 
1314.000000	64.385533 
1313.000000	64.364194 
1312.000000	64.341783 
1311.000000	64.320111 
1310.000000	64.300847 
1309.000000	64.285063 
1308.000000	64.273166 
1307.000000	64.264988 
1306.000000	64.259481 
1305.000000	64.255332 
1304.000000	64.251184 
1303.000000	64.246058 
1302.000000	64.239358 
1301.000000	64.231228 
1300.000000	64.222192 
1299.000000	64.213442 
1298.000000	64.206075 
1297.000000	64.201474 
1296.000000	64.200830 
1295.000000	64.205121 
1294.000000	64.214754 
1293.000000	64.229321 
1292.000000	64.247846 
1291.000000	64.268445 
1290.000000	64.288783 
1289.000000	64.306282 
1288.000000	64.318585 
1287.000000	64.324069 
1286.000000	64.322400 
1285.000000	64.314174 
1284.000000	64.300942 
1283.000000	64.284801 
1282.000000	64.268040 
1281.000000	64.252519 
1280.000000	64.239335 
1279.000000	64.228892 
1278.000000	64.220881 
1277.000000	64.214563 
1276.000000	64.208984 
1275.000000	64.203524 
1274.000000	64.197778 
1273.000000	64.191651 
1272.000000	64.185118 
1271.000000	64.178061 
1270.000000	64.170122 
1269.000000	64.160752 
1268.000000	64.149260 
1267.000000	64.135003 
1266.000000	64.118170 
1265.000000	64.099454 
1264.000000	64.080619 
1263.000000	64.064073 
1262.000000	64.052510 
1261.000000	64.048576 
1260.000000	64.053964 
1259.000000	64.068984 
1258.000000	64.092469 
1257.000000	64.121866 
1256.000000	64.153456 
1255.000000	64.183115 
1254.000000	64.207148 
1253.000000	64.222979 
1252.000000	64.229416 
1251.000000	64.226984 
1250.000000	64.217519 
1249.000000	64.203572 
1248.000000	64.188122 
1247.000000	64.173793 
1246.000000	64.162349 
1245.000000	64.154577 
1244.000000	64.150619 
1243.000000	64.149785 
1242.000000	64.151263 
1241.000000	64.153981 
1240.000000	64.157414 
1239.000000	64.161205 
1238.000000	64.165425 
1237.000000	64.169979 
1236.000000	64.174771 
1235.000000	64.179134 
1234.000000	64.181876 
1233.000000	64.181399 
1232.000000	64.175963 
1231.000000	64.164066 
1230.000000	64.144968 
1229.000000	64.118838 
1228.000000	64.087176 
1227.000000	64.052629 
1226.000000	64.018702 
1225.000000	63.989162 
1224.000000	63.967561 
1223.000000	63.956713 
1222.000000	63.958358 
1221.000000	63.972640 
1220.000000	63.998246 
1219.000000	64.032578 
1218.000000	64.072060 
1217.000000	64.112782 
1216.000000	64.150786 
1215.000000	64.182496 
1214.000000	64.205479 
1213.000000	64.218354 
1212.000000	64.221167 
1211.000000	64.215278 
1210.000000	64.203119 
1209.000000	64.187741 
1208.000000	64.172005 
1207.000000	64.158177 
1206.000000	64.147448 
1205.000000	64.140033 
1204.000000	64.135146 
1203.000000	64.131712 
1202.000000	64.128732 
1201.000000	64.125680 
1200.000000	64.122653 
1199.000000	64.120435 
1198.000000	64.119911 
1197.000000	64.121890 
1196.000000	64.126706 
1195.000000	64.134168 
1194.000000	64.143276 
1193.000000	64.152741 
1192.000000	64.161014 
1191.000000	64.166879 
1190.000000	64.169454 
1189.000000	64.168643 
1188.000000	64.164996 
1187.000000	64.159703 
1186.000000	64.154028 
1185.000000	64.149141 
1184.000000	64.146161 
1183.000000	64.145493 
1182.000000	64.146995 
1181.000000	64.149880 
1180.000000	64.153003 
1179.000000	64.155054 
1178.000000	64.154887 
1177.000000	64.151620 
1176.000000	64.144968 
1175.000000	64.135265 
1174.000000	64.123463 
1173.000000	64.110636 
1172.000000	64.097929 
1171.000000	64.086174 
1170.000000	64.075708 
1169.000000	64.066529 
1168.000000	64.058351 
1167.000000	64.050722 
1166.000000	64.043354 
1165.000000	64.036297 
1164.000000	64.030337 
1163.000000	64.026141 
1162.000000	64.024710 
1161.000000	64.026761 
1160.000000	64.032626 
1159.000000	64.041757 
1158.000000	64.052963 
1157.000000	64.064717 
1156.000000	64.075326 
1155.000000	64.083242 
1154.000000	64.087438 
1153.000000	64.087533 
1152.000000	64.083766 
1151.000000	64.077067 
1150.000000	64.068722 
1149.000000	64.060115 
1148.000000	64.052653 
1147.000000	64.047479 
1146.000000	64.045095 
1145.000000	64.045286 
1144.000000	64.047384 
1143.000000	64.050245 
1142.000000	64.052581 
1141.000000	64.053153 
1140.000000	64.051318 
1139.000000	64.046740 
1138.000000	64.039373 
1137.000000	64.029192 
1136.000000	64.016246 
1135.000000	64.000511 
1134.000000	63.982272 
1133.000000	63.962006 
1132.000000	63.940525 
1131.000000	63.919210 
1130.000000	63.899588 
1129.000000	63.883590 
1128.000000	63.872742 
1127.000000	63.868713 
1126.000000	63.872933 
1125.000000	63.886404 
1124.000000	63.909268 
1123.000000	63.940644 
1122.000000	63.978505 
1121.000000	64.019680 
1120.000000	64.060401 
1119.000000	64.096999 
1118.000000	64.126920 
1117.000000	64.149188 
1116.000000	64.164757 
1115.000000	64.176011 
1114.000000	64.186072 
1113.000000	64.197945 
1112.000000	64.213490 
1111.000000	64.233183 
1110.000000	64.255309 
1109.000000	64.277267 
1108.000000	64.295387 
1107.000000	64.306163 
1106.000000	64.306735 
1105.000000	64.295816 
1104.000000	64.273667 
1103.000000	64.242005 
1102.000000	64.203429 
1101.000000	64.161181 
1100.000000	64.118099 
1099.000000	64.076304 
1098.000000	64.037203 
1097.000000	64.001703 
1096.000000	63.970518 
1095.000000	63.944554 
1094.000000	63.925051 
1093.000000	63.913273 
1092.000000	63.910222 
1091.000000	63.916254 
1090.000000	63.930177 
1089.000000	63.949704 
1088.000000	63.971757 
1087.000000	63.993215 
1086.000000	64.011335 
1085.000000	64.024496 
1084.000000	64.032292 
1083.000000	64.035677 
1082.000000	64.036297 
1081.000000	64.036202 
1080.000000	64.037084 
1079.000000	64.040088 
1078.000000	64.045643 
1077.000000	64.053416 
1076.000000	64.062952 
1075.000000	64.073514 
1074.000000	64.084529 
1073.000000	64.095568 
1072.000000	64.106249 
1071.000000	64.116168 
1070.000000	64.124846 
1069.000000	64.131784 
1068.000000	64.136409 
1067.000000	64.138388 
1066.000000	64.137816 
1065.000000	64.135169 
1064.000000	64.131450 
1063.000000	64.127874 
1062.000000	64.125871 
1061.000000	64.126801 
1060.000000	64.131808 
1059.000000	64.141702 
1058.000000	64.156770 
1057.000000	64.176917 
1056.000000	64.201283 
1055.000000	64.228487 
1054.000000	64.256429 
1053.000000	64.282345 
1052.000000	64.303231 
1051.000000	64.316153 
1050.000000	64.319038 
1049.000000	64.311003 
1048.000000	64.292716 
1047.000000	64.266514 
1046.000000	64.235687 
1045.000000	64.203953 
1044.000000	64.174509 
1043.000000	64.149451 
1042.000000	64.129519 
1041.000000	64.114379 
1040.000000	64.102911 
1039.000000	64.093708 
1038.000000	64.085459 
1037.000000	64.077496 
1036.000000	64.069557 
1035.000000	64.061975 
1034.000000	64.055061 
1033.000000	64.049267 
1032.000000	64.044904 
1031.000000	64.042472 
1030.000000	64.042496 
1029.000000	64.045643 
1028.000000	64.053034 
1027.000000	64.065742 
1026.000000	64.084291 
1025.000000	64.108324 
1024.000000	64.136409 
1023.000000	64.165854 
1022.000000	64.193534 
1021.000000	64.215946 
1020.000000	64.230084 
1019.000000	64.233851 
1018.000000	64.226651 
1017.000000	64.209151 
1016.000000	64.183402 
1015.000000	64.152073 
1014.000000	64.118027 
1013.000000	64.083933 
1012.000000	64.052295 
1011.000000	64.024877 
1010.000000	64.002966 
1009.000000	63.987421 
1008.000000	63.979125 
1007.000000	63.979053 
1006.000000	63.988351 
1005.000000	64.007973 
1004.000000	64.038634 
1003.000000	64.080429 
1002.000000	64.132547 
1001.000000	64.192962 
1000.000000	64.258003 
999.000000	 64.322996 
998.000000	 64.382028 
997.000000	 64.429283 
996.000000	 64.459538 
995.000000	 64.469504 
994.000000	 64.458370 
993.000000	 64.428234 
992.000000	 64.383840 
991.000000	 64.332246 
990.000000	 64.281201 
989.000000	 64.238142 
988.000000	 64.208889 
987.000000	 64.196729 
986.000000	 64.201998 
985.000000	 64.222192 
984.000000	 64.252376 
983.000000	 64.286279 
982.000000	 64.317631 
981.000000	 64.341425 
980.000000	 64.354324 
979.000000	 64.355564 
978.000000	 64.346718 
977.000000	 64.331007 
976.000000	 64.312767 
975.000000	 64.295983 
974.000000	 64.283704 
973.000000	 64.277100 
972.000000	 64.275765 
971.000000	 64.277458 
970.000000	 64.278984 
969.000000	 64.277005 
968.000000	 64.269089 
967.000000	 64.254212 
966.000000	 64.232897 
965.000000	 64.207077 
964.000000	 64.179611 
963.000000	 64.153671 
962.000000	 64.131879 
961.000000	 64.116287 
960.000000	 64.107942 
959.000000	 64.107322 
958.000000	 64.114403 
957.000000	 64.128804 
956.000000	 64.149928 
955.000000	 64.176917 
954.000000	 64.208531 
953.000000	 64.243125 
952.000000	 64.278602 
951.000000	 64.312124 
950.000000	 64.340567 
949.000000	 64.361000 
948.000000	 64.371204 
947.000000	 64.370059 
946.000000	 64.358091 
945.000000	 64.337539 
944.000000	 64.312195 
943.000000	 64.286947 
942.000000	 64.266753 
941.000000	 64.256000 
940.000000	 64.257216 
939.000000	 64.271092 
938.000000	 64.295673 
937.000000	 64.327263 
936.000000	 64.360785 
935.000000	 64.390897 
934.000000	 64.413166 
933.000000	 64.424610 
932.000000	 64.424204 
931.000000	 64.412975 
930.000000	 64.393186 
929.000000	 64.367532 
928.000000	 64.338684 
927.000000	 64.308500 
926.000000	 64.278101 
925.000000	 64.247655 
924.000000	 64.217138 
923.000000	 64.186501 
922.000000	 64.156341 
921.000000	 64.127635 
920.000000	 64.101743 
919.000000	 64.079976 
918.000000	 64.063191 
917.000000	 64.051771 
916.000000	 64.045119 
915.000000	 64.042186 
914.000000	 64.041376 
913.000000	 64.041304 
912.000000	 64.041113 
911.000000	 64.040589 
910.000000	 64.040088 
909.000000	 64.040184 
908.000000	 64.041376 
907.000000	 64.043736 
906.000000	 64.046740 
905.000000	 64.049458 
904.000000	 64.050674 
903.000000	 64.049839 
902.000000	 64.047217 
901.000000	 64.044141 
900.000000	 64.042615 
899.000000	 64.044737 
898.000000	 64.052057 
897.000000	 64.064788 
896.000000	 64.081883 
895.000000	 64.100742 
894.000000	 64.118385 
893.000000	 64.131879 
892.000000	 64.139890 
891.000000	 64.142489 
890.000000	 64.141821 
889.000000	 64.141631 
888.000000	 64.146113 
887.000000	 64.158558 
886.000000	 64.180421 
885.000000	 64.211010 
884.000000	 64.246988 
883.000000	 64.283227 
882.000000	 64.313745 
881.000000	 64.333295 
880.000000	 64.338636 
879.000000	 64.329361 
878.000000	 64.308023 
877.000000	 64.279460 
876.000000	 64.249873 
875.000000	 64.225363 
874.000000	 64.210629 
873.000000	 64.207959 
872.000000	 64.217066 
871.000000	 64.235115 
870.000000	 64.257645 
869.000000	 64.279651 
868.000000	 64.296460 
867.000000	 64.305186 
866.000000	 64.304685 
865.000000	 64.296483 
864.000000	 64.283871 
863.000000	 64.271712 
862.000000	 64.265012 
861.000000	 64.267706 
860.000000	 64.282083 
859.000000	 64.307594 
858.000000	 64.341235 
857.000000	 64.377522 
856.000000	 64.409828 
855.000000	 64.431595 
854.000000	 64.437818 
853.000000	 64.426040 
852.000000	 64.397096 
851.000000	 64.354586 
850.000000	 64.304018 
849.000000	 64.251756 
848.000000	 64.203739 
847.000000	 64.164042 
846.000000	 64.134693 
845.000000	 64.115810 
844.000000	 64.106202 
843.000000	 64.103937 
842.000000	 64.107298 
841.000000	 64.114999 
840.000000	 64.126396 
839.000000	 64.140605 
838.000000	 64.156866 
837.000000	 64.173388 
836.000000	 64.188408 
835.000000	 64.199709 
834.000000	 64.206075 
833.000000	 64.207553 
832.000000	 64.205980 
831.000000	 64.204645 
830.000000	 64.206933 
829.000000	 64.215373 
828.000000	 64.230203 
827.000000	 64.249229 
826.000000	 64.267969 
825.000000	 64.280629 
824.000000	 64.281797 
823.000000	 64.267873 
822.000000	 64.237689 
821.000000	 64.192748 
820.000000	 64.136981 
819.000000	 64.075613 
818.000000	 64.013671 
817.000000	 63.955235 
816.000000	 63.902902 
815.000000	 63.858079 
814.000000	 63.821291 
813.000000	 63.792991 
812.000000	 63.773798 
811.000000	 63.764643 
810.000000	 63.766336 
809.000000	 63.779115 
808.000000	 63.801550 
807.000000	 63.831138 
806.000000	 63.864183 
805.000000	 63.896870 
804.000000	 63.925480 
803.000000	 63.947629 
802.000000	 63.962578 
801.000000	 63.971424 
800.000000	 63.976287 
799.000000	 63.980531 
798.000000	 63.987874 
797.000000	 64.001774 
796.000000	 64.024710 
795.000000	 64.057898 
794.000000	 64.100694 
793.000000	 64.150953 
792.000000	 64.204931 
791.000000	 64.257884 
790.000000	 64.304542 
789.000000	 64.339876 
788.000000	 64.359998 
787.000000	 64.362859 
786.000000	 64.348673 
785.000000	 64.320230 
784.000000	 64.281940 
783.000000	 64.239668 
782.000000	 64.198851 
781.000000	 64.164543 
780.000000	 64.139509 
779.000000	 64.124250 
778.000000	 64.116668 
777.000000	 64.113187 
776.000000	 64.109230 
775.000000	 64.100217 
774.000000	 64.082813 
773.000000	 64.055514 
772.000000	 64.019250 
771.000000	 63.977122 
770.000000	 63.933920 
769.000000	 63.894867 
768.000000	 63.864183 
767.000000	 63.843917 
766.000000	 63.833808 
765.000000	 63.830661 
764.000000	 63.829040 
763.000000	 63.822126 
762.000000	 63.803243 
761.000000	 63.767647 
760.000000	 63.713192 
759.000000	 63.641905 
758.000000	 63.558650 
757.000000	 63.472032 
756.000000	 63.391828 
755.000000	 63.328456 
754.000000	 63.290381 
753.000000	 63.283038 
752.000000	 63.307380 
751.000000	 63.359951 
750.000000	 63.433527 
749.000000	 63.518357 
748.000000	 63.603401 
747.000000	 63.678956 
746.000000	 63.737654 
745.000000	 63.776993 
744.000000	 63.798952 
743.000000	 63.809609 
742.000000	 63.817238 
741.000000	 63.830685 
740.000000	 63.857030 
739.000000	 63.899970 
738.000000	 63.958692 
737.000000	 64.029121 
736.000000	 64.104104 
735.000000	 64.175558 
734.000000	 64.235734 
733.000000	 64.278507 
732.000000	 64.300417 
731.000000	 64.301133 
730.000000	 64.283704 
729.000000	 64.253687 
728.000000	 64.218521 
727.000000	 64.186882 
726.000000	 64.166498 
725.000000	 64.163827 
724.000000	 64.181375 
723.000000	 64.218354 
722.000000	 64.268708 
721.000000	 64.322733 
720.000000	 64.367985 
719.000000	 64.391899 
718.000000	 64.384889 
717.000000	 64.342379 
716.000000	 64.265418 
715.000000	 64.160060 
714.000000	 64.035367 
713.000000	 63.901233 
712.000000	 63.765859 
711.000000	 63.635182 
710.000000	 63.512587 
709.000000	 63.400506 
708.000000	 63.302183 
707.000000	 63.222479 
706.000000	 63.167572 
705.000000	 63.143587 
704.000000	 63.154101 
703.000000	 63.198614 
702.000000	 63.270521 
701.000000	 63.358569 
700.000000	 63.446927 
699.000000	 63.520145 
698.000000	 63.566160 
697.000000	 63.579225 
696.000000	 63.561224 
695.000000	 63.519930 
694.000000	 63.466310 
693.000000	 63.411116 
692.000000	 63.361740 
691.000000	 63.321208 
690.000000	 63.288426 
689.000000	 63.260173 
688.000000	 63.233637 
687.000000	 63.208985 
686.000000	 63.190579 
685.000000	 63.185882 
684.000000	 63.203811 
683.000000	 63.251852 
682.000000	 63.333630 
681.000000	 63.446903 
680.000000	 63.583159 
679.000000	 63.728976 
678.000000	 63.868188 
677.000000	 63.985872 
676.000000	 64.070153 
675.000000	 64.114522 
674.000000	 64.118242 
673.000000	 64.086222 
672.000000	 64.027237 
671.000000	 63.952159 
670.000000	 63.871788 
669.000000	 63.796448 
668.000000	 63.732910 
667.000000	 63.685011 
666.000000	 63.652539 
665.000000	 63.633227 
664.000000	 63.622045 
663.000000	 63.612508 
662.000000	 63.598370 
661.000000	 63.574719 
660.000000	 63.537859 
659.000000	 63.486027 
658.000000	 63.419389 
657.000000	 63.340139 
656.000000	 63.252353 
655.000000	 63.161277 
654.000000	 63.072109 
653.000000	 62.989592 
652.000000	 62.917232 
651.000000	 62.857913 
650.000000	 62.811827 
649.000000	 62.779068 
648.000000	 62.759661 
647.000000	 62.754869 
646.000000	 62.764883 
645.000000	 62.791728 
644.000000	 62.837195 
643.000000	 62.903904 
642.000000	 62.992215 
641.000000	 63.102173 
640.000000	 63.231754 
639.000000	 63.378143 
638.000000	 63.537216 
637.000000	 63.704204 
636.000000	 63.873577 
635.000000	 64.039063 
634.000000	 64.193558 
633.000000	 64.328169 
632.000000	 64.432716 
631.000000	 64.497995 
630.000000	 64.516901 
629.000000	 64.485979 
628.000000	 64.405941 
627.000000	 64.284873 
626.000000	 64.134550 
625.000000	 63.969349 
624.000000	 63.802027 
623.000000	 63.643336 
622.000000	 63.499355 
621.000000	 63.371467 
620.000000	 63.258361 
619.000000	 63.157749 
618.000000	 63.068866 
617.000000	 62.993860 
616.000000	 62.937331 
615.000000	 62.904334 
614.000000	 62.898015 
613.000000	 62.916874 
612.000000	 62.954330 
611.000000	 62.998056 
610.000000	 63.035130 
609.000000	 63.054728 
608.000000	 63.053035 
607.000000	 63.034415 
606.000000	 63.012361 
605.000000	 63.005971 
604.000000	 63.034844 
603.000000	 63.113570 
602.000000	 63.247680 
601.000000	 63.430976 
600.000000	 63.646888 
599.000000	 63.870906 
598.000000	 64.077138 
597.000000	 64.242339 
596.000000	 64.351797 
595.000000	 64.400100 
594.000000	 64.391255 
593.000000	 64.336490 
592.000000	 64.251112 
591.000000	 64.151144 
590.000000	 64.050340 
589.000000	 63.958954 
588.000000	 63.885140 
587.000000	 63.833689 
586.000000	 63.807964 
585.000000	 63.809680 
584.000000	 63.839364 
583.000000	 63.896179 
582.000000	 63.977432 
581.000000	 64.078378 
580.000000	 64.191818 
579.000000	 64.309954 
578.000000	 64.425039 
577.000000	 64.529895 
576.000000	 64.618492 
575.000000	 64.687514 
574.000000	 64.735245 
573.000000	 64.761304 
572.000000	 64.765334 
571.000000	 64.747428 
570.000000	 64.707398 
569.000000	 64.645767 
568.000000	 64.564204 
567.000000	 64.467763 
566.000000	 64.363408 
565.000000	 64.260172 
564.000000	 64.166808 
563.000000	 64.091157 
562.000000	 64.037942 
561.000000	 64.007496 
560.000000	 63.996744 
559.000000	 63.999748 
558.000000	 64.010095 
557.000000	 64.022374 
556.000000	 64.032459 
555.000000	 64.037299 
554.000000	 64.034533 
553.000000	 64.021801 
552.000000	 63.996481 
551.000000	 63.955688 
550.000000	 63.896751 
549.000000	 63.818240 
548.000000	 63.721179 
547.000000	 63.609719 
546.000000	 63.490986 
545.000000	 63.374257 
544.000000	 63.269662 
543.000000	 63.186049 
542.000000	 63.129639 
541.000000	 63.102102 
540.000000	 63.099503 
539.000000	 63.113999 
538.000000	 63.135099 
537.000000	 63.153147 
536.000000	 63.159942 
535.000000	 63.152885 
534.000000	 63.134360 
533.000000	 63.112521 
532.000000	 63.097715 
531.000000	 63.100886 
530.000000	 63.129949 
529.000000	 63.187217 
528.000000	 63.268089 
527.000000	 63.361525 
526.000000	 63.452672 
525.000000	 63.526153 
524.000000	 63.570070 
523.000000	 63.578724 
522.000000	 63.554501 
521.000000	 63.506674 
520.000000	 63.450002 
519.000000	 63.401055 
518.000000	 63.375234 
517.000000	 63.383245 
516.000000	 63.429784 
515.000000	 63.513779 
514.000000	 63.628554 
513.000000	 63.763785 
512.000000	 63.907623 
511.000000	 64.049339 
510.000000	 64.180159 
509.000000	 64.293694 
508.000000	 64.386105 
507.000000	 64.455413 
506.000000	 64.501118 
505.000000	 64.524030 
504.000000	 64.525198 
503.000000	 64.506387 
502.000000	 64.469313 
501.000000	 64.416599 
500.000000	 64.351606 
499.000000	 64.278960 
498.000000	 64.205145 
497.000000	 64.137935 
496.000000	 64.085769 
495.000000	 64.056134 
494.000000	 64.053487 
493.000000	 64.078545 
492.000000	 64.126944 
491.000000	 64.191007 
490.000000	 64.261388 
489.000000	 64.329791 
488.000000	 64.389705 
487.000000	 64.438390 
486.000000	 64.477157 
485.000000	 64.509272 
484.000000	 64.538931 
483.000000	 64.567852 
482.000000	 64.594292 
481.000000	 64.612388 
480.000000	 64.614462 
479.000000	 64.592599 
478.000000	 64.542722 
477.000000	 64.464783 
476.000000	 64.364409 
475.000000	 64.250564 
474.000000	 64.134335 
473.000000	 64.025449 
472.000000	 63.930583 
471.000000	 63.856482 
470.000000	 63.809347 
469.000000	 63.795399 
468.000000	 63.818883 
467.000000	 63.880419 
466.000000	 63.974547 
465.000000	 64.089107 
464.000000	 64.206337 
463.000000	 64.302730 
462.000000	 64.356780 
461.000000	 64.353561 
460.000000	 64.290761 
459.000000	 64.179134 
458.000000	 64.042425 
457.000000	 63.912081 
456.000000	 63.820648 
455.000000	 63.794469 
454.000000	 63.846421 
453.000000	 63.973140 
452.000000	 64.154839 
451.000000	 64.362096 
450.000000	 64.558267 
449.000000	 64.709329 
448.000000	 64.784574 
447.000000	 64.762735 
446.000000	 64.632463 
445.000000	 64.395141 
444.000000	 64.065122 
443.000000	 63.670134 
442.000000	 63.249874 
441.000000	 62.852859 
440.000000	 62.530708 
439.000000	 62.330865 
438.000000	 62.289929 
437.000000	 62.425613 
436.000000	 62.729239 
435.000000	 63.167738 
434.000000	 63.691210 
433.000000	 64.238810 
432.000000	 64.744710 
431.000000	 65.151691 
430.000000	 65.423965 
429.000000	 65.545320 
428.000000	 65.513420 
427.000000	 65.343976 
426.000000	 65.069556 
425.000000	 64.729046 
424.000000	 64.360332 
423.000000	 64.000821 
422.000000	 63.686609 
421.000000	 63.446807 
420.000000	 63.303470 
419.000000	 63.262510 
418.000000	 63.314414 
417.000000	 63.432931 
416.000000	 63.583660 
415.000000	 63.727951 
414.000000	 63.838934 
413.000000	 63.903903 
412.000000	 63.938474 
411.000000	 63.984012 
410.000000	 64.106345 
409.000000	 64.370107 
408.000000	 64.835882 
407.000000	 65.530157 
406.000000	 66.457033 
405.000000	 67.590999 
404.000000	 68.894767 
403.000000	 70.313239 
402.000000	 71.799612 
401.000000	 73.327207 
400.000000	 74.874663 
399.000000	 76.429295 
398.000000	 77.950763 
397.000000	 79.362177 
396.000000	 80.559110 
395.000000	 81.443786 
394.000000	 81.907439 
393.000000	 81.860756 
392.000000	 81.277537 
391.000000	 80.216240 
390.000000	 78.840851 
389.000000	 77.400183 
388.000000	 76.158404 
387.000000	 75.345110 
386.000000	 75.130033 
385.000000	 75.574183 
384.000000	 76.632308 
383.000000	 78.138804 
382.000000	 79.855012 
381.000000	 81.490707 
380.000000	 82.752871 
379.000000	 83.397316 
378.000000	 83.276343 
377.000000	 82.363128 
376.000000	 80.722951 
375.000000	 78.552150 
374.000000	 76.073193 
373.000000	 73.640441 
372.000000	 71.596002 
371.000000	 70.430016 
370.000000	 70.744013 

