PE IR       SPECTRUM    SPECTRUM    ASCII       PEDS        1.60        
  -1
BZ6FA1~1.ASC
17/04/07
14:34:59.00
17/04/07
14:34:59.00
tln
$BZ1503107-1_t0017$<tbV0>[0.0,-10.4,8.0,0.0,27,1,0]
370.000000
64









2002,4.07    
MIRTGS : RIGHTBACK : INTERNAL 2
MIR : ON : INTERNAL 2
OPTKBR

0.200000
8
8.000000
FILLER
RATIO
SPECTRUM
UNLOCKED 256

DOUBLE
64
COMBINED
1
0
0


1.000000
RATIO


1
0
TRUE
51149
0
LEFT NOT FITTED RIGHT NOT FITTED 0
NONE
NONE
15600
12.000000
4.427000
51148
TRUE
1 0 8 72 0 0 0 0 

15798.010000






#HDR
-1
-1
#GR
CM-1
%T
0.00002384185791015625
0.0
5000.000000
-1.000000
4631
8
75.257253
45.221090
#DATA
5000.000000	66.783714 
4999.000000	67.059397 
4998.000000	67.298102 
4997.000000	67.497920 
4996.000000	67.653727 
4995.000000	67.759156 
4994.000000	67.799496 
4993.000000	67.758345 
4992.000000	67.617058 
4991.000000	67.364859 
4990.000000	67.001414 
4989.000000	66.544198 
4988.000000	66.024923 
4987.000000	65.487360 
4986.000000	64.978909 
4985.000000	64.542961 
4984.000000	64.212107 
4983.000000	64.004039 
4982.000000	63.920187 
4981.000000	63.948559 
4980.000000	64.069056 
4979.000000	64.259505 
4978.000000	64.497327 
4977.000000	64.764118 
4976.000000	65.043854 
4975.000000	65.323925 
4974.000000	65.589165 
4973.000000	65.824294 
4972.000000	66.015195 
4971.000000	66.148972 
4970.000000	66.218352 
4969.000000	66.218996 
4968.000000	66.154050 
4967.000000	66.029644 
4966.000000	65.857076 
4965.000000	65.648746 
4964.000000	65.419363 
4963.000000	65.183401 
4962.000000	64.955997 
4961.000000	64.750123 
4960.000000	64.576196 
4959.000000	64.441871 
4958.000000	64.352035 
4957.000000	64.308524 
4956.000000	64.310002 
4955.000000	64.353322 
4954.000000	64.433145 
4953.000000	64.540386 
4952.000000	64.662170 
4951.000000	64.782452 
4950.000000	64.883470 
4949.000000	64.946103 
4948.000000	64.955258 
4947.000000	64.901208 
4946.000000	64.785408 
4945.000000	64.621949 
4944.000000	64.436531 
4943.000000	64.262342 
4942.000000	64.132595 
4941.000000	64.074206 
4940.000000	64.100146 
4939.000000	64.206171 
4938.000000	64.372158 
4937.000000	64.567184 
4936.000000	64.756870 
4935.000000	64.911842 
4934.000000	65.012645 
4933.000000	65.052366 
4932.000000	65.035986 
4931.000000	64.977049 
4930.000000	64.891195 
4929.000000	64.791440 
4928.000000	64.686489 
4927.000000	64.580535 
4926.000000	64.475321 
4925.000000	64.373040 
4924.000000	64.279651 
4923.000000	64.205121 
4922.000000	64.161753 
4921.000000	64.161467 
4920.000000	64.210033 
4919.000000	64.306449 
4918.000000	64.441132 
4917.000000	64.598369 
4916.000000	64.758777 
4915.000000	64.903664 
4914.000000	65.018320 
4913.000000	65.094566 
4912.000000	65.131688 
4911.000000	65.134978 
4910.000000	65.113091 
4909.000000	65.075993 
4908.000000	65.032696 
4907.000000	64.989662 
4906.000000	64.950895 
4905.000000	64.917898 
4904.000000	64.891266 
4903.000000	64.871025 
4902.000000	64.857745 
4901.000000	64.851975 
4900.000000	64.854240 
4899.000000	64.864206 
4898.000000	64.880514 
4897.000000	64.901161 
4896.000000	64.923667 
4895.000000	64.944505 
4894.000000	64.960289 
4893.000000	64.968442 
4892.000000	64.968347 
4891.000000	64.961457 
4890.000000	64.951252 
4889.000000	64.942741 
4888.000000	64.940881 
4887.000000	64.949798 
4886.000000	64.970779 
4885.000000	65.001392 
4884.000000	65.036416 
4883.000000	65.069580 
4882.000000	65.094733 
4881.000000	65.107107 
4880.000000	65.105438 
4879.000000	65.092253 
4878.000000	65.073752 
4877.000000	65.058445 
4876.000000	65.055155 
4875.000000	65.070939 
4874.000000	65.109801 
4873.000000	65.171694 
4872.000000	65.252947 
4871.000000	65.347075 
4870.000000	65.446162 
4869.000000	65.542244 
4868.000000	65.628886 
4867.000000	65.701365 
4866.000000	65.757083 
4865.000000	65.794587 
4864.000000	65.814304 
4863.000000	65.816259 
4862.000000	65.801072 
4861.000000	65.768218 
4860.000000	65.717291 
4859.000000	65.648031 
4858.000000	65.561866 
4857.000000	65.462708 
4856.000000	65.357422 
4855.000000	65.255689 
4854.000000	65.168762 
4853.000000	65.107607 
4852.000000	65.080690 
4851.000000	65.091276 
4850.000000	65.136480 
4849.000000	65.207266 
4848.000000	65.290307 
4847.000000	65.370440 
4846.000000	65.433669 
4845.000000	65.469956 
4844.000000	65.474724 
4843.000000	65.449237 
4842.000000	65.399336 
4841.000000	65.333795 
4840.000000	65.261411 
4839.000000	65.188860 
4838.000000	65.119719 
4837.000000	65.055084 
4836.000000	64.994573 
4835.000000	64.938735 
4834.000000	64.889597 
4833.000000	64.851045 
4832.000000	64.828276 
4831.000000	64.826560 
4830.000000	64.848828 
4829.000000	64.893412 
4828.000000	64.954161 
4827.000000	65.020179 
4826.000000	65.079140 
4825.000000	65.119624 
4824.000000	65.135049 
4823.000000	65.125298 
4822.000000	65.097522 
4821.000000	65.064096 
4820.000000	65.039706 
4819.000000	65.036845 
4818.000000	65.061426 
4817.000000	65.110707 
4816.000000	65.173101 
4815.000000	65.231847 
4814.000000	65.269589 
4813.000000	65.274858 
4812.000000	65.244507 
4811.000000	65.187501 
4810.000000	65.122961 
4809.000000	65.076494 
4808.000000	65.073180 
4807.000000	65.130758 
4806.000000	65.254998 
4805.000000	65.435981 
4804.000000	65.651273 
4803.000000	65.868496 
4802.000000	66.054201 
4801.000000	66.179442 
4800.000000	66.226553 
4799.000000	66.192746 
4798.000000	66.090083 
4797.000000	65.942382 
4796.000000	65.778827 
4795.000000	65.628409 
4794.000000	65.513515 
4793.000000	65.447330 
4792.000000	65.431928 
4791.000000	65.459012 
4790.000000	65.512323 
4789.000000	65.572547 
4788.000000	65.620803 
4787.000000	65.641093 
4786.000000	65.623784 
4785.000000	65.564513 
4784.000000	65.466928 
4783.000000	65.340995 
4782.000000	65.201663 
4781.000000	65.066361 
4780.000000	64.950370 
4779.000000	64.865970 
4778.000000	64.817023 
4777.000000	64.800167 
4776.000000	64.803266 
4775.000000	64.808893 
4774.000000	64.798283 
4773.000000	64.755320 
4772.000000	64.672923 
4771.000000	64.554476 
4770.000000	64.415216 
4769.000000	64.277935 
4768.000000	64.170956 
4767.000000	64.120793 
4766.000000	64.146780 
4765.000000	64.255261 
4764.000000	64.437627 
4763.000000	64.670419 
4762.000000	64.920759 
4761.000000	65.152120 
4760.000000	65.330767 
4759.000000	65.432476 
4758.000000	65.446114 
4757.000000	65.375614 
4756.000000	65.237402 
4755.000000	65.056943 
4754.000000	64.862871 
4753.000000	64.681816 
4752.000000	64.534997 
4751.000000	64.434814 
4750.000000	64.386415 
4749.000000	64.386463 
4748.000000	64.426350 
4747.000000	64.493799 
4746.000000	64.576148 
4745.000000	64.661169 
4744.000000	64.737653 
4743.000000	64.797067 
4742.000000	64.833283 
4741.000000	64.844393 
4740.000000	64.832210 
4739.000000	64.802455 
4738.000000	64.763331 
4737.000000	64.724397 
4736.000000	64.694285 
4735.000000	64.679694 
4734.000000	64.683508 
4733.000000	64.705014 
4732.000000	64.739370 
4731.000000	64.779448 
4730.000000	64.816522 
4729.000000	64.842987 
4728.000000	64.853048 
4727.000000	64.843106 
4726.000000	64.813208 
4725.000000	64.765763 
4724.000000	64.707231 
4723.000000	64.646363 
4722.000000	64.593672 
4721.000000	64.559412 
4720.000000	64.551901 
4719.000000	64.577102 
4718.000000	64.634490 
4717.000000	64.717054 
4716.000000	64.811205 
4715.000000	64.899301 
4714.000000	64.963579 
4713.000000	64.990425 
4712.000000	64.973711 
4711.000000	64.916443 
4710.000000	64.830303 
4709.000000	64.732933 
4708.000000	64.643645 
4707.000000	64.578795 
4706.000000	64.548611 
4705.000000	64.554786 
4704.000000	64.591407 
4703.000000	64.646744 
4702.000000	64.706945 
4701.000000	64.760065 
4700.000000	64.798021 
4699.000000	64.819288 
4698.000000	64.827346 
4697.000000	64.830303 
4696.000000	64.836812 
4695.000000	64.854502 
4694.000000	64.887356 
4693.000000	64.934825 
4692.000000	64.993000 
4691.000000	65.054225 
4690.000000	65.109682 
4689.000000	65.151238 
4688.000000	65.173792 
4687.000000	65.176653 
4686.000000	65.163564 
4685.000000	65.141868 
4684.000000	65.120244 
4683.000000	65.106511 
4682.000000	65.105128 
4681.000000	65.116047 
4680.000000	65.134334 
4679.000000	65.151786 
4678.000000	65.159058 
4677.000000	65.148854 
4676.000000	65.117859 
4675.000000	65.067243 
4674.000000	65.003180 
4673.000000	64.934611 
4672.000000	64.872288 
4671.000000	64.825820 
4670.000000	64.802694 
4669.000000	64.805793 
4668.000000	64.834785 
4667.000000	64.887142 
4666.000000	64.958262 
4665.000000	65.042734 
4664.000000	65.133953 
4663.000000	65.224719 
4662.000000	65.306830 
4661.000000	65.371608 
4660.000000	65.411210 
4659.000000	65.419983 
4658.000000	65.396094 
4657.000000	65.342545 
4656.000000	65.267562 
4655.000000	65.183544 
4654.000000	65.104818 
4653.000000	65.044879 
4652.000000	65.014314 
4651.000000	65.017700 
4650.000000	65.053677 
4649.000000	65.114140 
4648.000000	65.186691 
4647.000000	65.256357 
4646.000000	65.309071 
4645.000000	65.333914 
4644.000000	65.324640 
4643.000000	65.280866 
4642.000000	65.207314 
4641.000000	65.113139 
4640.000000	65.009355 
4639.000000	64.907622 
4638.000000	64.818191 
4637.000000	64.748620 
4636.000000	64.703321 
4635.000000	64.682960 
4634.000000	64.685201 
4633.000000	64.705538 
4632.000000	64.738130 
4631.000000	64.776277 
4630.000000	64.813113 
4629.000000	64.842605 
4628.000000	64.860153 
4627.000000	64.862346 
4626.000000	64.847683 
4625.000000	64.816904 
4624.000000	64.773201 
4623.000000	64.722228 
4622.000000	64.671254 
4621.000000	64.628124 
4620.000000	64.600038 
4619.000000	64.592695 
4618.000000	64.608550 
4617.000000	64.646291 
4616.000000	64.700770 
4615.000000	64.763736 
4614.000000	64.825797 
4613.000000	64.878129 
4612.000000	64.914631 
4611.000000	64.932799 
4610.000000	64.934182 
4609.000000	64.923453 
4608.000000	64.907097 
4607.000000	64.891529 
4606.000000	64.880299 
4605.000000	64.873194 
4604.000000	64.866113 
4603.000000	64.852523 
4602.000000	64.825487 
4601.000000	64.780235 
4600.000000	64.715838 
4599.000000	64.636397 
4598.000000	64.549970 
4597.000000	64.467740 
4596.000000	64.400863 
4595.000000	64.359045 
4594.000000	64.347934 
4593.000000	64.368748 
4592.000000	64.418387 
4591.000000	64.489889 
4590.000000	64.573621 
4589.000000	64.659214 
4588.000000	64.736890 
4587.000000	64.799475 
4586.000000	64.842748 
4585.000000	64.866018 
4584.000000	64.871072 
4583.000000	64.862084 
4582.000000	64.844489 
4581.000000	64.823126 
4580.000000	64.801430 
4579.000000	64.780592 
4578.000000	64.759993 
4577.000000	64.737439 
4576.000000	64.710736 
4575.000000	64.678955 
4574.000000	64.643287 
4573.000000	64.607572 
4572.000000	64.577937 
4571.000000	64.560937 
4570.000000	64.562773 
4569.000000	64.586567 
4568.000000	64.632654 
4567.000000	64.697933 
4566.000000	64.776635 
4565.000000	64.862060 
4564.000000	64.946722 
4563.000000	65.023946 
4562.000000	65.087604 
4561.000000	65.133261 
4560.000000	65.157389 
4559.000000	65.157723 
4558.000000	65.133047 
4557.000000	65.083599 
4556.000000	65.011286 
4555.000000	64.920473 
4554.000000	64.817452 
4553.000000	64.710211 
4552.000000	64.608120 
4551.000000	64.520716 
4550.000000	64.456009 
4549.000000	64.419150 
4548.000000	64.411163 
4547.000000	64.428997 
4546.000000	64.465808 
4545.000000	64.512777 
4544.000000	64.560627 
4543.000000	64.601898 
4542.000000	64.632058 
4541.000000	64.650344 
4540.000000	64.658045 
4539.000000	64.659023 
4538.000000	64.657402 
4537.000000	64.657568 
4536.000000	64.663243 
4535.000000	64.676570 
4534.000000	64.698910 
4533.000000	64.729237 
4532.000000	64.765191 
4531.000000	64.801907 
4530.000000	64.833450 
4529.000000	64.852762 
4528.000000	64.853096 
4527.000000	64.829826 
4526.000000	64.782047 
4525.000000	64.712047 
4524.000000	64.625167 
4523.000000	64.530920 
4522.000000	64.441466 
4521.000000	64.367294 
4520.000000	64.316225 
4519.000000	64.292621 
4518.000000	64.297962 
4517.000000	64.331078 
4516.000000	64.389443 
4515.000000	64.471077 
4514.000000	64.573645 
4513.000000	64.691257 
4512.000000	64.816522 
4511.000000	64.939880 
4510.000000	65.052175 
4509.000000	65.146136 
4508.000000	65.217328 
4507.000000	65.264654 
4506.000000	65.289974 
4505.000000	65.298223 
4504.000000	65.295386 
4503.000000	65.285301 
4502.000000	65.274834 
4501.000000	65.273356 
4500.000000	65.294742 
4499.000000	65.354847 
4498.000000	65.472221 
4497.000000	65.663123 
4496.000000	65.934062 
4495.000000	66.277551 
4494.000000	66.668081 
4493.000000	67.067813 
4492.000000	67.429947 
4491.000000	67.714476 
4490.000000	67.900896 
4489.000000	67.995166 
4488.000000	68.032550 
4487.000000	68.063378 
4486.000000	68.143200 
4485.000000	68.307304 
4484.000000	68.562340 
4483.000000	68.874645 
4482.000000	69.183635 
4481.000000	69.409227 
4480.000000	69.477415 
4479.000000	69.336915 
4478.000000	68.982410 
4477.000000	68.447089 
4476.000000	67.794227 
4475.000000	67.105007 
4474.000000	66.462135 
4473.000000	65.925407 
4472.000000	65.520095 
4471.000000	65.239429 
4470.000000	65.052056 
4469.000000	64.919495 
4468.000000	64.810538 
4467.000000	64.701604 
4466.000000	64.583110 
4465.000000	64.457821 
4464.000000	64.337372 
4463.000000	64.227867 
4462.000000	64.130234 
4461.000000	64.039587 
4460.000000	63.946270 
4459.000000	63.840222 
4458.000000	63.710403 
4457.000000	63.558006 
4456.000000	63.379645 
4455.000000	63.178968 
4454.000000	62.939119 
4453.000000	62.636685 
4452.000000	62.218999 
4451.000000	61.618638 
4450.000000	60.764551 
4449.000000	59.602427 
4448.000000	58.128070 
4447.000000	56.398534 
4446.000000	54.551029 
4445.000000	52.782845 
4444.000000	51.332664 
4443.000000	50.432133 
4442.000000	50.262999 
4441.000000	50.915312 
4440.000000	52.362632 
4439.000000	54.465985 
4438.000000	56.992459 
4437.000000	59.665989 
4436.000000	62.215542 
4435.000000	64.426803 
4434.000000	66.167902 
4433.000000	67.400121 
4432.000000	68.160080 
4431.000000	68.531823 
4430.000000	68.619036 
4429.000000	68.507266 
4428.000000	68.260574 
4427.000000	67.904829 
4426.000000	67.465853 
4425.000000	66.955351 
4424.000000	66.405320 
4423.000000	65.856480 
4422.000000	65.371370 
4421.000000	65.008473 
4420.000000	64.810967 
4419.000000	64.794659 
4418.000000	64.941787 
4417.000000	65.206336 
4416.000000	65.523171 
4415.000000	65.828371 
4414.000000	66.072344 
4413.000000	66.224002 
4412.000000	66.275215 
4411.000000	66.234588 
4410.000000	66.123461 
4409.000000	65.968608 
4408.000000	65.796232 
4407.000000	65.624523 
4406.000000	65.463495 
4405.000000	65.326666 
4404.000000	65.222740 
4403.000000	65.151500 
4402.000000	65.109682 
4401.000000	65.097141 
4400.000000	65.112829 
4399.000000	65.151834 
4398.000000	65.208172 
4397.000000	65.272974 
4396.000000	65.337276 
4395.000000	65.392875 
4394.000000	65.432620 
4393.000000	65.450525 
4392.000000	65.443754 
4391.000000	65.413022 
4390.000000	65.361118 
4389.000000	65.292048 
4388.000000	65.212154 
4387.000000	65.129017 
4386.000000	65.049934 
4385.000000	64.980959 
4384.000000	64.925408 
4383.000000	64.883923 
4382.000000	64.856100 
4381.000000	64.840579 
4380.000000	64.834952 
4379.000000	64.836716 
4378.000000	64.842963 
4377.000000	64.851379 
4376.000000	64.860200 
4375.000000	64.868450 
4374.000000	64.874815 
4373.000000	64.878702 
4372.000000	64.880108 
4371.000000	64.879226 
4370.000000	64.876127 
4369.000000	64.870810 
4368.000000	64.863014 
4367.000000	64.853191 
4366.000000	64.842724 
4365.000000	64.833879 
4364.000000	64.829397 
4363.000000	64.831805 
4362.000000	64.842438 
4361.000000	64.860677 
4360.000000	64.883756 
4359.000000	64.906930 
4358.000000	64.924502 
4357.000000	64.931058 
4356.000000	64.923095 
4355.000000	64.899349 
4354.000000	64.861989 
4353.000000	64.816069 
4352.000000	64.769482 
4351.000000	64.731311 
4350.000000	64.710044 
4349.000000	64.712476 
4348.000000	64.741158 
4347.000000	64.794111 
4346.000000	64.864063 
4345.000000	64.940166 
4344.000000	65.009450 
4343.000000	65.059518 
4342.000000	65.081262 
4341.000000	65.070462 
4340.000000	65.029096 
4339.000000	64.964532 
4338.000000	64.888143 
4337.000000	64.812874 
4336.000000	64.750599 
4335.000000	64.709711 
4334.000000	64.693760 
4333.000000	64.701318 
4332.000000	64.726638 
4331.000000	64.761471 
4330.000000	64.796948 
4329.000000	64.825773 
4328.000000	64.842891 
4327.000000	64.846897 
4326.000000	64.838600 
4325.000000	64.821362 
4324.000000	64.799404 
4323.000000	64.777207 
4322.000000	64.758610 
4321.000000	64.746093 
4320.000000	64.740800 
4319.000000	64.742493 
4318.000000	64.750480 
4317.000000	64.763283 
4316.000000	64.779305 
4315.000000	64.796948 
4314.000000	64.814662 
4313.000000	64.831137 
4312.000000	64.845037 
4311.000000	64.855051 
4310.000000	64.860105 
4309.000000	64.859414 
4308.000000	64.852857 
4307.000000	64.841198 
4306.000000	64.826154 
4305.000000	64.809989 
4304.000000	64.795136 
4303.000000	64.784002 
4302.000000	64.778327 
4301.000000	64.778709 
4300.000000	64.784264 
4299.000000	64.793062 
4298.000000	64.802527 
4297.000000	64.810180 
4296.000000	64.814829 
4295.000000	64.816045 
4294.000000	64.815473 
4293.000000	64.815688 
4292.000000	64.820361 
4291.000000	64.832687 
4290.000000	64.854979 
4289.000000	64.887762 
4288.000000	64.929699 
4287.000000	64.977788 
4286.000000	65.027904 
4285.000000	65.075755 
4284.000000	65.117669 
4283.000000	65.151262 
4282.000000	65.175557 
4281.000000	65.191054 
4280.000000	65.199160 
4279.000000	65.201759 
4278.000000	65.200877 
4277.000000	65.197968 
4276.000000	65.194249 
4275.000000	65.190196 
4274.000000	65.185928 
4273.000000	65.181088 
4272.000000	65.175437 
4271.000000	65.168452 
4270.000000	65.159678 
4269.000000	65.148615 
4268.000000	65.134835 
4267.000000	65.117859 
4266.000000	65.097665 
4265.000000	65.074300 
4264.000000	65.048122 
4263.000000	65.019845 
4262.000000	64.990568 
4261.000000	64.961600 
4260.000000	64.934468 
4259.000000	64.910936 
4258.000000	64.892745 
4257.000000	64.881491 
4256.000000	64.878201 
4255.000000	64.882993 
4254.000000	64.895081 
4253.000000	64.912343 
4252.000000	64.931726 
4251.000000	64.949941 
4250.000000	64.964175 
4249.000000	64.972472 
4248.000000	64.974308 
4247.000000	64.970731 
4246.000000	64.963841 
4245.000000	64.956212 
4244.000000	64.949917 
4243.000000	64.946198 
4242.000000	64.944887 
4241.000000	64.944696 
4240.000000	64.943933 
4239.000000	64.941024 
4238.000000	64.935517 
4237.000000	64.928412 
4236.000000	64.922213 
4235.000000	64.919948 
4234.000000	64.924478 
4233.000000	64.937877 
4232.000000	64.960432 
4231.000000	64.990448 
4230.000000	65.024828 
4229.000000	65.059876 
4228.000000	65.092039 
4227.000000	65.118622 
4226.000000	65.138316 
4225.000000	65.151143 
4224.000000	65.157938 
4223.000000	65.159726 
4222.000000	65.157318 
4221.000000	65.150833 
4220.000000	65.139842 
4219.000000	65.123629 
4218.000000	65.101909 
4217.000000	65.075135 
4216.000000	65.045070 
4215.000000	65.014576 
4214.000000	64.986801 
4213.000000	64.965295 
4212.000000	64.952874 
4211.000000	64.951705 
4210.000000	64.962577 
4209.000000	64.985442 
4208.000000	65.019464 
4207.000000	65.063047 
4206.000000	65.113925 
4205.000000	65.168786 
4204.000000	65.223574 
4203.000000	65.273213 
4202.000000	65.312027 
4201.000000	65.334868 
4200.000000	65.338206 
4199.000000	65.321135 
4198.000000	65.286111 
4197.000000	65.239357 
4196.000000	65.189576 
4195.000000	65.146613 
4194.000000	65.118718 
4193.000000	65.110731 
4192.000000	65.122294 
4191.000000	65.148305 
4190.000000	65.180063 
4189.000000	65.207505 
4188.000000	65.221977 
4187.000000	65.218520 
4186.000000	65.197157 
4185.000000	65.162277 
4184.000000	65.121364 
4183.000000	65.082621 
4182.000000	65.052723 
4181.000000	65.035057 
4180.000000	65.028929 
4179.000000	65.030312 
4178.000000	65.033054 
4177.000000	65.030956 
4176.000000	65.019297 
4175.000000	64.996147 
4174.000000	64.962196 
4173.000000	64.920616 
4172.000000	64.875912 
4171.000000	64.833045 
4170.000000	64.796972 
4169.000000	64.772224 
4168.000000	64.762520 
4167.000000	64.770340 
4166.000000	64.796638 
4165.000000	64.840412 
4164.000000	64.898347 
4163.000000	64.965152 
4162.000000	65.033841 
4161.000000	65.097236 
4160.000000	65.148735 
4159.000000	65.183424 
4158.000000	65.198945 
4157.000000	65.195369 
4156.000000	65.175318 
4155.000000	65.143036 
4154.000000	65.103721 
4153.000000	65.062785 
4152.000000	65.025019 
4151.000000	64.994716 
4150.000000	64.975214 
4149.000000	64.969205 
4148.000000	64.978623 
4147.000000	65.004205 
4146.000000	65.045261 
4145.000000	65.099215 
4144.000000	65.161371 
4143.000000	65.225219 
4142.000000	65.283012 
4141.000000	65.327072 
4140.000000	65.351009 
4139.000000	65.350961 
4138.000000	65.326595 
4137.000000	65.281128 
4136.000000	65.221261 
4135.000000	65.155863 
4134.000000	65.094351 
4133.000000	65.045309 
4132.000000	65.014696 
4131.000000	65.005588 
4130.000000	65.017127 
4129.000000	65.045404 
4128.000000	65.083622 
4127.000000	65.123891 
4126.000000	65.158390 
4125.000000	65.180492 
4124.000000	65.186500 
4123.000000	65.175437 
4122.000000	65.150022 
4121.000000	65.115594 
4120.000000	65.079140 
4119.000000	65.047550 
4118.000000	65.026593 
4117.000000	65.019536 
4116.000000	65.026593 
4115.000000	65.044927 
4114.000000	65.069365 
4113.000000	65.093874 
4112.000000	65.113067 
4111.000000	65.123486 
4110.000000	65.124011 
4109.000000	65.116119 
4108.000000	65.103292 
4107.000000	65.089702 
4106.000000	65.079331 
4105.000000	65.074682 
4104.000000	65.076470 
4103.000000	65.083765 
4102.000000	65.094900 
4101.000000	65.107822 
4100.000000	65.120887 
4099.000000	65.133500 
4098.000000	65.145993 
4097.000000	65.159749 
4096.000000	65.176296 
4095.000000	65.196704 
4094.000000	65.221118 
4093.000000	65.248584 
4092.000000	65.277218 
4091.000000	65.304589 
4090.000000	65.328264 
4089.000000	65.346336 
4088.000000	65.357708 
4087.000000	65.362501 
4086.000000	65.361571 
4085.000000	65.356278 
4084.000000	65.347743 
4083.000000	65.337014 
4082.000000	65.324521 
4081.000000	65.310788 
4080.000000	65.296220 
4079.000000	65.281391 
4078.000000	65.267205 
4077.000000	65.254688 
4076.000000	65.244984 
4075.000000	65.238952 
4074.000000	65.237092 
4073.000000	65.239691 
4072.000000	65.246486 
4071.000000	65.256857 
4070.000000	65.269827 
4069.000000	65.284156 
4068.000000	65.298366 
4067.000000	65.310883 
4066.000000	65.320348 
4065.000000	65.325903 
4064.000000	65.327405 
4063.000000	65.325355 
4062.000000	65.321111 
4061.000000	65.316224 
4060.000000	65.312337 
4059.000000	65.310597 
4058.000000	65.311574 
4057.000000	65.315032 
4056.000000	65.319776 
4055.000000	65.324163 
4054.000000	65.326833 
4053.000000	65.326714 
4052.000000	65.323328 
4051.000000	65.316557 
4050.000000	65.306377 
4049.000000	65.292572 
4048.000000	65.274643 
4047.000000	65.251946 
4046.000000	65.224051 
4045.000000	65.191245 
4044.000000	65.154933 
4043.000000	65.117859 
4042.000000	65.083575 
4041.000000	65.056371 
4040.000000	65.040087 
4039.000000	65.037703 
4038.000000	65.050649 
4037.000000	65.078282 
4036.000000	65.117740 
4035.000000	65.164566 
4034.000000	65.213060 
4033.000000	65.256953 
4032.000000	65.290307 
4031.000000	65.308237 
4030.000000	65.307807 
4029.000000	65.288090 
4028.000000	65.250682 
4027.000000	65.199565 
4026.000000	65.140533 
4025.000000	65.080475 
4024.000000	65.026116 
4023.000000	64.982986 
4022.000000	64.954543 
4021.000000	64.941835 
4020.000000	64.943552 
4019.000000	64.956784 
4018.000000	64.977884 
4017.000000	65.003371 
4016.000000	65.030431 
4015.000000	65.056848 
4014.000000	65.081262 
4013.000000	65.102767 
4012.000000	65.120625 
4011.000000	65.133571 
4010.000000	65.140295 
4009.000000	65.139627 
4008.000000	65.130710 
4007.000000	65.113353 
4006.000000	65.088510 
4005.000000	65.058207 
4004.000000	65.025043 
4003.000000	64.991879 
4002.000000	64.961385 
4001.000000	64.935612 
4000.000000	64.915966 
3999.000000	64.902758 
3998.000000	64.895534 
3997.000000	64.893102 
3996.000000	64.893531 
3995.000000	64.894843 
3994.000000	64.894890 
3993.000000	64.892864 
3992.000000	64.888834 
3991.000000	64.884829 
3990.000000	64.883899 
3989.000000	64.889812 
3988.000000	64.906001 
3987.000000	64.934301 
3986.000000	64.974403 
3985.000000	65.023541 
3984.000000	65.077018 
3983.000000	65.128970 
3982.000000	65.173935 
3981.000000	65.208220 
3980.000000	65.230798 
3979.000000	65.243697 
3978.000000	65.251040 
3977.000000	65.258049 
3976.000000	65.269041 
3975.000000	65.286493 
3974.000000	65.309548 
3973.000000	65.334916 
3972.000000	65.356707 
3971.000000	65.369033 
3970.000000	65.366673 
3969.000000	65.346932 
3968.000000	65.310215 
3967.000000	65.259933 
3966.000000	65.202188 
3965.000000	65.144228 
3964.000000	65.093207 
3963.000000	65.054535 
3962.000000	65.031218 
3961.000000	65.023422 
3960.000000	65.028500 
3959.000000	65.042114 
3958.000000	65.059304 
3957.000000	65.075659 
3956.000000	65.087962 
3955.000000	65.094757 
3954.000000	65.096306 
3953.000000	65.094137 
3952.000000	65.090227 
3951.000000	65.086221 
3950.000000	65.083003 
3949.000000	65.080070 
3948.000000	65.076208 
3947.000000	65.069365 
3946.000000	65.057754 
3945.000000	65.040183 
3944.000000	65.016651 
3943.000000	64.988255 
3942.000000	64.957070 
3941.000000	64.925718 
3940.000000	64.896798 
3939.000000	64.872288 
3938.000000	64.853453 
3937.000000	64.840579 
3936.000000	64.833259 
3935.000000	64.830255 
3934.000000	64.829993 
3933.000000	64.830851 
3932.000000	64.831447 
3931.000000	64.830875 
3930.000000	64.828658 
3929.000000	64.825105 
3928.000000	64.821314 
3927.000000	64.819121 
3926.000000	64.820909 
3925.000000	64.829087 
3924.000000	64.845466 
3923.000000	64.870858 
3922.000000	64.904427 
3921.000000	64.943647 
3920.000000	64.984846 
3919.000000	65.023493 
3918.000000	65.055322 
3917.000000	65.077519 
3916.000000	65.088963 
3915.000000	65.090394 
3914.000000	65.083980 
3913.000000	65.073204 
3912.000000	65.061545 
3911.000000	65.051603 
3910.000000	65.044808 
3909.000000	65.041399 
3908.000000	65.040421 
3907.000000	65.040469 
3906.000000	65.040183 
3905.000000	65.038800 
3904.000000	65.036559 
3903.000000	65.034580 
3902.000000	65.034198 
3901.000000	65.036249 
3900.000000	65.040731 
3899.000000	65.046739 
3898.000000	65.052294 
3897.000000	65.055441 
3896.000000	65.054750 
3895.000000	65.050411 
3894.000000	65.044379 
3893.000000	65.040373 
3892.000000	65.042996 
3891.000000	65.056777 
3890.000000	65.084624 
3889.000000	65.127205 
3888.000000	65.182423 
3887.000000	65.245485 
3886.000000	65.310239 
3885.000000	65.369939 
3884.000000	65.418958 
3883.000000	65.452980 
3882.000000	65.470242 
3881.000000	65.470290 
3880.000000	65.454030 
3879.000000	65.422701 
3878.000000	65.377664 
3877.000000	65.320277 
3876.000000	65.252399 
3875.000000	65.176939 
3874.000000	65.098261 
3873.000000	65.022325 
3872.000000	64.955925 
3871.000000	64.905428 
3870.000000	64.875674 
3869.000000	64.868378 
3868.000000	64.882206 
3867.000000	64.912009 
3866.000000	64.951062 
3865.000000	64.992237 
3864.000000	65.030312 
3863.000000	65.062499 
3862.000000	65.089511 
3861.000000	65.114641 
3860.000000	65.142536 
3859.000000	65.177011 
3858.000000	65.219688 
3857.000000	65.269017 
3856.000000	65.320110 
3855.000000	65.366244 
3854.000000	65.400171 
3853.000000	65.416789 
3852.000000	65.413761 
3851.000000	65.392589 
3850.000000	65.357565 
3849.000000	65.314769 
3848.000000	65.270590 
3847.000000	65.230226 
3846.000000	65.197324 
3845.000000	65.173506 
3844.000000	65.159344 
3843.000000	65.154528 
3842.000000	65.157914 
3841.000000	65.168142 
3840.000000	65.183472 
3839.000000	65.202116 
3838.000000	65.221619 
3837.000000	65.239620 
3836.000000	65.253496 
3835.000000	65.261387 
3834.000000	65.262246 
3833.000000	65.255951 
3832.000000	65.243172 
3831.000000	65.225505 
3830.000000	65.204954 
3829.000000	65.183591 
3828.000000	65.163183 
3827.000000	65.145134 
3826.000000	65.130734 
3825.000000	65.120697 
3824.000000	65.115332 
3823.000000	65.114164 
3822.000000	65.116095 
3821.000000	65.119266 
3820.000000	65.121412 
3819.000000	65.120482 
3818.000000	65.115380 
3817.000000	65.106582 
3816.000000	65.096163 
3815.000000	65.087175 
3814.000000	65.083050 
3813.000000	65.086698 
3812.000000	65.099596 
3811.000000	65.121817 
3810.000000	65.151429 
3809.000000	65.185189 
3808.000000	65.218973 
3807.000000	65.248799 
3806.000000	65.271306 
3805.000000	65.284323 
3804.000000	65.286970 
3803.000000	65.279674 
3802.000000	65.263676 
3801.000000	65.240859 
3800.000000	65.213155 
3799.000000	65.182399 
3798.000000	65.150475 
3797.000000	65.119481 
3796.000000	65.091538 
3795.000000	65.069150 
3794.000000	65.054678 
3793.000000	65.050125 
3792.000000	65.056562 
3791.000000	65.073680 
3790.000000	65.099453 
3789.000000	65.130257 
3788.000000	65.161085 
3787.000000	65.186643 
3786.000000	65.202164 
3785.000000	65.204668 
3784.000000	65.193223 
3783.000000	65.169596 
3782.000000	65.137910 
3781.000000	65.103697 
3780.000000	65.072560 
3779.000000	65.049195 
3778.000000	65.036463 
3777.000000	65.035271 
3776.000000	65.044593 
3775.000000	65.061855 
3774.000000	65.083909 
3773.000000	65.107440 
3772.000000	65.129852 
3771.000000	65.149116 
3770.000000	65.163755 
3769.000000	65.172672 
3768.000000	65.174984 
3767.000000	65.170145 
3766.000000	65.158057 
3765.000000	65.139555 
3764.000000	65.116572 
3763.000000	65.092206 
3762.000000	65.070509 
3761.000000	65.055942 
3760.000000	65.052819 
3759.000000	65.063953 
3758.000000	65.090513 
3757.000000	65.131640 
3756.000000	65.184879 
3755.000000	65.246295 
3754.000000	65.311241 
3753.000000	65.375018 
3752.000000	65.433359 
3751.000000	65.482854 
3750.000000	65.520930 
3749.000000	65.545988 
3748.000000	65.557193 
3747.000000	65.554928 
3746.000000	65.540146 
3745.000000	65.514707 
3744.000000	65.481257 
3743.000000	65.443229 
3742.000000	65.404224 
3741.000000	65.367531 
3740.000000	65.335583 
3739.000000	65.309548 
3738.000000	65.289163 
3737.000000	65.272712 
3736.000000	65.257644 
3735.000000	65.241169 
3734.000000	65.221142 
3733.000000	65.196728 
3732.000000	65.168476 
3731.000000	65.138626 
3730.000000	65.110516 
3729.000000	65.087795 
3728.000000	65.073394 
3727.000000	65.068888 
3726.000000	65.073990 
3725.000000	65.086698 
3724.000000	65.103435 
3723.000000	65.120601 
3722.000000	65.135264 
3721.000000	65.146064 
3720.000000	65.153121 
3719.000000	65.158390 
3718.000000	65.164756 
3717.000000	65.175271 
3716.000000	65.191841 
3715.000000	65.215134 
3714.000000	65.244007 
3713.000000	65.276098 
3712.000000	65.308284 
3711.000000	65.337347 
3710.000000	65.360522 
3709.000000	65.376329 
3708.000000	65.384507 
3707.000000	65.385389 
3706.000000	65.379786 
3705.000000	65.368890 
3704.000000	65.353894 
3703.000000	65.336179 
3702.000000	65.316867 
3701.000000	65.297627 
3700.000000	65.279746 
3699.000000	65.264606 
3698.000000	65.253019 
3697.000000	65.245223 
3696.000000	65.240955 
3695.000000	65.239715 
3694.000000	65.240931 
3693.000000	65.244197 
3692.000000	65.249323 
3691.000000	65.256261 
3690.000000	65.264987 
3689.000000	65.275168 
3688.000000	65.286278 
3687.000000	65.297508 
3686.000000	65.308094 
3685.000000	65.317583 
3684.000000	65.326023 
3683.000000	65.334105 
3682.000000	65.343308 
3681.000000	65.355181 
3680.000000	65.371108 
3679.000000	65.391445 
3678.000000	65.415334 
3677.000000	65.440058 
3676.000000	65.461778 
3675.000000	65.475583 
3674.000000	65.476942 
3673.000000	65.462279 
3672.000000	65.430331 
3671.000000	65.382313 
3670.000000	65.321969 
3669.000000	65.255403 
3668.000000	65.189933 
3667.000000	65.132975 
3666.000000	65.090775 
3665.000000	65.067291 
3664.000000	65.063810 
3663.000000	65.078759 
3662.000000	65.108251 
3661.000000	65.147256 
3660.000000	65.190458 
3659.000000	65.233254 
3658.000000	65.272498 
3657.000000	65.306782 
3656.000000	65.336108 
3655.000000	65.361428 
3654.000000	65.383958 
3653.000000	65.404725 
3652.000000	65.423893 
3651.000000	65.441012 
3650.000000	65.454864 
3649.000000	65.464115 
3648.000000	65.467238 
3647.000000	65.463495 
3646.000000	65.452623 
3645.000000	65.435266 
3644.000000	65.412688 
3643.000000	65.386581 
3642.000000	65.359067 
3641.000000	65.332293 
3640.000000	65.308451 
3639.000000	65.289568 
3638.000000	65.277314 
3637.000000	65.272569 
3636.000000	65.275621 
3635.000000	65.286087 
3634.000000	65.302896 
3633.000000	65.324449 
3632.000000	65.348887 
3631.000000	65.374374 
3630.000000	65.399265 
3629.000000	65.422248 
3628.000000	65.442299 
3627.000000	65.458488 
3626.000000	65.470480 
3625.000000	65.478110 
3624.000000	65.481495 
3623.000000	65.480685 
3622.000000	65.475845 
3621.000000	65.467262 
3620.000000	65.455484 
3619.000000	65.441179 
3618.000000	65.425562 
3617.000000	65.410065 
3616.000000	65.396404 
3615.000000	65.386199 
3614.000000	65.380668 
3613.000000	65.380430 
3612.000000	65.385246 
3611.000000	65.394234 
3610.000000	65.405726 
3609.000000	65.417814 
3608.000000	65.428614 
3607.000000	65.436625 
3606.000000	65.440678 
3605.000000	65.440082 
3604.000000	65.434622 
3603.000000	65.424442 
3602.000000	65.409994 
3601.000000	65.391826 
3600.000000	65.370798 
3599.000000	65.348029 
3598.000000	65.325188 
3597.000000	65.304112 
3596.000000	65.286731 
3595.000000	65.274667 
3594.000000	65.269112 
3593.000000	65.270352 
3592.000000	65.277886 
3591.000000	65.290284 
3590.000000	65.305685 
3589.000000	65.321946 
3588.000000	65.337061 
3587.000000	65.349268 
3586.000000	65.357398 
3585.000000	65.361070 
3584.000000	65.360593 
3583.000000	65.356707 
3582.000000	65.350437 
3581.000000	65.342903 
3580.000000	65.335035 
3579.000000	65.327286 
3578.000000	65.319633 
3577.000000	65.311670 
3576.000000	65.302586 
3575.000000	65.291857 
3574.000000	65.279221 
3573.000000	65.265107 
3572.000000	65.250754 
3571.000000	65.237998 
3570.000000	65.228891 
3569.000000	65.225052 
3568.000000	65.226912 
3567.000000	65.233612 
3566.000000	65.242934 
3565.000000	65.252089 
3564.000000	65.258240 
3563.000000	65.259647 
3562.000000	65.256190 
3561.000000	65.249466 
3560.000000	65.242362 
3559.000000	65.237998 
3558.000000	65.238809 
3557.000000	65.245580 
3556.000000	65.257310 
3555.000000	65.271115 
3554.000000	65.283107 
3553.000000	65.289425 
3552.000000	65.287566 
3551.000000	65.276765 
3550.000000	65.258359 
3549.000000	65.235209 
3548.000000	65.211176 
3547.000000	65.189743 
3546.000000	65.173506 
3545.000000	65.163683 
3544.000000	65.160179 
3543.000000	65.162277 
3542.000000	65.168833 
3541.000000	65.178894 
3540.000000	65.191888 
3539.000000	65.207600 
3538.000000	65.225982 
3537.000000	65.246653 
3536.000000	65.268611 
3535.000000	65.290355 
3534.000000	65.309691 
3533.000000	65.324425 
3532.000000	65.332698 
3531.000000	65.333485 
3530.000000	65.326619 
3529.000000	65.313053 
3528.000000	65.294361 
3527.000000	65.272521 
3526.000000	65.249204 
3525.000000	65.225696 
3524.000000	65.202498 
3523.000000	65.179467 
3522.000000	65.156173 
3521.000000	65.132594 
3520.000000	65.109062 
3519.000000	65.086770 
3518.000000	65.067458 
3517.000000	65.053582 
3516.000000	65.047454 
3515.000000	65.051054 
3514.000000	65.065026 
3513.000000	65.088772 
3512.000000	65.120100 
3511.000000	65.155434 
3510.000000	65.190553 
3509.000000	65.221023 
3508.000000	65.243053 
3507.000000	65.254569 
3506.000000	65.255308 
3505.000000	65.247011 
3504.000000	65.232920 
3503.000000	65.216708 
3502.000000	65.201735 
3501.000000	65.189766 
3500.000000	65.180850 
3499.000000	65.172958 
3498.000000	65.162706 
3497.000000	65.146398 
3496.000000	65.121579 
3495.000000	65.087699 
3494.000000	65.047001 
3493.000000	65.004062 
3492.000000	64.965033 
3491.000000	64.935922 
3490.000000	64.921283 
3489.000000	64.923024 
3488.000000	64.940047 
3487.000000	64.968562 
3486.000000	65.002989 
3485.000000	65.037560 
3484.000000	65.067386 
3483.000000	65.089297 
3482.000000	65.102410 
3481.000000	65.107417 
3480.000000	65.106439 
3479.000000	65.102028 
3478.000000	65.096616 
3477.000000	65.091848 
3476.000000	65.088438 
3475.000000	65.086841 
3474.000000	65.086936 
3473.000000	65.088629 
3472.000000	65.091538 
3471.000000	65.095210 
3470.000000	65.098977 
3469.000000	65.102243 
3468.000000	65.104532 
3467.000000	65.105795 
3466.000000	65.106534 
3465.000000	65.108180 
3464.000000	65.112543 
3463.000000	65.121531 
3462.000000	65.136718 
3461.000000	65.158629 
3460.000000	65.186357 
3459.000000	65.217518 
3458.000000	65.249037 
3457.000000	65.277266 
3456.000000	65.298819 
3455.000000	65.310859 
3454.000000	65.311980 
3453.000000	65.301799 
3452.000000	65.281057 
3451.000000	65.251302 
3450.000000	65.214490 
3449.000000	65.172886 
3448.000000	65.128970 
3447.000000	65.085577 
3446.000000	65.045738 
3445.000000	65.012359 
3444.000000	64.988064 
3443.000000	64.974427 
3442.000000	64.971876 
3441.000000	64.979290 
3440.000000	64.994359 
3439.000000	65.013742 
3438.000000	65.034127 
3437.000000	65.052866 
3436.000000	65.069103 
3435.000000	65.083241 
3434.000000	65.097069 
3433.000000	65.113162 
3432.000000	65.133666 
3431.000000	65.159463 
3430.000000	65.189814 
3429.000000	65.222239 
3428.000000	65.253067 
3427.000000	65.278434 
3426.000000	65.295171 
3425.000000	65.301871 
3424.000000	65.298867 
3423.000000	65.288472 
3422.000000	65.273952 
3421.000000	65.259099 
3420.000000	65.246939 
3419.000000	65.239405 
3418.000000	65.236735 
3417.000000	65.237712 
3416.000000	65.240335 
3415.000000	65.242624 
3414.000000	65.242576 
3413.000000	65.238857 
3412.000000	65.230989 
3411.000000	65.219259 
3410.000000	65.204286 
3409.000000	65.187144 
3408.000000	65.168809 
3407.000000	65.150523 
3406.000000	65.133500 
3405.000000	65.119242 
3404.000000	65.109181 
3403.000000	65.104532 
3402.000000	65.106296 
3401.000000	65.114593 
3400.000000	65.128374 
3399.000000	65.145468 
3398.000000	65.162658 
3397.000000	65.176272 
3396.000000	65.182709 
3395.000000	65.179371 
3394.000000	65.165495 
3393.000000	65.142536 
3392.000000	65.113663 
3391.000000	65.083646 
3390.000000	65.057635 
3389.000000	65.040183 
3388.000000	65.034270 
3387.000000	65.040707 
3386.000000	65.057921 
3385.000000	65.082454 
3384.000000	65.109848 
3383.000000	65.135645 
3382.000000	65.156316 
3381.000000	65.169930 
3380.000000	65.176224 
3379.000000	65.176391 
3378.000000	65.172457 
3377.000000	65.166568 
3376.000000	65.160298 
3375.000000	65.154457 
3374.000000	65.148806 
3373.000000	65.142774 
3372.000000	65.135335 
3371.000000	65.125942 
3370.000000	65.114474 
3369.000000	65.101695 
3368.000000	65.088725 
3367.000000	65.076875 
3366.000000	65.067172 
3365.000000	65.060091 
3364.000000	65.055441 
3363.000000	65.052247 
3362.000000	65.049386 
3361.000000	65.045738 
3360.000000	65.040731 
3359.000000	65.034508 
3358.000000	65.028047 
3357.000000	65.022730 
3356.000000	65.019917 
3355.000000	65.020513 
3354.000000	65.024447 
3353.000000	65.030980 
3352.000000	65.038633 
3351.000000	65.045547 
3350.000000	65.050244 
3349.000000	65.051770 
3348.000000	65.050292 
3347.000000	65.047001 
3346.000000	65.043473 
3345.000000	65.042090 
3344.000000	65.044879 
3343.000000	65.053439 
3342.000000	65.068364 
3341.000000	65.089058 
3340.000000	65.114092 
3339.000000	65.141272 
3338.000000	65.167999 
3337.000000	65.191650 
3336.000000	65.210103 
3335.000000	65.222024 
3334.000000	65.227127 
3333.000000	65.226149 
3332.000000	65.220570 
3331.000000	65.212488 
3330.000000	65.204143 
3329.000000	65.197706 
3328.000000	65.194773 
3327.000000	65.196251 
3326.000000	65.201973 
3325.000000	65.211224 
3324.000000	65.222358 
3323.000000	65.233683 
3322.000000	65.243172 
3321.000000	65.249133 
3320.000000	65.250158 
3319.000000	65.245389 
3318.000000	65.234375 
3317.000000	65.216994 
3316.000000	65.193581 
3315.000000	65.164780 
3314.000000	65.132093 
3313.000000	65.097355 
3312.000000	65.063238 
3311.000000	65.032863 
3310.000000	65.009641 
3309.000000	64.996671 
3308.000000	64.995980 
3307.000000	65.008020 
3306.000000	65.031218 
3305.000000	65.062212 
3304.000000	65.095996 
3303.000000	65.126943 
3302.000000	65.149545 
3301.000000	65.159821 
3300.000000	65.155935 
3299.000000	65.138673 
3298.000000	65.111231 
3297.000000	65.078663 
3296.000000	65.046834 
3295.000000	65.021109 
3294.000000	65.005397 
3293.000000	65.001296 
3292.000000	65.008330 
3291.000000	65.024161 
3290.000000	65.045571 
3289.000000	65.069222 
3288.000000	65.092349 
3287.000000	65.113091 
3286.000000	65.130257 
3285.000000	65.143394 
3284.000000	65.152287 
3283.000000	65.156865 
3282.000000	65.157127 
3281.000000	65.153455 
3280.000000	65.146589 
3279.000000	65.137887 
3278.000000	65.129113 
3277.000000	65.122270 
3276.000000	65.119051 
3275.000000	65.120339 
3274.000000	65.126061 
3273.000000	65.134906 
3272.000000	65.144920 
3271.000000	65.154004 
3270.000000	65.160346 
3269.000000	65.162944 
3268.000000	65.161561 
3267.000000	65.156435 
3266.000000	65.148282 
3265.000000	65.137720 
3264.000000	65.125441 
3263.000000	65.111994 
3262.000000	65.098214 
3261.000000	65.085268 
3260.000000	65.074634 
3259.000000	65.067863 
3258.000000	65.066242 
3257.000000	65.070271 
3256.000000	65.079426 
3255.000000	65.092253 
3254.000000	65.106344 
3253.000000	65.118885 
3252.000000	65.127325 
3251.000000	65.129804 
3250.000000	65.125632 
3249.000000	65.115356 
3248.000000	65.100216 
3247.000000	65.082049 
3246.000000	65.062713 
3245.000000	65.043973 
3244.000000	65.027332 
3243.000000	65.014100 
3242.000000	65.005588 
3241.000000	65.002775 
3240.000000	65.006303 
3239.000000	65.016198 
3238.000000	65.031456 
3237.000000	65.050411 
3236.000000	65.070939 
3235.000000	65.090847 
3234.000000	65.107941 
3233.000000	65.121126 
3232.000000	65.130257 
3231.000000	65.136218 
3230.000000	65.140581 
3229.000000	65.145063 
3228.000000	65.151143 
3227.000000	65.159559 
3226.000000	65.170145 
3225.000000	65.182113 
3224.000000	65.193986 
3223.000000	65.204191 
3222.000000	65.211439 
3221.000000	65.215063 
3220.000000	65.215134 
3219.000000	65.212297 
3218.000000	65.207719 
3217.000000	65.202856 
3216.000000	65.199232 
3215.000000	65.198326 
3214.000000	65.200662 
3213.000000	65.206170 
3212.000000	65.213441 
3211.000000	65.220355 
3210.000000	65.223979 
3209.000000	65.221261 
3208.000000	65.209770 
3207.000000	65.188264 
3206.000000	65.157485 
3205.000000	65.120220 
3204.000000	65.081143 
3203.000000	65.045881 
3202.000000	65.019917 
3201.000000	65.007400 
3200.000000	65.009927 
3199.000000	65.026116 
3198.000000	65.051770 
3197.000000	65.080642 
3196.000000	65.105748 
3195.000000	65.121054 
3194.000000	65.122628 
3193.000000	65.109777 
3192.000000	65.084910 
3191.000000	65.053272 
3190.000000	65.021491 
3189.000000	64.996218 
3188.000000	64.982867 
3187.000000	64.984250 
3186.000000	65.000391 
3185.000000	65.028381 
3184.000000	65.063500 
3183.000000	65.100216 
3182.000000	65.133357 
3181.000000	65.159201 
3180.000000	65.175890 
3179.000000	65.183806 
3178.000000	65.184760 
3177.000000	65.181517 
3176.000000	65.176963 
3175.000000	65.173244 
3174.000000	65.171575 
3173.000000	65.171980 
3172.000000	65.173745 
3171.000000	65.175604 
3170.000000	65.176415 
3169.000000	65.175557 
3168.000000	65.173387 
3167.000000	65.170979 
3166.000000	65.170025 
3165.000000	65.172338 
3164.000000	65.179252 
3163.000000	65.191411 
3162.000000	65.208220 
3161.000000	65.228009 
3160.000000	65.247964 
3159.000000	65.264964 
3158.000000	65.275859 
3157.000000	65.278482 
3156.000000	65.271949 
3155.000000	65.256881 
3154.000000	65.235161 
3153.000000	65.209794 
3152.000000	65.183949 
3151.000000	65.160584 
3150.000000	65.141367 
3149.000000	65.126633 
3148.000000	65.115499 
3147.000000	65.106415 
3146.000000	65.097641 
3145.000000	65.088057 
3144.000000	65.077447 
3143.000000	65.066933 
3142.000000	65.058445 
3141.000000	65.054416 
3140.000000	65.056943 
3139.000000	65.067219 
3138.000000	65.084981 
3137.000000	65.108537 
3136.000000	65.134692 
3135.000000	65.159749 
3134.000000	65.180134 
3133.000000	65.193271 
3132.000000	65.198230 
3131.000000	65.195846 
3130.000000	65.188455 
3129.000000	65.179181 
3128.000000	65.171098 
3127.000000	65.166378 
3126.000000	65.165877 
3125.000000	65.168642 
3124.000000	65.172481 
3123.000000	65.174508 
3122.000000	65.172219 
3121.000000	65.163969 
3120.000000	65.149569 
3119.000000	65.130376 
3118.000000	65.109038 
3117.000000	65.088796 
3116.000000	65.072727 
3115.000000	65.063285 
3114.000000	65.061712 
3113.000000	65.068268 
3112.000000	65.081858 
3111.000000	65.100860 
3110.000000	65.122961 
3109.000000	65.145444 
3108.000000	65.165662 
3107.000000	65.180706 
3106.000000	65.188598 
3105.000000	65.187978 
3104.000000	65.178966 
3103.000000	65.162992 
3102.000000	65.142965 
3101.000000	65.122842 
3100.000000	65.106821 
3099.000000	65.098619 
3098.000000	65.100431 
3097.000000	65.112352 
3096.000000	65.132379 
3095.000000	65.156793 
3094.000000	65.180873 
3093.000000	65.200042 
3092.000000	65.210938 
3091.000000	65.212059 
3090.000000	65.203976 
3089.000000	65.189266 
3088.000000	65.171384 
3087.000000	65.154004 
3086.000000	65.140175 
3085.000000	65.131521 
3084.000000	65.128421 
3083.000000	65.129971 
3082.000000	65.134429 
3081.000000	65.139865 
3080.000000	65.144753 
3079.000000	65.148496 
3078.000000	65.151357 
3077.000000	65.154457 
3076.000000	65.159034 
3075.000000	65.166306 
3074.000000	65.176916 
3073.000000	65.190815 
3072.000000	65.207147 
3071.000000	65.224432 
3070.000000	65.240955 
3069.000000	65.254974 
3068.000000	65.265297 
3067.000000	65.271067 
3066.000000	65.271830 
3065.000000	65.267419 
3064.000000	65.257835 
3063.000000	65.243315 
3062.000000	65.224170 
3061.000000	65.200829 
3060.000000	65.174388 
3059.000000	65.146541 
3058.000000	65.119695 
3057.000000	65.096807 
3056.000000	65.080618 
3055.000000	65.073466 
3054.000000	65.076541 
3053.000000	65.089464 
3052.000000	65.110373 
3051.000000	65.135908 
3050.000000	65.162205 
3049.000000	65.185236 
3048.000000	65.202116 
3047.000000	65.211272 
3046.000000	65.213012 
3045.000000	65.209174 
3044.000000	65.202593 
3043.000000	65.196371 
3042.000000	65.192985 
3041.000000	65.193819 
3040.000000	65.198659 
3039.000000	65.205979 
3038.000000	65.213227 
3037.000000	65.217852 
3036.000000	65.217423 
3035.000000	65.210700 
3034.000000	65.197587 
3033.000000	65.179276 
3032.000000	65.157842 
3031.000000	65.136218 
3030.000000	65.117120 
3029.000000	65.103054 
3028.000000	65.095734 
3027.000000	65.096139 
3026.000000	65.104269 
3025.000000	65.119409 
3024.000000	65.140199 
3023.000000	65.164947 
3022.000000	65.191483 
3021.000000	65.217661 
3020.000000	65.241289 
3019.000000	65.260648 
3018.000000	65.274357 
3017.000000	65.281867 
3016.000000	65.283417 
3015.000000	65.280222 
3014.000000	65.274119 
3013.000000	65.267252 
3012.000000	65.261697 
3011.000000	65.258979 
3010.000000	65.259742 
3009.000000	65.263533 
3008.000000	65.268945 
3007.000000	65.274024 
3006.000000	65.276479 
3005.000000	65.274500 
3004.000000	65.266895 
3003.000000	65.253472 
3002.000000	65.234971 
3001.000000	65.212702 
3000.000000	65.188288 
2999.000000	65.163087 
2998.000000	65.138196 
2997.000000	65.114402 
2996.000000	65.092062 
2995.000000	65.071201 
2994.000000	65.052080 
2993.000000	65.035057 
2992.000000	65.020775 
2991.000000	65.009784 
2990.000000	65.002655 
2989.000000	64.999747 
2988.000000	65.000987 
2987.000000	65.005612 
2986.000000	65.012431 
2985.000000	65.019845 
2984.000000	65.026164 
2983.000000	65.029978 
2982.000000	65.030479 
2981.000000	65.027570 
2980.000000	65.022063 
2979.000000	65.015411 
2978.000000	65.009450 
2977.000000	65.005850 
2976.000000	65.006041 
2975.000000	65.010404 
2974.000000	65.018272 
2973.000000	65.027594 
2972.000000	65.035772 
2971.000000	65.039944 
2970.000000	65.037655 
2969.000000	65.027570 
2968.000000	65.009689 
2967.000000	64.985346 
2966.000000	64.956736 
2965.000000	64.926695 
2964.000000	64.898014 
2963.000000	64.873051 
2962.000000	64.853620 
2961.000000	64.840817 
2960.000000	64.835047 
2959.000000	64.836049 
2958.000000	64.842915 
2957.000000	64.854335 
2956.000000	64.868736 
2955.000000	64.884614 
2954.000000	64.900684 
2953.000000	64.916157 
2952.000000	64.930820 
2951.000000	64.945220 
2950.000000	64.960026 
2949.000000	64.976167 
2948.000000	64.993715 
2947.000000	65.012025 
2946.000000	65.029215 
2945.000000	65.042567 
2944.000000	65.049266 
2943.000000	65.047001 
2942.000000	65.034556 
2941.000000	65.012669 
2940.000000	64.983725 
2939.000000	64.951491 
2938.000000	64.920139 
2937.000000	64.893698 
2936.000000	64.875173 
2935.000000	64.866113 
2934.000000	64.866447 
2933.000000	64.874839 
2932.000000	64.888811 
2931.000000	64.905333 
2930.000000	64.921259 
2929.000000	64.934158 
2928.000000	64.942288 
2927.000000	64.945101 
2926.000000	64.943051 
2925.000000	64.937376 
2924.000000	64.929890 
2923.000000	64.922451 
2922.000000	64.916610 
2921.000000	64.913272 
2920.000000	64.912700 
2919.000000	64.914345 
2918.000000	64.917206 
2917.000000	64.920234 
2916.000000	64.922738 
2915.000000	64.924550 
2914.000000	64.926028 
2913.000000	64.928150 
2912.000000	64.932012 
2911.000000	64.938354 
2910.000000	64.947438 
2909.000000	64.958786 
2908.000000	64.971351 
2907.000000	64.983773 
2906.000000	64.994740 
2905.000000	65.003204 
2904.000000	65.008568 
2903.000000	65.010833 
2902.000000	65.010619 
2901.000000	65.008831 
2900.000000	65.006589 
2899.000000	65.004920 
2898.000000	65.004873 
2897.000000	65.007185 
2896.000000	65.012335 
2895.000000	65.020418 
2894.000000	65.030932 
2893.000000	65.043139 
2892.000000	65.055751 
2891.000000	65.067410 
2890.000000	65.076541 
2889.000000	65.081930 
2888.000000	65.082883 
2887.000000	65.079522 
2886.000000	65.072464 
2885.000000	65.063214 
2884.000000	65.053439 
2883.000000	65.044760 
2882.000000	65.038394 
2881.000000	65.034890 
2880.000000	65.034174 
2879.000000	65.035581 
2878.000000	65.038394 
2877.000000	65.042138 
2876.000000	65.046739 
2875.000000	65.052413 
2874.000000	65.059757 
2873.000000	65.069007 
2872.000000	65.079951 
2871.000000	65.091681 
2870.000000	65.102577 
2869.000000	65.110731 
2868.000000	65.114307 
2867.000000	65.112185 
2866.000000	65.104007 
2865.000000	65.090632 
2864.000000	65.073847 
2863.000000	65.055894 
2862.000000	65.038990 
2861.000000	65.024924 
2860.000000	65.014576 
2859.000000	65.007829 
2858.000000	65.003967 
2857.000000	65.001749 
2856.000000	64.999771 
2855.000000	64.996957 
2854.000000	64.992737 
2853.000000	64.987206 
2852.000000	64.980936 
2851.000000	64.975166 
2850.000000	64.971446 
2849.000000	64.971399 
2848.000000	64.976215 
2847.000000	64.986586 
2846.000000	65.002274 
2845.000000	65.022039 
2844.000000	65.043902 
2843.000000	65.065240 
2842.000000	65.083646 
2841.000000	65.097069 
2840.000000	65.104556 
2839.000000	65.106368 
2838.000000	65.103721 
2837.000000	65.098810 
2836.000000	65.093731 
2835.000000	65.090107 
2834.000000	65.088462 
2833.000000	65.088367 
2832.000000	65.088319 
2831.000000	65.086293 
2830.000000	65.080356 
2829.000000	65.069651 
2828.000000	65.054416 
2827.000000	65.036249 
2826.000000	65.017628 
2825.000000	65.001296 
2824.000000	64.989614 
2823.000000	64.983701 
2822.000000	64.983367 
2821.000000	64.987015 
2820.000000	64.992427 
2819.000000	64.997076 
2818.000000	64.999008 
2817.000000	64.997172 
2816.000000	64.991545 
2815.000000	64.983010 
2814.000000	64.972925 
2813.000000	64.962816 
2812.000000	64.953875 
2811.000000	64.947319 
2810.000000	64.943718 
2809.000000	64.943504 
2808.000000	64.946913 
2807.000000	64.954018 
2806.000000	64.964532 
2805.000000	64.977955 
2804.000000	64.993476 
2803.000000	65.009880 
2802.000000	65.025734 
2801.000000	65.039801 
2800.000000	65.050911 
2799.000000	65.058469 
2798.000000	65.062355 
2797.000000	65.062761 
2796.000000	65.060186 
2795.000000	65.054941 
2794.000000	65.047407 
2793.000000	65.037679 
2792.000000	65.025949 
2791.000000	65.012717 
2790.000000	64.998912 
2789.000000	64.986228 
2788.000000	64.976811 
2787.000000	64.972877 
2786.000000	64.976263 
2785.000000	64.987945 
2784.000000	65.007424 
2783.000000	65.032768 
2782.000000	65.060901 
2781.000000	65.088105 
2780.000000	65.110707 
2779.000000	65.125870 
2778.000000	65.132117 
2777.000000	65.129470 
2776.000000	65.119242 
2775.000000	65.103769 
2774.000000	65.085768 
2773.000000	65.067982 
2772.000000	65.052437 
2771.000000	65.040564 
2770.000000	65.032792 
2769.000000	65.028667 
2768.000000	65.027189 
2767.000000	65.027356 
2766.000000	65.027952 
2765.000000	65.028190 
2764.000000	65.027642 
2763.000000	65.026378 
2762.000000	65.024614 
2761.000000	65.022873 
2760.000000	65.021562 
2759.000000	65.020871 
2758.000000	65.020966 
2757.000000	65.021848 
2756.000000	65.023326 
2755.000000	65.025329 
2754.000000	65.027856 
2753.000000	65.031075 
2752.000000	65.035009 
2751.000000	65.039825 
2750.000000	65.045428 
2749.000000	65.051722 
2748.000000	65.058445 
2747.000000	65.065479 
2746.000000	65.072822 
2745.000000	65.080928 
2744.000000	65.090537 
2743.000000	65.102553 
2742.000000	65.117716 
2741.000000	65.136313 
2740.000000	65.157890 
2739.000000	65.181303 
2738.000000	65.204501 
2737.000000	65.225148 
2736.000000	65.240693 
2735.000000	65.249156 
2734.000000	65.249061 
2733.000000	65.240192 
2732.000000	65.223336 
2731.000000	65.200066 
2730.000000	65.172529 
2729.000000	65.143060 
2728.000000	65.113806 
2727.000000	65.086817 
2726.000000	65.063643 
2725.000000	65.045380 
2724.000000	65.032649 
2723.000000	65.025901 
2722.000000	65.025448 
2721.000000	65.031147 
2720.000000	65.042829 
2719.000000	65.059924 
2718.000000	65.081572 
2717.000000	65.106391 
2716.000000	65.132474 
2715.000000	65.157532 
2714.000000	65.178894 
2713.000000	65.194106 
2712.000000	65.201282 
2711.000000	65.199661 
2710.000000	65.190052 
2709.000000	65.174579 
2708.000000	65.156793 
2707.000000	65.140676 
2706.000000	65.129995 
2705.000000	65.127182 
2704.000000	65.132951 
2703.000000	65.145683 
2702.000000	65.161943 
2701.000000	65.177154 
2700.000000	65.186834 
2699.000000	65.187692 
2698.000000	65.178465 
2697.000000	65.160369 
2696.000000	65.136671 
2695.000000	65.111994 
2694.000000	65.091204 
2693.000000	65.077805 
2692.000000	65.073370 
2691.000000	65.076994 
2690.000000	65.085816 
2689.000000	65.095639 
2688.000000	65.102219 
2687.000000	65.102458 
2686.000000	65.095090 
2685.000000	65.080928 
2684.000000	65.062665 
2683.000000	65.043997 
2682.000000	65.028429 
2681.000000	65.018677 
2680.000000	65.015769 
2679.000000	65.019035 
2678.000000	65.026402 
2677.000000	65.034937 
2676.000000	65.041828 
2675.000000	65.044879 
2674.000000	65.043258 
2673.000000	65.037226 
2672.000000	65.028238 
2671.000000	65.018105 
2670.000000	65.008616 
2669.000000	65.000915 
2668.000000	64.995384 
2667.000000	64.991617 
2666.000000	64.988923 
2665.000000	64.986562 
2664.000000	64.984273 
2663.000000	64.982485 
2662.000000	64.982414 
2661.000000	64.985442 
2660.000000	64.993047 
2659.000000	65.005993 
2658.000000	65.024137 
2657.000000	65.046191 
2656.000000	65.069818 
2655.000000	65.092086 
2654.000000	65.110063 
2653.000000	65.121340 
2652.000000	65.124630 
2651.000000	65.119814 
2650.000000	65.107989 
2649.000000	65.091180 
2648.000000	65.071868 
2647.000000	65.052700 
2646.000000	65.036177 
2645.000000	65.024209 
2644.000000	65.018248 
2643.000000	65.018820 
2642.000000	65.025782 
2641.000000	65.038132 
2640.000000	65.054345 
2639.000000	65.072369 
2638.000000	65.089869 
2637.000000	65.104508 
2636.000000	65.114355 
2635.000000	65.118217 
2634.000000	65.115785 
2633.000000	65.107679 
2632.000000	65.095305 
2631.000000	65.080738 
2630.000000	65.066337 
2629.000000	65.054225 
2628.000000	65.045857 
2627.000000	65.042018 
2626.000000	65.042686 
2625.000000	65.046930 
2624.000000	65.053367 
2623.000000	65.060472 
2622.000000	65.066933 
2621.000000	65.071821 
2620.000000	65.075039 
2619.000000	65.076947 
2618.000000	65.078639 
2617.000000	65.081191 
2616.000000	65.085697 
2615.000000	65.092468 
2614.000000	65.101170 
2613.000000	65.110754 
2612.000000	65.119624 
2611.000000	65.126013 
2610.000000	65.128469 
2609.000000	65.126180 
2608.000000	65.119218 
2607.000000	65.108489 
2606.000000	65.095376 
2605.000000	65.081501 
2604.000000	65.068387 
2603.000000	65.057110 
2602.000000	65.048170 
2601.000000	65.041446 
2600.000000	65.036511 
2599.000000	65.033054 
2598.000000	65.030837 
2597.000000	65.030097 
2596.000000	65.031242 
2595.000000	65.035033 
2594.000000	65.041923 
2593.000000	65.052056 
2592.000000	65.065217 
2591.000000	65.080618 
2590.000000	65.097117 
2589.000000	65.113353 
2588.000000	65.128111 
2587.000000	65.140461 
2586.000000	65.149927 
2585.000000	65.156531 
2584.000000	65.160703 
2583.000000	65.162968 
2582.000000	65.163922 
2581.000000	65.163850 
2580.000000	65.162682 
2579.000000	65.159964 
2578.000000	65.154957 
2577.000000	65.146994 
2576.000000	65.135598 
2575.000000	65.120863 
2574.000000	65.103673 
2573.000000	65.085244 
2572.000000	65.067458 
2571.000000	65.052199 
2570.000000	65.041351 
2569.000000	65.036249 
2568.000000	65.037631 
2567.000000	65.045452 
2566.000000	65.058827 
2565.000000	65.076327 
2564.000000	65.096068 
2563.000000	65.116047 
2562.000000	65.134620 
2561.000000	65.150499 
2560.000000	65.162920 
2559.000000	65.171623 
2558.000000	65.176653 
2557.000000	65.178203 
2556.000000	65.176296 
2555.000000	65.170836 
2554.000000	65.161705 
2553.000000	65.148901 
2552.000000	65.132713 
2551.000000	65.114068 
2550.000000	65.094208 
2549.000000	65.074825 
2548.000000	65.057611 
2547.000000	65.044045 
2546.000000	65.035033 
2545.000000	65.030765 
2544.000000	65.030694 
2543.000000	65.033745 
2542.000000	65.038299 
2541.000000	65.042853 
2540.000000	65.046119 
2539.000000	65.047502 
2538.000000	65.047025 
2537.000000	65.045523 
2536.000000	65.043997 
2535.000000	65.043568 
2534.000000	65.045142 
2533.000000	65.049147 
2532.000000	65.055322 
2531.000000	65.062952 
2530.000000	65.071296 
2529.000000	65.079665 
2528.000000	65.087580 
2527.000000	65.094900 
2526.000000	65.101909 
2525.000000	65.109062 
2524.000000	65.116620 
2523.000000	65.124750 
2522.000000	65.133213 
2521.000000	65.141630 
2520.000000	65.149545 
2519.000000	65.156626 
2518.000000	65.162658 
2517.000000	65.167832 
2516.000000	65.172219 
2515.000000	65.175771 
2514.000000	65.177989 
2513.000000	65.177965 
2512.000000	65.174508 
2511.000000	65.166401 
2510.000000	65.152859 
2509.000000	65.133857 
2508.000000	65.110325 
2507.000000	65.084290 
2506.000000	65.058374 
2505.000000	65.035343 
2504.000000	65.017247 
2503.000000	65.005278 
2502.000000	64.999222 
2501.000000	64.997816 
2500.000000	64.999198 
2499.000000	65.001511 
2498.000000	65.003442 
2497.000000	65.004539 
2496.000000	65.005159 
2495.000000	65.006279 
2494.000000	65.008878 
2493.000000	65.013408 
2492.000000	65.019845 
2491.000000	65.027379 
2490.000000	65.034842 
2489.000000	65.040802 
2488.000000	65.044116 
2487.000000	65.044188 
2486.000000	65.041065 
2485.000000	65.035271 
2484.000000	65.027666 
2483.000000	65.019345 
2482.000000	65.011096 
2481.000000	65.003538 
2480.000000	64.996886 
2479.000000	64.991354 
2478.000000	64.986991 
2477.000000	64.983892 
2476.000000	64.982151 
2475.000000	64.981961 
2474.000000	64.983415 
2473.000000	64.986467 
2472.000000	64.990949 
2471.000000	64.996480 
2470.000000	65.002489 
2469.000000	65.008115 
2468.000000	65.012240 
2467.000000	65.013813 
2466.000000	65.011882 
2465.000000	65.005970 
2464.000000	64.996194 
2463.000000	64.983391 
2462.000000	64.968872 
2461.000000	64.954233 
2460.000000	64.941167 
2459.000000	64.930963 
2458.000000	64.924526 
2457.000000	64.922165 
2456.000000	64.923977 
2455.000000	64.929676 
2454.000000	64.938902 
2453.000000	64.951229 
2452.000000	64.966249 
2451.000000	64.983320 
2450.000000	65.001487 
2449.000000	65.019297 
2448.000000	65.034914 
2447.000000	65.046358 
2446.000000	65.051794 
2445.000000	65.050148 
2444.000000	65.041399 
2443.000000	65.026688 
2442.000000	65.008187 
2441.000000	64.988470 
2440.000000	64.970326 
2439.000000	64.955711 
2438.000000	64.945840 
2437.000000	64.940404 
2436.000000	64.938330 
2435.000000	64.937639 
2434.000000	64.936208 
2433.000000	64.932227 
2432.000000	64.924597 
2431.000000	64.913415 
2430.000000	64.899563 
2429.000000	64.884877 
2428.000000	64.871358 
2427.000000	64.861011 
2426.000000	64.855122 
2425.000000	64.854145 
2424.000000	64.857721 
2423.000000	64.864754 
2422.000000	64.873790 
2421.000000	64.883470 
2420.000000	64.892768 
2419.000000	64.901399 
2418.000000	64.909625 
2417.000000	64.918351 
2416.000000	64.928531 
2415.000000	64.940953 
2414.000000	64.955949 
2413.000000	64.973115 
2412.000000	64.991521 
2411.000000	65.009975 
2410.000000	65.027213 
2409.000000	65.042376 
2408.000000	65.055179 
2407.000000	65.065693 
2406.000000	65.074276 
2405.000000	65.081310 
2404.000000	65.087080 
2403.000000	65.091609 
2402.000000	65.094637 
2401.000000	65.095806 
2400.000000	65.094804 
2399.000000	65.091848 
2398.000000	65.087413 
2397.000000	65.082478 
2396.000000	65.078139 
2395.000000	65.075325 
2394.000000	65.074491 
2393.000000	65.075635 
2392.000000	65.078163 
2391.000000	65.081000 
2390.000000	65.082979 
2389.000000	65.083074 
2388.000000	65.080881 
2387.000000	65.076375 
2386.000000	65.070152 
2385.000000	65.062856 
2384.000000	65.055322 
2383.000000	65.048122 
2382.000000	65.041375 
2381.000000	65.034794 
2380.000000	65.027761 
2379.000000	65.019559 
2378.000000	65.009641 
2377.000000	64.997792 
2376.000000	64.984416 
2375.000000	64.970421 
2374.000000	64.956927 
2373.000000	64.945363 
2372.000000	64.936828 
2371.000000	64.932227 
2370.000000	64.931845 
2369.000000	64.935564 
2368.000000	64.942812 
2367.000000	64.952731 
2366.000000	64.964318 
2365.000000	64.976310 
2364.000000	64.987564 
2363.000000	64.996767 
2362.000000	65.002775 
2361.000000	65.004730 
2360.000000	65.002298 
2359.000000	64.995837 
2358.000000	64.986419 
2357.000000	64.975929 
2356.000000	64.966797 
2355.000000	64.961481 
2354.000000	64.961934 
2353.000000	64.969205 
2352.000000	64.983057 
2351.000000	65.001916 
2350.000000	65.023016 
2349.000000	65.043115 
2348.000000	65.059113 
2347.000000	65.068626 
2346.000000	65.070652 
2345.000000	65.065598 
2344.000000	65.055203 
2343.000000	65.042114 
2342.000000	65.029096 
2341.000000	65.018463 
2340.000000	65.011453 
2339.000000	65.008234 
2338.000000	65.007805 
2337.000000	65.008521 
2336.000000	65.008473 
2335.000000	65.006041 
2334.000000	65.000247 
2333.000000	64.991021 
2332.000000	64.979052 
2331.000000	64.965558 
2330.000000	64.951968 
2329.000000	64.939761 
2328.000000	64.929986 
2327.000000	64.923262 
2326.000000	64.919567 
2325.000000	64.918589 
2324.000000	64.919614 
2323.000000	64.922022 
2322.000000	64.925289 
2321.000000	64.929175 
2320.000000	64.933657 
2319.000000	64.939045 
2318.000000	64.945578 
2317.000000	64.953422 
2316.000000	64.962482 
2315.000000	64.972209 
2314.000000	64.981746 
2313.000000	64.989948 
2312.000000	64.995932 
2311.000000	64.998936 
2310.000000	64.998722 
2309.000000	64.995694 
2308.000000	64.990711 
2307.000000	64.984917 
2306.000000	64.979457 
2305.000000	64.975070 
2304.000000	64.972114 
2303.000000	64.970374 
2302.000000	64.969444 
2301.000000	64.968752 
2300.000000	64.967632 
2299.000000	64.965462 
2298.000000	64.961695 
2297.000000	64.956021 
2296.000000	64.948344 
2295.000000	64.938592 
2294.000000	64.926886 
2293.000000	64.913511 
2292.000000	64.899110 
2291.000000	64.884424 
2290.000000	64.870524 
2289.000000	64.858627 
2288.000000	64.850115 
2287.000000	64.846181 
2286.000000	64.847850 
2285.000000	64.855718 
2284.000000	64.869618 
2283.000000	64.888739 
2282.000000	64.911460 
2281.000000	64.935517 
2280.000000	64.958143 
2279.000000	64.976406 
2278.000000	64.987707 
2277.000000	64.990258 
2276.000000	64.983487 
2275.000000	64.968204 
2274.000000	64.946579 
2273.000000	64.921951 
2272.000000	64.898061 
2271.000000	64.878749 
2270.000000	64.866757 
2269.000000	64.863777 
2268.000000	64.870285 
2267.000000	64.885473 
2266.000000	64.907503 
2265.000000	64.933872 
2264.000000	64.962005 
2263.000000	64.989352 
2262.000000	65.013790 
2261.000000	65.033650 
2260.000000	65.047836 
2259.000000	65.055775 
2258.000000	65.057539 
2257.000000	65.053558 
2256.000000	65.044689 
2255.000000	65.032339 
2254.000000	65.018248 
2253.000000	65.004396 
2252.000000	64.992761 
2251.000000	64.985108 
2250.000000	64.982581 
2249.000000	64.985561 
2248.000000	64.993405 
2247.000000	65.004396 
2246.000000	65.016055 
2245.000000	65.025377 
2244.000000	65.029501 
2243.000000	65.025997 
2242.000000	65.013694 
2241.000000	64.992713 
2240.000000	64.964652 
2239.000000	64.932489 
2238.000000	64.899921 
2237.000000	64.870643 
2236.000000	64.847803 
2235.000000	64.833378 
2234.000000	64.828014 
2233.000000	64.831209 
2232.000000	64.841389 
2231.000000	64.856362 
2230.000000	64.873719 
2229.000000	64.891552 
2228.000000	64.908242 
2227.000000	64.922738 
2226.000000	64.934563 
2225.000000	64.943623 
2224.000000	64.950084 
2223.000000	64.954185 
2222.000000	64.955925 
2221.000000	64.955282 
2220.000000	64.952158 
2219.000000	64.946699 
2218.000000	64.939117 
2217.000000	64.929986 
2216.000000	64.920353 
2215.000000	64.911508 
2214.000000	64.904737 
2213.000000	64.901113 
2212.000000	64.901280 
2211.000000	64.905118 
2210.000000	64.911818 
2209.000000	64.920043 
2208.000000	64.928126 
2207.000000	64.934396 
2206.000000	64.937591 
2205.000000	64.937067 
2204.000000	64.933013 
2203.000000	64.926147 
2202.000000	64.917373 
2201.000000	64.907717 
2200.000000	64.898061 
2199.000000	64.889121 
2198.000000	64.881253 
2197.000000	64.874720 
2196.000000	64.869666 
2195.000000	64.866161 
2194.000000	64.864420 
2193.000000	64.864397 
2192.000000	64.865922 
2191.000000	64.868879 
2190.000000	64.873123 
2189.000000	64.878249 
2188.000000	64.883756 
2187.000000	64.889025 
2186.000000	64.893388 
2185.000000	64.895915 
2184.000000	64.895939 
2183.000000	64.892935 
2182.000000	64.886832 
2181.000000	64.878034 
2180.000000	64.867734 
2179.000000	64.857792 
2178.000000	64.850544 
2177.000000	64.848375 
2176.000000	64.853215 
2175.000000	64.866185 
2174.000000	64.887189 
2173.000000	64.914894 
2172.000000	64.947032 
2171.000000	64.980602 
2170.000000	65.012502 
2169.000000	65.039682 
2168.000000	65.059614 
2167.000000	65.070223 
2166.000000	65.070343 
2165.000000	65.059590 
2164.000000	65.038657 
2163.000000	65.009117 
2162.000000	64.973783 
2161.000000	64.935803 
2160.000000	64.898729 
2159.000000	64.865541 
2158.000000	64.838480 
2157.000000	64.818263 
2156.000000	64.804124 
2155.000000	64.794278 
2154.000000	64.786028 
2153.000000	64.777159 
2152.000000	64.766311 
2151.000000	64.753508 
2150.000000	64.740204 
2149.000000	64.728832 
2148.000000	64.722108 
2147.000000	64.722037 
2146.000000	64.729213 
2145.000000	64.743041 
2144.000000	64.761567 
2143.000000	64.782047 
2142.000000	64.801955 
2141.000000	64.819359 
2140.000000	64.833378 
2139.000000	64.844083 
2138.000000	64.852428 
2137.000000	64.859938 
2136.000000	64.868092 
2135.000000	64.878058 
2134.000000	64.890241 
2133.000000	64.904379 
2132.000000	64.919734 
2131.000000	64.935564 
2130.000000	64.950942 
2129.000000	64.965271 
2128.000000	64.978003 
2127.000000	64.988946 
2126.000000	64.997529 
2125.000000	65.003108 
2124.000000	65.004611 
2123.000000	65.001010 
2122.000000	64.991474 
2121.000000	64.975666 
2120.000000	64.954209 
2119.000000	64.928793 
2118.000000	64.902043 
2117.000000	64.877057 
2116.000000	64.856839 
2115.000000	64.843463 
2114.000000	64.837598 
2113.000000	64.838266 
2112.000000	64.842820 
2111.000000	64.848017 
2110.000000	64.850711 
2109.000000	64.848947 
2108.000000	64.842319 
2107.000000	64.832067 
2106.000000	64.820981 
2105.000000	64.812374 
2104.000000	64.808988 
2103.000000	64.812207 
2102.000000	64.821743 
2101.000000	64.835357 
2100.000000	64.849686 
2099.000000	64.860844 
2098.000000	64.865732 
2097.000000	64.862751 
2096.000000	64.852142 
2095.000000	64.836049 
2094.000000	64.817762 
2093.000000	64.801168 
2092.000000	64.789652 
2091.000000	64.785504 
2090.000000	64.789366 
2089.000000	64.800667 
2088.000000	64.817690 
2087.000000	64.838147 
2086.000000	64.859628 
2085.000000	64.880347 
2084.000000	64.898824 
2083.000000	64.913868 
2082.000000	64.924383 
2081.000000	64.929413 
2080.000000	64.928174 
2079.000000	64.920330 
2078.000000	64.906215 
2077.000000	64.887070 
2076.000000	64.864897 
2075.000000	64.842486 
2074.000000	64.822649 
2073.000000	64.807701 
2072.000000	64.799189 
2071.000000	64.797472 
2070.000000	64.801907 
2069.000000	64.810991 
2068.000000	64.822983 
2067.000000	64.836335 
2066.000000	64.850044 
2065.000000	64.863705 
2064.000000	64.877414 
2063.000000	64.891481 
2062.000000	64.906096 
2061.000000	64.921212 
2060.000000	64.936208 
2059.000000	64.950203 
2058.000000	64.962291 
2057.000000	64.971780 
2056.000000	64.978408 
2055.000000	64.982199 
2054.000000	64.983701 
2053.000000	64.983439 
2052.000000	64.982032 
2051.000000	64.979672 
2050.000000	64.976167 
2049.000000	64.970993 
2048.000000	64.963531 
2047.000000	64.953207 
2046.000000	64.939856 
2045.000000	64.923691 
2044.000000	64.905309 
2043.000000	64.885902 
2042.000000	64.866852 
2041.000000	64.849638 
2040.000000	64.835739 
2039.000000	64.826202 
2038.000000	64.821696 
2037.000000	64.822316 
2036.000000	64.827561 
2035.000000	64.836382 
2034.000000	64.847397 
2033.000000	64.859127 
2032.000000	64.870476 
2031.000000	64.880609 
2030.000000	64.889168 
2029.000000	64.896321 
2028.000000	64.902281 
2027.000000	64.907336 
2026.000000	64.911246 
2025.000000	64.913439 
2024.000000	64.912962 
2023.000000	64.908695 
2022.000000	64.899921 
2021.000000	64.886522 
2020.000000	64.869236 
2019.000000	64.849901 
2018.000000	64.831018 
2017.000000	64.815235 
2016.000000	64.804744 
2015.000000	64.800953 
2014.000000	64.803957 
2013.000000	64.812612 
2012.000000	64.824891 
2011.000000	64.838433 
2010.000000	64.851069 
2009.000000	64.861202 
2008.000000	64.868044 
2007.000000	64.871692 
2006.000000	64.872646 
2005.000000	64.871454 
2004.000000	64.868426 
2003.000000	64.863443 
2002.000000	64.856219 
2001.000000	64.846396 
2000.000000	64.833998 
1999.000000	64.819836 
1998.000000	64.805293 
1997.000000	64.792442 
1996.000000	64.783430 
1995.000000	64.780092 
1994.000000	64.783406 
1993.000000	64.793205 
1992.000000	64.808154 
1991.000000	64.825963 
1990.000000	64.843726 
1989.000000	64.858675 
1988.000000	64.868664 
1987.000000	64.872527 
1986.000000	64.870214 
1985.000000	64.862680 
1984.000000	64.851713 
1983.000000	64.839577 
1982.000000	64.828491 
1981.000000	64.820432 
1980.000000	64.816761 
1979.000000	64.818286 
1978.000000	64.825272 
1977.000000	64.837265 
1976.000000	64.853334 
1975.000000	64.872145 
1974.000000	64.892196 
1973.000000	64.911770 
1972.000000	64.929389 
1971.000000	64.943814 
1970.000000	64.954257 
1969.000000	64.960598 
1968.000000	64.963150 
1967.000000	64.962816 
1966.000000	64.960622 
1965.000000	64.957809 
1964.000000	64.955115 
1963.000000	64.952921 
1962.000000	64.951062 
1961.000000	64.949107 
1960.000000	64.946413 
1959.000000	64.942574 
1958.000000	64.937448 
1957.000000	64.931297 
1956.000000	64.924645 
1955.000000	64.918160 
1954.000000	64.912390 
1953.000000	64.907550 
1952.000000	64.903450 
1951.000000	64.899516 
1950.000000	64.895057 
1949.000000	64.889407 
1948.000000	64.882278 
1947.000000	64.873671 
1946.000000	64.864015 
1945.000000	64.854049 
1944.000000	64.844298 
1943.000000	64.835262 
1942.000000	64.826965 
1941.000000	64.819240 
1940.000000	64.811778 
1939.000000	64.804458 
1938.000000	64.797306 
1937.000000	64.790606 
1936.000000	64.784932 
1935.000000	64.780831 
1934.000000	64.778637 
1933.000000	64.778494 
1932.000000	64.780163 
1931.000000	64.783096 
1930.000000	64.786553 
1929.000000	64.789867 
1928.000000	64.792513 
1927.000000	64.794087 
1926.000000	64.794468 
1925.000000	64.793491 
1924.000000	64.791297 
1923.000000	64.787840 
1922.000000	64.783573 
1921.000000	64.779210 
1920.000000	64.775991 
1919.000000	64.775347 
1918.000000	64.778685 
1917.000000	64.787030 
1916.000000	64.800477 
1915.000000	64.818072 
1914.000000	64.837932 
1913.000000	64.857530 
1912.000000	64.874291 
1911.000000	64.886355 
1910.000000	64.892601 
1909.000000	64.893078 
1908.000000	64.888763 
1907.000000	64.881324 
1906.000000	64.872431 
1905.000000	64.863348 
1904.000000	64.854717 
1903.000000	64.846563 
1902.000000	64.838647 
1901.000000	64.830660 
1900.000000	64.822602 
1899.000000	64.815115 
1898.000000	64.809179 
1897.000000	64.805960 
1896.000000	64.806246 
1895.000000	64.810323 
1894.000000	64.817762 
1893.000000	64.827513 
1892.000000	64.837932 
1891.000000	64.847016 
1890.000000	64.852976 
1889.000000	64.854431 
1888.000000	64.850640 
1887.000000	64.841794 
1886.000000	64.828896 
1885.000000	64.813804 
1884.000000	64.798808 
1883.000000	64.786338 
1882.000000	64.778542 
1881.000000	64.776730 
1880.000000	64.781355 
1879.000000	64.791893 
1878.000000	64.806795 
1877.000000	64.824008 
1876.000000	64.841365 
1875.000000	64.857125 
1874.000000	64.870119 
1873.000000	64.880275 
1872.000000	64.888095 
1871.000000	64.894223 
1870.000000	64.899015 
1869.000000	64.902377 
1868.000000	64.903330 
1867.000000	64.900517 
1866.000000	64.892387 
1865.000000	64.878201 
1864.000000	64.857959 
1863.000000	64.833045 
1862.000000	64.805889 
1861.000000	64.779639 
1860.000000	64.757466 
1859.000000	64.741754 
1858.000000	64.733839 
1857.000000	64.733552 
1856.000000	64.739489 
1855.000000	64.749407 
1854.000000	64.760899 
1853.000000	64.771890 
1852.000000	64.781188 
1851.000000	64.788484 
1850.000000	64.794325 
1849.000000	64.799642 
1848.000000	64.805507 
1847.000000	64.812469 
1846.000000	64.820528 
1845.000000	64.828968 
1844.000000	64.836573 
1843.000000	64.841771 
1842.000000	64.843177 
1841.000000	64.839744 
1840.000000	64.831376 
1839.000000	64.818835 
1838.000000	64.803671 
1837.000000	64.787888 
1836.000000	64.773559 
1835.000000	64.762496 
1834.000000	64.755892 
1833.000000	64.754009 
1832.000000	64.756345 
1831.000000	64.761590 
1830.000000	64.768242 
1829.000000	64.774584 
1828.000000	64.779114 
1827.000000	64.780712 
1826.000000	64.778852 
1825.000000	64.773726 
1824.000000	64.766144 
1823.000000	64.757370 
1822.000000	64.749026 
1821.000000	64.742875 
1820.000000	64.740371 
1819.000000	64.742565 
1818.000000	64.749836 
1817.000000	64.761686 
1816.000000	64.776611 
1815.000000	64.792513 
1814.000000	64.806842 
1813.000000	64.817380 
1812.000000	64.822411 
1811.000000	64.821243 
1810.000000	64.814376 
1809.000000	64.803171 
1808.000000	64.789795 
1807.000000	64.776659 
1806.000000	64.765620 
1805.000000	64.757919 
1804.000000	64.753770 
1803.000000	64.752435 
1802.000000	64.752507 
1801.000000	64.752340 
1800.000000	64.750552 
1799.000000	64.746427 
1798.000000	64.740324 
1797.000000	64.733529 
1796.000000	64.728116 
1795.000000	64.726185 
1794.000000	64.729547 
1793.000000	64.739227 
1792.000000	64.755034 
1791.000000	64.775538 
1790.000000	64.798426 
1789.000000	64.820981 
1788.000000	64.840483 
1787.000000	64.854836 
1786.000000	64.862966 
1785.000000	64.864754 
1784.000000	64.861178 
1783.000000	64.853715 
1782.000000	64.844322 
1781.000000	64.834690 
1780.000000	64.826226 
1779.000000	64.819455 
1778.000000	64.814591 
1777.000000	64.810991 
1776.000000	64.807772 
1775.000000	64.803624 
1774.000000	64.797449 
1773.000000	64.788389 
1772.000000	64.775943 
1771.000000	64.760446 
1770.000000	64.742875 
1769.000000	64.724779 
1768.000000	64.708018 
1767.000000	64.694309 
1766.000000	64.684844 
1765.000000	64.679789 
1764.000000	64.678525 
1763.000000	64.679479 
1762.000000	64.680933 
1761.000000	64.681077 
1760.000000	64.678812 
1759.000000	64.673924 
1758.000000	64.667129 
1757.000000	64.659714 
1756.000000	64.653182 
1755.000000	64.648461 
1754.000000	64.645504 
1753.000000	64.643573 
1752.000000	64.640831 
1751.000000	64.634990 
1750.000000	64.623975 
1749.000000	64.606690 
1748.000000	64.582943 
1747.000000	64.553689 
1746.000000	64.520621 
1745.000000	64.486002 
1744.000000	64.451980 
1743.000000	64.420127 
1742.000000	64.391326 
1741.000000	64.365768 
1740.000000	64.342832 
1739.000000	64.321613 
1738.000000	64.301037 
1737.000000	64.280533 
1736.000000	64.259767 
1735.000000	64.239120 
1734.000000	64.219331 
1733.000000	64.201998 
1732.000000	64.188480 
1731.000000	64.180731 
1730.000000	64.180135 
1729.000000	64.188194 
1728.000000	64.205503 
1727.000000	64.232134 
1726.000000	64.267110 
1725.000000	64.308786 
1724.000000	64.354658 
1723.000000	64.401984 
1722.000000	64.447808 
1721.000000	64.489507 
1720.000000	64.525032 
1719.000000	64.553046 
1718.000000	64.573311 
1717.000000	64.586305 
1716.000000	64.592981 
1715.000000	64.594697 
1714.000000	64.593100 
1713.000000	64.589667 
1712.000000	64.585757 
1711.000000	64.582777 
1710.000000	64.582180 
1709.000000	64.585399 
1708.000000	64.593744 
1707.000000	64.608550 
1706.000000	64.630532 
1705.000000	64.659929 
1704.000000	64.696002 
1703.000000	64.737057 
1702.000000	64.780282 
1701.000000	64.822101 
1700.000000	64.858579 
1699.000000	64.886045 
1698.000000	64.901733 
1697.000000	64.904379 
1696.000000	64.894652 
1695.000000	64.874958 
1694.000000	64.849162 
1693.000000	64.821934 
1692.000000	64.797687 
1691.000000	64.779829 
1690.000000	64.769983 
1689.000000	64.768099 
1688.000000	64.772295 
1687.000000	64.779543 
1686.000000	64.786481 
1685.000000	64.790153 
1684.000000	64.788818 
1683.000000	64.782142 
1682.000000	64.771127 
1681.000000	64.757943 
1680.000000	64.744901 
1679.000000	64.733958 
1678.000000	64.726209 
1677.000000	64.721679 
1676.000000	64.719414 
1675.000000	64.717912 
1674.000000	64.715695 
1673.000000	64.711785 
1672.000000	64.705848 
1671.000000	64.698410 
1670.000000	64.690589 
1669.000000	64.683628 
1668.000000	64.678549 
1667.000000	64.676046 
1666.000000	64.676213 
1665.000000	64.678859 
1664.000000	64.683556 
1663.000000	64.689874 
1662.000000	64.697456 
1661.000000	64.706087 
1660.000000	64.715504 
1659.000000	64.725041 
1658.000000	64.733695 
1657.000000	64.740037 
1656.000000	64.742612 
1655.000000	64.740443 
1654.000000	64.733338 
1653.000000	64.722108 
1652.000000	64.708495 
1651.000000	64.694595 
1650.000000	64.682745 
1649.000000	64.674496 
1648.000000	64.670753 
1647.000000	64.671564 
1646.000000	64.676189 
1645.000000	64.683651 
1644.000000	64.692974 
1643.000000	64.703464 
1642.000000	64.714670 
1641.000000	64.726352 
1640.000000	64.738130 
1639.000000	64.749288 
1638.000000	64.758753 
1637.000000	64.765262 
1636.000000	64.767837 
1635.000000	64.766001 
1634.000000	64.760231 
1633.000000	64.751696 
1632.000000	64.742040 
1631.000000	64.733028 
1630.000000	64.725756 
1629.000000	64.720630 
1628.000000	64.717364 
1627.000000	64.715194 
1626.000000	64.713454 
1625.000000	64.711427 
1624.000000	64.708948 
1623.000000	64.706254 
1622.000000	64.703488 
1621.000000	64.700865 
1620.000000	64.698052 
1619.000000	64.694643 
1618.000000	64.690041 
1617.000000	64.684033 
1616.000000	64.676904 
1615.000000	64.669704 
1614.000000	64.663958 
1613.000000	64.661431 
1612.000000	64.663386 
1611.000000	64.670038 
1610.000000	64.680337 
1609.000000	64.692234 
1608.000000	64.703345 
1607.000000	64.711380 
1606.000000	64.715027 
1605.000000	64.714193 
1604.000000	64.710140 
1603.000000	64.704895 
1602.000000	64.700675 
1601.000000	64.699220 
1600.000000	64.701294 
1599.000000	64.706420 
1598.000000	64.712977 
1597.000000	64.718866 
1596.000000	64.721727 
1595.000000	64.720082 
1594.000000	64.713597 
1593.000000	64.702725 
1592.000000	64.689087 
1591.000000	64.675092 
1590.000000	64.663195 
1589.000000	64.655208 
1588.000000	64.652252 
1587.000000	64.654588 
1586.000000	64.661693 
1585.000000	64.672708 
1584.000000	64.686369 
1583.000000	64.701414 
1582.000000	64.716506 
1581.000000	64.730405 
1580.000000	64.741802 
1579.000000	64.749360 
1578.000000	64.752125 
1577.000000	64.749550 
1576.000000	64.741778 
1575.000000	64.729475 
1574.000000	64.713668 
1573.000000	64.695620 
1572.000000	64.676666 
1571.000000	64.658403 
1570.000000	64.642572 
1569.000000	64.631414 
1568.000000	64.627361 
1567.000000	64.632749 
1566.000000	64.649319 
1565.000000	64.677739 
1564.000000	64.716935 
1563.000000	64.763784 
1562.000000	64.813661 
1561.000000	64.860725 
1560.000000	64.899134 
1559.000000	64.923882 
1558.000000	64.932012 
1557.000000	64.922976 
1556.000000	64.898729 
1555.000000	64.863276 
1554.000000	64.821624 
1553.000000	64.778900 
1552.000000	64.739489 
1551.000000	64.706563 
1550.000000	64.681935 
1549.000000	64.666032 
1548.000000	64.658403 
1547.000000	64.657664 
1546.000000	64.661955 
1545.000000	64.669084 
1544.000000	64.676809 
1543.000000	64.682674 
1542.000000	64.684820 
1541.000000	64.681935 
1540.000000	64.673662 
1539.000000	64.660429 
1538.000000	64.643836 
1537.000000	64.625954 
1536.000000	64.609241 
1535.000000	64.596080 
1534.000000	64.588093 
1533.000000	64.586019 
1532.000000	64.589667 
1531.000000	64.598131 
1530.000000	64.610123 
1529.000000	64.624190 
1528.000000	64.639091 
1527.000000	64.653944 
1526.000000	64.668035 
1525.000000	64.680790 
1524.000000	64.691662 
1523.000000	64.699864 
1522.000000	64.704537 
1521.000000	64.705109 
1520.000000	64.701318 
1519.000000	64.693760 
1518.000000	64.683961 
1517.000000	64.674162 
1516.000000	64.667057 
1515.000000	64.664936 
1514.000000	64.669394 
1513.000000	64.680409 
1512.000000	64.696645 
1511.000000	64.715361 
1510.000000	64.733004 
1509.000000	64.746165 
1508.000000	64.751982 
1507.000000	64.749312 
1506.000000	64.738917 
1505.000000	64.723730 
1504.000000	64.708113 
1503.000000	64.696955 
1502.000000	64.694356 
1501.000000	64.702320 
1500.000000	64.719891 
1499.000000	64.743137 
1498.000000	64.766001 
1497.000000	64.781737 
1496.000000	64.784812 
1495.000000	64.772152 
1494.000000	64.744210 
1493.000000	64.704680 
1492.000000	64.659762 
1491.000000	64.616370 
1490.000000	64.580631 
1489.000000	64.556646 
1488.000000	64.545702 
1487.000000	64.546465 
1486.000000	64.555692 
1485.000000	64.569544 
1484.000000	64.584469 
1483.000000	64.598178 
1482.000000	64.609694 
1481.000000	64.619088 
1480.000000	64.627122 
1479.000000	64.634203 
1478.000000	64.640450 
1477.000000	64.645242 
1476.000000	64.647674 
1475.000000	64.646720 
1474.000000	64.641690 
1473.000000	64.632439 
1472.000000	64.619374 
1471.000000	64.603424 
1470.000000	64.585828 
1469.000000	64.567852 
1468.000000	64.550757 
1467.000000	64.535641 
1466.000000	64.523458 
1465.000000	64.514803 
1464.000000	64.510083 
1463.000000	64.509248 
1462.000000	64.511799 
1461.000000	64.516711 
1460.000000	64.522457 
1459.000000	64.527678 
1458.000000	64.530992 
1457.000000	64.531636 
1456.000000	64.529514 
1455.000000	64.525365 
1454.000000	64.520645 
1453.000000	64.516830 
1452.000000	64.515185 
1451.000000	64.516377 
1450.000000	64.520430 
1449.000000	64.526605 
1448.000000	64.533686 
1447.000000	64.540243 
1446.000000	64.545273 
1445.000000	64.548206 
1444.000000	64.549183 
1443.000000	64.548993 
1442.000000	64.548873 
1441.000000	64.550113 
1440.000000	64.553856 
1439.000000	64.560770 
1438.000000	64.570593 
1437.000000	64.582777 
1436.000000	64.595937 
1435.000000	64.608049 
1434.000000	64.616775 
1433.000000	64.620041 
1432.000000	64.616227 
1431.000000	64.604616 
1430.000000	64.585733 
1429.000000	64.561247 
1428.000000	64.533734 
1427.000000	64.506268 
1426.000000	64.481806 
1425.000000	64.462709 
1424.000000	64.450120 
1423.000000	64.443826 
1422.000000	64.442348 
1421.000000	64.443397 
1420.000000	64.444303 
1419.000000	64.442658 
1418.000000	64.436697 
1417.000000	64.425921 
1416.000000	64.411115 
1415.000000	64.394235 
1414.000000	64.377975 
1413.000000	64.365148 
1412.000000	64.358329 
1411.000000	64.359235 
1410.000000	64.368391 
1409.000000	64.384841 
1408.000000	64.406275 
1407.000000	64.429402 
1406.000000	64.450383 
1405.000000	64.465594 
1404.000000	64.472413 
1403.000000	64.469623 
1402.000000	64.457583 
1401.000000	64.438343 
1400.000000	64.414858 
1399.000000	64.390873 
1398.000000	64.369964 
1397.000000	64.355158 
1396.000000	64.348363 
1395.000000	64.350271 
1394.000000	64.360570 
1393.000000	64.377665 
1392.000000	64.399075 
1391.000000	64.421772 
1390.000000	64.442634 
1389.000000	64.458727 
1388.000000	64.467978 
1387.000000	64.469361 
1386.000000	64.462995 
1385.000000	64.450097 
1384.000000	64.432764 
1383.000000	64.413642 
1382.000000	64.395260 
1381.000000	64.379668 
1380.000000	64.367890 
1379.000000	64.360070 
1378.000000	64.355516 
1377.000000	64.353251 
1376.000000	64.352297 
1375.000000	64.351987 
1374.000000	64.352512 
1373.000000	64.354753 
1372.000000	64.360213 
1371.000000	64.370226 
1370.000000	64.385771 
1369.000000	64.406847 
1368.000000	64.432382 
1367.000000	64.460182 
1366.000000	64.487385 
1365.000000	64.510846 
1364.000000	64.527869 
1363.000000	64.536929 
1362.000000	64.537882 
1361.000000	64.532208 
1360.000000	64.522576 
1359.000000	64.512228 
1358.000000	64.504647 
1357.000000	64.502286 
1356.000000	64.506554 
1355.000000	64.517092 
1354.000000	64.532208 
1353.000000	64.549088 
1352.000000	64.564752 
1351.000000	64.576244 
1350.000000	64.581561 
1349.000000	64.579892 
1348.000000	64.571642 
1347.000000	64.558029 
1346.000000	64.540934 
1345.000000	64.522027 
1344.000000	64.502739 
1343.000000	64.484071 
1342.000000	64.466595 
1341.000000	64.450621 
1340.000000	64.436435 
1339.000000	64.424347 
1338.000000	64.414858 
1337.000000	64.408373 
1336.000000	64.404988 
1335.000000	64.404559 
1334.000000	64.406609 
1333.000000	64.410305 
1332.000000	64.414644 
1331.000000	64.418745 
1330.000000	64.421868 
1329.000000	64.423847 
1328.000000	64.424610 
1327.000000	64.424157 
1326.000000	64.422583 
1325.000000	64.419794 
1324.000000	64.415431 
1323.000000	64.409017 
1322.000000	64.400291 
1321.000000	64.389371 
1320.000000	64.376711 
1319.000000	64.363479 
1318.000000	64.351153 
1317.000000	64.341259 
1316.000000	64.334964 
1315.000000	64.332556 
1314.000000	64.333510 
1313.000000	64.336395 
1312.000000	64.339303 
1311.000000	64.340353 
1310.000000	64.338159 
1309.000000	64.332318 
1308.000000	64.323353 
1307.000000	64.312744 
1306.000000	64.302349 
1305.000000	64.293956 
1304.000000	64.288902 
1303.000000	64.287829 
1302.000000	64.290404 
1301.000000	64.295744 
1300.000000	64.302635 
1299.000000	64.309883 
1298.000000	64.316630 
1297.000000	64.322614 
1296.000000	64.328265 
1295.000000	64.334297 
1294.000000	64.341402 
1293.000000	64.350008 
1292.000000	64.359784 
1291.000000	64.369630 
1290.000000	64.377951 
1289.000000	64.382886 
1288.000000	64.382791 
1287.000000	64.376664 
1286.000000	64.364504 
1285.000000	64.347124 
1284.000000	64.326167 
1283.000000	64.303565 
1282.000000	64.281225 
1281.000000	64.260601 
1280.000000	64.242625 
1279.000000	64.227461 
1278.000000	64.214873 
1277.000000	64.204502 
1276.000000	64.196038 
1275.000000	64.189291 
1274.000000	64.184308 
1273.000000	64.180922 
1272.000000	64.179015 
1271.000000	64.177799 
1270.000000	64.176630 
1269.000000	64.174532 
1268.000000	64.170908 
1267.000000	64.165663 
1266.000000	64.159440 
1265.000000	64.153456 
1264.000000	64.149403 
1263.000000	64.148807 
1262.000000	64.152717 
1261.000000	64.161205 
1260.000000	64.173316 
1259.000000	64.187240 
1258.000000	64.200568 
1257.000000	64.210939 
1256.000000	64.216518 
1255.000000	64.216446 
1254.000000	64.210796 
1253.000000	64.200377 
1252.000000	64.186763 
1251.000000	64.171719 
1250.000000	64.156866 
1249.000000	64.143562 
1248.000000	64.132881 
1247.000000	64.125466 
1246.000000	64.121556 
1245.000000	64.121007 
1244.000000	64.123535 
1243.000000	64.128875 
1242.000000	64.136481 
1241.000000	64.145922 
1240.000000	64.156627 
1239.000000	64.167952 
1238.000000	64.178895 
1237.000000	64.188337 
1236.000000	64.195108 
1235.000000	64.198327 
1234.000000	64.197635 
1233.000000	64.193487 
1232.000000	64.186978 
1231.000000	64.179921 
1230.000000	64.174318 
1229.000000	64.172029 
1228.000000	64.174294 
1227.000000	64.181256 
1226.000000	64.192080 
1225.000000	64.204859 
1224.000000	64.217233 
1223.000000	64.226818 
1222.000000	64.231896 
1221.000000	64.231681 
1220.000000	64.226698 
1219.000000	64.218425 
1218.000000	64.209246 
1217.000000	64.201617 
1216.000000	64.197707 
1215.000000	64.198970 
1214.000000	64.205932 
1213.000000	64.217996 
1212.000000	64.233565 
1211.000000	64.250731 
1210.000000	64.267206 
1209.000000	64.280915 
1208.000000	64.290308 
1207.000000	64.294648 
1206.000000	64.293956 
1205.000000	64.289069 
1204.000000	64.281225 
1203.000000	64.271831 
1202.000000	64.262318 
1201.000000	64.253997 
1200.000000	64.247870 
1199.000000	64.244437 
1198.000000	64.243817 
1197.000000	64.245629 
1196.000000	64.249181 
1195.000000	64.253187 
1194.000000	64.256167 
1193.000000	64.256525 
1192.000000	64.252829 
1191.000000	64.244174 
1190.000000	64.230084 
1189.000000	64.210867 
1188.000000	64.187550 
1187.000000	64.161467 
1186.000000	64.134216 
1185.000000	64.107275 
1184.000000	64.081740 
1183.000000	64.058494 
1182.000000	64.037966 
1181.000000	64.020919 
1180.000000	64.008522 
1179.000000	64.002394 
1178.000000	64.004349 
1177.000000	64.015913 
1176.000000	64.037847 
1175.000000	64.069414 
1174.000000	64.108133 
1173.000000	64.150118 
1172.000000	64.190506 
1171.000000	64.224410 
1170.000000	64.248085 
1169.000000	64.259171 
1168.000000	64.257335 
1167.000000	64.244461 
1166.000000	64.223694 
1165.000000	64.198923 
1164.000000	64.173674 
1163.000000	64.150810 
1162.000000	64.131546 
1161.000000	64.115667 
1160.000000	64.101719 
1159.000000	64.088034 
1158.000000	64.073014 
1157.000000	64.055967 
1156.000000	64.037370 
1155.000000	64.018774 
1154.000000	64.002346 
1153.000000	63.990116 
1152.000000	63.983535 
1151.000000	63.982844 
1150.000000	63.987207 
1149.000000	63.994789 
1148.000000	64.003276 
1147.000000	64.010715 
1146.000000	64.015865 
1145.000000	64.018607 
1144.000000	64.019918 
1143.000000	64.021515 
1142.000000	64.025425 
1141.000000	64.033341 
1140.000000	64.046049 
1139.000000	64.063310 
1138.000000	64.084243 
1137.000000	64.107203 
1136.000000	64.130806 
1135.000000	64.153552 
1134.000000	64.174246 
1133.000000	64.192104 
1132.000000	64.206695 
1131.000000	64.217662 
1130.000000	64.224696 
1129.000000	64.227294 
1128.000000	64.225220 
1127.000000	64.218401 
1126.000000	64.207053 
1125.000000	64.191913 
1124.000000	64.174318 
1123.000000	64.156174 
1122.000000	64.139604 
1121.000000	64.126825 
1120.000000	64.119696 
1119.000000	64.119386 
1118.000000	64.126205 
1117.000000	64.139223 
1116.000000	64.156436 
1115.000000	64.175033 
1114.000000	64.191842 
1113.000000	64.203882 
1112.000000	64.209222 
1111.000000	64.206981 
1110.000000	64.197874 
1109.000000	64.183926 
1108.000000	64.168143 
1107.000000	64.153695 
1106.000000	64.143323 
1105.000000	64.138650 
1104.000000	64.139866 
1103.000000	64.145970 
1102.000000	64.155101 
1101.000000	64.164948 
1100.000000	64.174032 
1099.000000	64.182019 
1098.000000	64.189743 
1097.000000	64.198660 
1096.000000	64.210057 
1095.000000	64.224314 
1094.000000	64.240241 
1093.000000	64.255380 
1092.000000	64.266657 
1091.000000	64.271521 
1090.000000	64.269208 
1089.000000	64.261078 
1088.000000	64.250588 
1087.000000	64.242482 
1086.000000	64.241671 
1085.000000	64.251542 
1084.000000	64.273285 
1083.000000	64.305090 
1082.000000	64.342737 
1081.000000	64.380002 
1080.000000	64.410758 
1079.000000	64.429473 
1078.000000	64.432859 
1077.000000	64.419984 
1076.000000	64.392280 
1075.000000	64.353060 
1074.000000	64.306545 
1073.000000	64.257287 
1072.000000	64.209485 
1071.000000	64.166474 
1070.000000	64.130806 
1069.000000	64.103484 
1068.000000	64.084577 
1067.000000	64.072847 
1066.000000	64.066410 
1065.000000	64.063143 
1064.000000	64.061403 
1063.000000	64.060091 
1062.000000	64.059066 
1061.000000	64.058852 
1060.000000	64.060521 
1059.000000	64.064979 
1058.000000	64.072608 
1057.000000	64.083003 
1056.000000	64.094924 
1055.000000	64.106345 
1054.000000	64.115095 
1053.000000	64.119291 
1052.000000	64.117836 
1051.000000	64.110589 
1050.000000	64.098262 
1049.000000	64.082050 
1048.000000	64.063501 
1047.000000	64.044094 
1046.000000	64.025259 
1045.000000	64.008140 
1044.000000	63.993883 
1043.000000	63.983845 
1042.000000	63.978862 
1041.000000	63.979172 
1040.000000	63.984298 
1039.000000	63.993239 
1038.000000	64.004421 
1037.000000	64.016056 
1036.000000	64.026713 
1035.000000	64.035582 
1034.000000	64.042472 
1033.000000	64.047574 
1032.000000	64.051413 
1031.000000	64.054250 
1030.000000	64.055800 
1029.000000	64.054989 
1028.000000	64.050459 
1027.000000	64.041137 
1026.000000	64.026594 
1025.000000	64.007759 
1024.000000	63.986873 
1023.000000	63.967180 
1022.000000	63.952469 
1021.000000	63.946008 
1020.000000	63.949775 
1019.000000	63.963961 
1018.000000	63.986802 
1017.000000	64.015316 
1016.000000	64.045715 
1015.000000	64.074516 
1014.000000	64.099001 
1013.000000	64.117741 
1012.000000	64.130592 
1011.000000	64.138460 
1010.000000	64.142918 
1009.000000	64.145541 
1008.000000	64.147734 
1007.000000	64.150571 
1006.000000	64.155030 
1005.000000	64.161849 
1004.000000	64.171624 
1003.000000	64.185023 
1002.000000	64.202022 
1001.000000	64.222073 
1000.000000	64.243674 
999.000000	 64.264369 
998.000000	 64.281010 
997.000000	 64.290690 
996.000000	 64.291095 
995.000000	 64.281296 
994.000000	 64.262008 
993.000000	 64.235639 
992.000000	 64.205718 
991.000000	 64.175987 
990.000000	 64.149475 
989.000000	 64.128088 
988.000000	 64.112114 
987.000000	 64.100527 
986.000000	 64.091515 
985.000000	 64.083075 
984.000000	 64.073753 
983.000000	 64.063024 
982.000000	 64.051175 
981.000000	 64.038991 
980.000000	 64.027476 
979.000000	 64.017486 
978.000000	 64.009261 
977.000000	 64.002966 
976.000000	 63.998508 
975.000000	 63.996291 
974.000000	 63.997006 
973.000000	 64.001846 
972.000000	 64.011907 
971.000000	 64.027738 
970.000000	 64.049005 
969.000000	 64.074254 
968.000000	 64.100933 
967.000000	 64.125990 
966.000000	 64.146375 
965.000000	 64.159846 
964.000000	 64.165258 
963.000000	 64.162945 
962.000000	 64.154458 
961.000000	 64.142298 
960.000000	 64.129137 
959.000000	 64.117717 
958.000000	 64.110207 
957.000000	 64.107871 
956.000000	 64.110946 
955.000000	 64.119219 
954.000000	 64.131832 
953.000000	 64.147686 
952.000000	 64.165544 
951.000000	 64.183926 
950.000000	 64.201593 
949.000000	 64.217066 
948.000000	 64.229226 
947.000000	 64.237260 
946.000000	 64.241027 
945.000000	 64.241218 
944.000000	 64.239001 
943.000000	 64.236092 
942.000000	 64.233875 
941.000000	 64.233613 
940.000000	 64.235424 
939.000000	 64.238500 
938.000000	 64.240908 
937.000000	 64.240407 
936.000000	 64.235043 
935.000000	 64.223837 
934.000000	 64.207506 
933.000000	 64.188480 
932.000000	 64.170551 
931.000000	 64.157938 
930.000000	 64.154171 
929.000000	 64.161109 
928.000000	 64.178371 
927.000000	 64.203500 
926.000000	 64.232587 
925.000000	 64.261245 
924.000000	 64.286017 
923.000000	 64.304876 
922.000000	 64.317870 
921.000000	 64.326286 
920.000000	 64.332222 
919.000000	 64.337325 
918.000000	 64.342141 
917.000000	 64.345502 
916.000000	 64.345240 
915.000000	 64.338684 
914.000000	 64.323806 
913.000000	 64.299988 
912.000000	 64.268946 
911.000000	 64.234232 
910.000000	 64.200663 
909.000000	 64.173316 
908.000000	 64.156246 
907.000000	 64.151692 
906.000000	 64.159727 
905.000000	 64.178228 
904.000000	 64.203834 
903.000000	 64.232778 
902.000000	 64.261746 
901.000000	 64.288187 
900.000000	 64.310669 
899.000000	 64.328408 
898.000000	 64.341235 
897.000000	 64.348959 
896.000000	 64.351439 
895.000000	 64.349055 
894.000000	 64.342498 
893.000000	 64.333462 
892.000000	 64.324045 
891.000000	 64.316964 
890.000000	 64.314436 
889.000000	 64.317870 
888.000000	 64.327383 
887.000000	 64.341545 
886.000000	 64.357924 
885.000000	 64.373517 
884.000000	 64.385986 
883.000000	 64.394068 
882.000000	 64.397859 
881.000000	 64.398837 
880.000000	 64.398884 
879.000000	 64.399409 
878.000000	 64.400625 
877.000000	 64.401626 
876.000000	 64.400219 
875.000000	 64.393854 
874.000000	 64.380407 
873.000000	 64.359211 
872.000000	 64.331459 
871.000000	 64.300107 
870.000000	 64.268875 
869.000000	 64.241671 
868.000000	 64.221811 
867.000000	 64.211392 
866.000000	 64.210653 
865.000000	 64.218330 
864.000000	 64.232397 
863.000000	 64.250349 
862.000000	 64.269685 
861.000000	 64.288520 
860.000000	 64.305567 
859.000000	 64.320325 
858.000000	 64.332342 
857.000000	 64.341568 
856.000000	 64.348101 
855.000000	 64.352345 
854.000000	 64.354991 
853.000000	 64.357113 
852.000000	 64.359831 
851.000000	 64.364314 
850.000000	 64.371156 
849.000000	 64.380192 
848.000000	 64.390063 
847.000000	 64.398574 
846.000000	 64.402914 
845.000000	 64.400243 
844.000000	 64.388084 
843.000000	 64.365386 
842.000000	 64.332294 
841.000000	 64.290404 
840.000000	 64.242196 
839.000000	 64.190793 
838.000000	 64.138889 
837.000000	 64.088702 
836.000000	 64.041352 
835.000000	 63.997197 
834.000000	 63.956212 
833.000000	 63.918280 
832.000000	 63.883852 
831.000000	 63.853859 
830.000000	 63.830137 
829.000000	 63.814401 
828.000000	 63.808465 
827.000000	 63.813161 
826.000000	 63.828277 
825.000000	 63.851857 
824.000000	 63.880801 
823.000000	 63.911080 
822.000000	 63.938379 
821.000000	 63.958835 
820.000000	 63.969779 
819.000000	 63.970184 
818.000000	 63.960242 
817.000000	 63.941478 
816.000000	 63.916516 
815.000000	 63.888287 
814.000000	 63.859868 
813.000000	 63.833498 
812.000000	 63.810896 
811.000000	 63.792634 
810.000000	 63.778281 
809.000000	 63.767147 
808.000000	 63.758063 
807.000000	 63.751292 
806.000000	 63.747882 
805.000000	 63.750648 
804.000000	 63.763165 
803.000000	 63.788962 
802.000000	 63.829970 
801.000000	 63.885712 
800.000000	 63.952827 
799.000000	 64.025473 
798.000000	 64.096593 
797.000000	 64.159369 
796.000000	 64.208793 
795.000000	 64.243030 
794.000000	 64.263582 
793.000000	 64.274835 
792.000000	 64.282608 
791.000000	 64.292597 
790.000000	 64.308595 
789.000000	 64.331650 
788.000000	 64.359426 
787.000000	 64.387679 
786.000000	 64.410495 
785.000000	 64.422893 
784.000000	 64.421105 
783.000000	 64.403796 
782.000000	 64.372134 
781.000000	 64.329433 
780.000000	 64.280652 
779.000000	 64.231467 
778.000000	 64.187383 
777.000000	 64.152979 
776.000000	 64.130997 
775.000000	 64.122176 
774.000000	 64.125013 
773.000000	 64.135980 
772.000000	 64.150571 
771.000000	 64.164328 
770.000000	 64.173388 
769.000000	 64.175343 
768.000000	 64.169740 
767.000000	 64.157891 
766.000000	 64.142322 
765.000000	 64.125633 
764.000000	 64.110445 
763.000000	 64.098095 
762.000000	 64.088773 
761.000000	 64.081192 
760.000000	 64.073300 
759.000000	 64.062857 
758.000000	 64.048385 
757.000000	 64.029669 
756.000000	 64.007925 
755.000000	 63.985490 
754.000000	 63.965344 
753.000000	 63.950157 
752.000000	 63.941478 
751.000000	 63.939094 
750.000000	 63.941240 
749.000000	 63.944482 
748.000000	 63.944602 
747.000000	 63.937759 
746.000000	 63.921475 
745.000000	 63.895320 
744.000000	 63.861083 
743.000000	 63.822603 
742.000000	 63.784980 
741.000000	 63.753271 
740.000000	 63.731384 
739.000000	 63.721537 
738.000000	 63.723802 
737.000000	 63.736462 
736.000000	 63.756608 
735.000000	 63.781070 
734.000000	 63.807225 
733.000000	 63.833284 
732.000000	 63.858604 
731.000000	 63.883256 
730.000000	 63.907766 
729.000000	 63.932728 
728.000000	 63.958334 
727.000000	 63.984179 
726.000000	 64.008927 
725.000000	 64.031386 
724.000000	 64.049744 
723.000000	 64.062547 
722.000000	 64.068460 
721.000000	 64.066720 
720.000000	 64.057159 
719.000000	 64.040660 
718.000000	 64.018988 
717.000000	 63.994669 
716.000000	 63.971042 
715.000000	 63.951873 
714.000000	 63.940548 
713.000000	 63.939809 
712.000000	 63.950800 
711.000000	 63.973045 
710.000000	 64.004397 
709.000000	 64.041328 
708.000000	 64.079713 
707.000000	 64.114856 
706.000000	 64.142560 
705.000000	 64.159178 
704.000000	 64.162111 
703.000000	 64.149641 
702.000000	 64.121270 
701.000000	 64.077472 
700.000000	 64.020252 
699.000000	 63.952684 
698.000000	 63.878989 
697.000000	 63.804388 
696.000000	 63.734817 
695.000000	 63.676357 
694.000000	 63.634610 
693.000000	 63.613605 
692.000000	 63.614940 
691.000000	 63.637089 
690.000000	 63.675475 
689.000000	 63.722848 
688.000000	 63.770461 
687.000000	 63.809967 
686.000000	 63.835000 
685.000000	 63.842439 
684.000000	 63.832950 
683.000000	 63.810110 
682.000000	 63.779783 
681.000000	 63.748478 
680.000000	 63.722395 
679.000000	 63.706135 
678.000000	 63.702249 
677.000000	 63.711738 
676.000000	 63.733959 
675.000000	 63.767194 
674.000000	 63.808989 
673.000000	 63.856410 
672.000000	 63.906097 
671.000000	 63.954377 
670.000000	 63.997626 
669.000000	 64.032125 
668.000000	 64.054918 
667.000000	 64.064240 
666.000000	 64.059591 
665.000000	 64.042162 
664.000000	 64.014196 
663.000000	 63.978934 
662.000000	 63.939833 
661.000000	 63.900184 
660.000000	 63.862824 
659.000000	 63.830351 
658.000000	 63.805055 
657.000000	 63.789200 
656.000000	 63.785028 
655.000000	 63.794279 
654.000000	 63.817858 
653.000000	 63.855576 
652.000000	 63.905477 
651.000000	 63.963913 
650.000000	 64.026093 
649.000000	 64.086008 
648.000000	 64.137148 
647.000000	 64.173126 
646.000000	 64.189457 
645.000000	 64.183020 
644.000000	 64.153456 
643.000000	 64.101982 
642.000000	 64.031863 
641.000000	 63.947033 
640.000000	 63.852357 
639.000000	 63.752412 
638.000000	 63.651895 
637.000000	 63.555788 
636.000000	 63.469505 
635.000000	 63.398647 
634.000000	 63.348627 
633.000000	 63.323950 
632.000000	 63.327360 
631.000000	 63.358378 
630.000000	 63.413310 
629.000000	 63.485455 
628.000000	 63.566803 
627.000000	 63.648581 
626.000000	 63.724017 
625.000000	 63.789486 
624.000000	 63.845252 
623.000000	 63.894844 
622.000000	 63.943314 
621.000000	 63.995361 
620.000000	 64.053034 
619.000000	 64.115405 
618.000000	 64.177536 
617.000000	 64.231634 
616.000000	 64.269208 
615.000000	 64.284491 
614.000000	 64.275312 
613.000000	 64.244532 
612.000000	 64.198994 
611.000000	 64.148426 
610.000000	 64.102149 
609.000000	 64.067053 
608.000000	 64.045286 
607.000000	 64.034175 
606.000000	 64.026927 
605.000000	 64.014673 
604.000000	 63.989448 
603.000000	 63.946318 
602.000000	 63.883996 
601.000000	 63.805437 
600.000000	 63.716030 
599.000000	 63.623857 
598.000000	 63.536548 
597.000000	 63.462281 
596.000000	 63.407158 
595.000000	 63.376998 
594.000000	 63.376474 
593.000000	 63.410115 
592.000000	 63.480925 
591.000000	 63.589835 
590.000000	 63.734769 
589.000000	 63.908624 
588.000000	 64.098906 
587.000000	 64.287829 
586.000000	 64.454388 
585.000000	 64.577388 
584.000000	 64.639568 
583.000000	 64.631414 
582.000000	 64.553713 
581.000000	 64.418506 
580.000000	 64.247322 
579.000000	 64.067435 
578.000000	 63.906455 
577.000000	 63.787484 
576.000000	 63.724279 
575.000000	 63.718867 
574.000000	 63.762187 
573.000000	 63.837337 
572.000000	 63.924908 
571.000000	 64.007997 
570.000000	 64.076542 
569.000000	 64.127492 
568.000000	 64.164996 
567.000000	 64.197015 
566.000000	 64.231753 
565.000000	 64.272832 
564.000000	 64.318776 
563.000000	 64.363145 
562.000000	 64.396834 
561.000000	 64.411759 
560.000000	 64.403486 
559.000000	 64.374303 
558.000000	 64.330720 
557.000000	 64.282417 
556.000000	 64.237689 
555.000000	 64.201164 
554.000000	 64.172196 
553.000000	 64.145445 
552.000000	 64.114856 
551.000000	 64.076232 
550.000000	 64.031624 
549.000000	 63.988614 
548.000000	 63.958120 
547.000000	 63.949418 
546.000000	 63.966727 
545.000000	 64.005208 
544.000000	 64.049673 
543.000000	 64.078068 
542.000000	 64.067268 
541.000000	 63.999629 
540.000000	 63.869571 
539.000000	 63.685131 
538.000000	 63.467574 
537.000000	 63.245701 
536.000000	 63.049364 
535.000000	 62.901449 
534.000000	 62.811398 
533.000000	 62.775778 
532.000000	 62.780451 
531.000000	 62.806868 
530.000000	 62.837862 
529.000000	 62.864518 
528.000000	 62.888312 
527.000000	 62.919378 
526.000000	 62.971687 
525.000000	 63.057327 
524.000000	 63.180828 
523.000000	 63.336730 
522.000000	 63.509798 
521.000000	 63.678050 
520.000000	 63.818693 
519.000000	 63.915920 
518.000000	 63.963794 
517.000000	 63.967919 
516.000000	 63.942289 
515.000000	 63.906168 
514.000000	 63.876199 
513.000000	 63.862085 
512.000000	 63.862562 
511.000000	 63.868761 
510.000000	 63.864541 
509.000000	 63.833975 
508.000000	 63.764595 
507.000000	 63.654017 
506.000000	 63.508224 
505.000000	 63.340449 
504.000000	 63.167405 
503.000000	 63.004732 
502.000000	 62.864184 
501.000000	 62.751603 
500.000000	 62.667775 
499.000000	 62.609958 
498.000000	 62.576842 
497.000000	 62.570667 
496.000000	 62.597036 
495.000000	 62.663769 
494.000000	 62.777328 
493.000000	 62.939667 
492.000000	 63.144230 
491.000000	 63.376259 
490.000000	 63.614249 
489.000000	 63.834142 
488.000000	 64.013457 
487.000000	 64.136719 
486.000000	 64.199256 
485.000000	 64.207196 
484.000000	 64.175605 
483.000000	 64.124655 
482.000000	 64.076328 
481.000000	 64.046955 
480.000000	 64.046621 
479.000000	 64.072704 
478.000000	 64.113450 
477.000000	 64.147901 
476.000000	 64.152979 
475.000000	 64.108562 
474.000000	 64.003896 
473.000000	 63.840985 
472.000000	 63.635396 
471.000000	 63.412427 
470.000000	 63.202309 
469.000000	 63.035321 
468.000000	 62.935423 
467.000000	 62.916564 
466.000000	 62.979245 
465.000000	 63.112378 
464.000000	 63.293385 
463.000000	 63.492608 
462.000000	 63.677358 
461.000000	 63.816595 
460.000000	 63.886833 
459.000000	 63.874959 
458.000000	 63.780999 
457.000000	 63.617181 
456.000000	 63.404631 
455.000000	 63.170385 
454.000000	 62.939167 
453.000000	 62.730646 
452.000000	 62.553668 
451.000000	 62.407350 
450.000000	 62.282776 
449.000000	 62.167429 
448.000000	 62.053537 
447.000000	 61.942148 
446.000000	 61.845779 
445.000000	 61.785769 
444.000000	 61.785197 
443.000000	 61.861133 
442.000000	 62.019920 
441.000000	 62.253355 
440.000000	 62.535476 
439.000000	 62.829232 
438.000000	 63.096737 
437.000000	 63.308262 
436.000000	 63.446259 
435.000000	 63.510680 
434.000000	 63.519454 
433.000000	 63.501572 
432.000000	 63.485622 
431.000000	 63.493585 
430.000000	 63.541460 
429.000000	 63.628292 
428.000000	 63.739800 
427.000000	 63.848853 
426.000000	 63.928890 
425.000000	 63.952326 
424.000000	 63.898706 
423.000000	 63.759040 
422.000000	 63.537740 
421.000000	 63.257169 
420.000000	 62.954330 
419.000000	 62.680411 
418.000000	 62.491321 
417.000000	 62.448596 
416.000000	 62.605881 
415.000000	 62.990474 
414.000000	 63.594818 
413.000000	 64.379262 
412.000000	 65.278649 
411.000000	 66.192960 
410.000000	 67.024898 
409.000000	 67.707920 
408.000000	 68.225502 
407.000000	 68.601679 
406.000000	 68.905401 
405.000000	 69.231677 
404.000000	 69.671010 
403.000000	 70.296335 
402.000000	 71.122455 
401.000000	 72.092986 
400.000000	 73.098182 
399.000000	 74.018692 
398.000000	 74.735522 
397.000000	 75.157904 
396.000000	 75.257253 
395.000000	 75.094223 
394.000000	 74.741458 
393.000000	 74.248886 
392.000000	 73.661255 
391.000000	 73.011922 
390.000000	 72.262787 
389.000000	 71.321773 
388.000000	 70.134615 
387.000000	 68.633842 
386.000000	 66.959381 
385.000000	 65.330505 
384.000000	 63.338637 
383.000000	 60.497379 
382.000000	 56.615185 
381.000000	 51.866626 
380.000000	 47.615361 
379.000000	 45.221090 
378.000000	 45.248770 
377.000000	 47.581076 
376.000000	 49.867439 
375.000000	 50.283265 
374.000000	 48.876309 
373.000000	 47.125482 
372.000000	 49.540019 
371.000000	 58.778715 
370.000000	 73.537111 

