PE IR       SPECTRUM    SPECTRUM    ASCII       PEDS        1.60        
  -1
BZCB7A~1.ASC
17/04/07
21:46:41.00
17/04/07
21:46:41.00
tln
$BZ1503107-1_t0104$<tbV0>[2.6,10.4,8.0,0.0,27,1,0]
370.000000
64









2002,4.07    
MIRTGS : RIGHTBACK : INTERNAL 2
MIR : ON : INTERNAL 2
OPTKBR

0.200000
8
8.000000
FILLER
RATIO
SPECTRUM
UNLOCKED 256

DOUBLE
64
COMBINED
1
0
0


1.000000
RATIO


1
0
TRUE
51149
0
LEFT NOT FITTED RIGHT NOT FITTED 0
NONE
NONE
15600
12.000000
4.427000
51148
TRUE
1 0 8 72 0 0 0 0 

15798.010000






#HDR
-1
-1
#GR
CM-1
%T
0.00002384185791015625
0.0
5000.000000
-1.000000
4631
8
84.127831
39.100384
#DATA
5000.000000	62.928438 
4999.000000	63.162088 
4998.000000	63.541936 
4997.000000	63.984632 
4996.000000	64.400362 
4995.000000	64.708662 
4994.000000	64.860296 
4993.000000	64.837956 
4992.000000	64.668822 
4991.000000	64.410471 
4990.000000	64.141368 
4989.000000	63.939094 
4988.000000	63.863372 
4987.000000	63.942813 
4986.000000	64.169502 
4985.000000	64.504957 
4984.000000	64.885449 
4983.000000	65.239310 
4982.000000	65.502452 
4981.000000	65.633511 
4980.000000	65.618872 
4979.000000	65.474891 
4978.000000	65.240836 
4977.000000	64.968919 
4976.000000	64.711666 
4975.000000	64.510154 
4974.000000	64.389991 
4973.000000	64.354753 
4972.000000	64.392113 
4971.000000	64.474749 
4970.000000	64.574050 
4969.000000	64.661097 
4968.000000	64.711570 
4967.000000	64.710736 
4966.000000	64.649724 
4965.000000	64.533066 
4964.000000	64.373922 
4963.000000	64.196729 
4962.000000	64.029026 
4961.000000	63.903880 
4960.000000	63.853311 
4959.000000	63.903832 
4958.000000	64.070487 
4957.000000	64.352917 
4956.000000	64.733505 
4955.000000	65.178990 
4954.000000	65.644574 
4953.000000	66.081333 
4952.000000	66.443157 
4951.000000	66.693234 
4950.000000	66.809439 
4949.000000	66.787981 
4948.000000	66.642403 
4947.000000	66.400980 
4946.000000	66.100835 
4945.000000	65.782976 
4944.000000	65.484094 
4943.000000	65.237593 
4942.000000	65.062999 
4941.000000	64.968061 
4940.000000	64.945220 
4939.000000	64.977216 
4938.000000	65.038824 
4937.000000	65.102219 
4936.000000	65.143561 
4935.000000	65.144729 
4934.000000	65.100979 
4933.000000	65.019297 
4932.000000	64.917922 
4931.000000	64.819884 
4930.000000	64.747333 
4929.000000	64.715051 
4928.000000	64.726519 
4927.000000	64.772891 
4926.000000	64.836812 
4925.000000	64.896988 
4924.000000	64.933156 
4923.000000	64.931631 
4922.000000	64.888000 
4921.000000	64.809083 
4920.000000	64.706587 
4919.000000	64.598584 
4918.000000	64.504623 
4917.000000	64.443922 
4916.000000	64.432382 
4915.000000	64.479017 
4914.000000	64.584851 
4913.000000	64.741134 
4912.000000	64.932823 
4911.000000	65.137410 
4910.000000	65.328431 
4909.000000	65.479922 
4908.000000	65.570783 
4907.000000	65.589213 
4906.000000	65.534734 
4905.000000	65.418958 
4904.000000	65.263009 
4903.000000	65.093135 
4902.000000	64.935088 
4901.000000	64.809107 
4900.000000	64.726114 
4899.000000	64.686346 
4898.000000	64.680504 
4897.000000	64.694046 
4896.000000	64.711189 
4895.000000	64.717960 
4894.000000	64.706730 
4893.000000	64.675164 
4892.000000	64.628815 
4891.000000	64.577722 
4890.000000	64.535045 
4889.000000	64.512777 
4888.000000	64.519047 
4887.000000	64.555883 
4886.000000	64.618206 
4885.000000	64.695644 
4884.000000	64.774346 
4883.000000	64.840769 
4882.000000	64.884185 
4881.000000	64.898467 
4880.000000	64.883565 
4879.000000	64.845037 
4878.000000	64.792013 
4877.000000	64.734554 
4876.000000	64.682650 
4875.000000	64.644217 
4874.000000	64.624762 
4873.000000	64.627003 
4872.000000	64.650583 
4871.000000	64.692831 
4870.000000	64.750027 
4869.000000	64.817833 
4868.000000	64.890933 
4867.000000	64.963960 
4866.000000	65.031528 
4865.000000	65.089344 
4864.000000	65.134930 
4863.000000	65.167212 
4862.000000	65.187239 
4861.000000	65.196299 
4860.000000	65.196418 
4859.000000	65.188169 
4858.000000	65.171313 
4857.000000	65.143871 
4856.000000	65.103769 
4855.000000	65.049314 
4854.000000	64.981079 
4853.000000	64.902234 
4852.000000	64.818716 
4851.000000	64.738678 
4850.000000	64.671230 
4849.000000	64.625334 
4848.000000	64.608049 
4847.000000	64.623403 
4846.000000	64.671254 
4845.000000	64.746785 
4844.000000	64.841103 
4843.000000	64.942741 
4842.000000	65.039157 
4841.000000	65.118980 
4840.000000	65.173387 
4839.000000	65.197372 
4838.000000	65.189933 
4837.000000	65.154027 
4836.000000	65.095090 
4835.000000	65.019845 
4834.000000	64.935159 
4833.000000	64.847803 
4832.000000	64.763784 
4831.000000	64.688491 
4830.000000	64.626598 
4829.000000	64.582324 
4828.000000	64.559292 
4827.000000	64.560055 
4826.000000	64.585804 
4825.000000	64.635229 
4824.000000	64.704871 
4823.000000	64.788985 
4822.000000	64.880347 
4821.000000	64.971327 
4820.000000	65.055561 
4819.000000	65.128731 
4818.000000	65.189051 
4817.000000	65.236759 
4816.000000	65.274024 
4815.000000	65.302872 
4814.000000	65.324878 
4813.000000	65.339016 
4812.000000	65.342998 
4811.000000	65.332436 
4810.000000	65.303063 
4809.000000	65.251970 
4808.000000	65.178990 
4807.000000	65.088272 
4806.000000	64.988565 
4805.000000	64.891886 
4804.000000	64.811134 
4803.000000	64.757442 
4802.000000	64.736986 
4801.000000	64.750051 
4800.000000	64.790654 
4799.000000	64.848804 
4798.000000	64.912724 
4797.000000	64.972329 
4796.000000	65.021109 
4795.000000	65.057063 
4794.000000	65.082073 
4793.000000	65.100026 
4792.000000	65.115070 
4791.000000	65.130066 
4790.000000	65.145921 
4789.000000	65.161681 
4788.000000	65.175151 
4787.000000	65.185594 
4786.000000	65.193080 
4785.000000	65.199446 
4784.000000	65.206456 
4783.000000	65.214705 
4782.000000	65.222287 
4781.000000	65.224528 
4780.000000	65.215229 
4779.000000	65.188074 
4778.000000	65.139102 
4777.000000	65.069031 
4776.000000	64.983320 
4775.000000	64.891409 
4774.000000	64.805030 
4773.000000	64.735388 
4772.000000	64.691019 
4771.000000	64.675855 
4770.000000	64.689421 
4769.000000	64.727139 
4768.000000	64.782285 
4767.000000	64.847445 
4766.000000	64.915490 
4765.000000	64.980149 
4764.000000	65.036225 
4763.000000	65.079307 
4762.000000	65.104913 
4761.000000	65.109276 
4760.000000	65.090203 
4759.000000	65.048265 
4758.000000	64.987921 
4757.000000	64.917302 
4756.000000	64.847636 
4755.000000	64.790678 
4754.000000	64.756941 
4753.000000	64.752411 
4752.000000	64.777326 
4751.000000	64.825868 
4750.000000	64.887523 
4749.000000	64.949846 
4748.000000	65.001225 
4747.000000	65.033864 
4746.000000	65.045309 
4745.000000	65.038037 
4744.000000	65.018129 
4743.000000	64.993023 
4742.000000	64.969158 
4741.000000	64.950060 
4740.000000	64.935612 
4739.000000	64.923048 
4738.000000	64.908051 
4737.000000	64.886736 
4736.000000	64.856934 
4735.000000	64.818716 
4734.000000	64.774870 
4733.000000	64.729642 
4732.000000	64.688515 
4731.000000	64.656043 
4730.000000	64.635801 
4729.000000	64.629864 
4728.000000	64.638924 
4727.000000	64.662456 
4726.000000	64.698815 
4725.000000	64.745116 
4724.000000	64.797639 
4723.000000	64.851665 
4722.000000	64.902424 
4721.000000	64.945220 
4720.000000	64.976859 
4719.000000	64.995765 
4718.000000	65.002322 
4717.000000	64.998507 
4716.000000	64.987301 
4715.000000	64.972186 
4714.000000	64.955925 
4713.000000	64.940166 
4712.000000	64.925408 
4711.000000	64.911341 
4710.000000	64.896821 
4709.000000	64.880537 
4708.000000	64.862036 
4707.000000	64.841914 
4706.000000	64.821863 
4705.000000	64.804315 
4704.000000	64.791917 
4703.000000	64.786815 
4702.000000	64.789843 
4701.000000	64.800071 
4700.000000	64.815044 
4699.000000	64.831113 
4698.000000	64.844179 
4697.000000	64.850664 
4696.000000	64.848017 
4695.000000	64.836168 
4694.000000	64.817309 
4693.000000	64.796257 
4692.000000	64.778852 
4691.000000	64.771819 
4690.000000	64.780926 
4689.000000	64.810299 
4688.000000	64.861106 
4687.000000	64.931583 
4686.000000	65.017247 
4685.000000	65.111660 
4684.000000	65.207386 
4683.000000	65.296959 
4682.000000	65.373826 
4681.000000	65.433692 
4680.000000	65.474963 
4679.000000	65.498471 
4678.000000	65.506958 
4677.000000	65.504837 
4676.000000	65.496158 
4675.000000	65.484476 
4674.000000	65.471172 
4673.000000	65.456128 
4672.000000	65.437388 
4671.000000	65.413022 
4670.000000	65.381550 
4669.000000	65.343308 
4668.000000	65.300488 
4667.000000	65.257191 
4666.000000	65.218377 
4665.000000	65.188598 
4664.000000	65.171003 
4663.000000	65.166425 
4662.000000	65.173411 
4661.000000	65.188574 
4660.000000	65.207958 
4659.000000	65.228223 
4658.000000	65.247941 
4657.000000	65.267777 
4656.000000	65.290331 
4655.000000	65.318965 
4654.000000	65.356254 
4653.000000	65.402317 
4652.000000	65.454339 
4651.000000	65.505909 
4650.000000	65.548348 
4649.000000	65.572023 
4648.000000	65.569233 
4647.000000	65.535736 
4646.000000	65.472221 
4645.000000	65.384578 
4644.000000	65.283274 
4643.000000	65.181398 
4642.000000	65.092039 
4641.000000	65.025877 
4640.000000	64.989376 
4639.000000	64.983797 
4638.000000	65.005421 
4637.000000	65.047001 
4636.000000	65.099430 
4635.000000	65.154147 
4634.000000	65.204620 
4633.000000	65.247464 
4632.000000	65.282440 
4631.000000	65.311717 
4630.000000	65.338492 
4629.000000	65.366148 
4628.000000	65.396499 
4627.000000	65.429997 
4626.000000	65.464544 
4625.000000	65.496921 
4624.000000	65.522623 
4623.000000	65.537524 
4622.000000	65.537786 
4621.000000	65.521335 
4620.000000	65.487456 
4619.000000	65.437364 
4618.000000	65.373659 
4617.000000	65.300226 
4616.000000	65.221858 
4615.000000	65.143871 
4614.000000	65.071630 
4613.000000	65.009951 
4612.000000	64.962649 
4611.000000	64.932227 
4610.000000	64.919137 
4609.000000	64.921641 
4608.000000	64.936065 
4607.000000	64.957475 
4606.000000	64.980840 
4605.000000	65.001893 
4604.000000	65.017914 
4603.000000	65.027999 
4602.000000	65.033030 
4601.000000	65.035009 
4600.000000	65.036010 
4599.000000	65.037298 
4598.000000	65.038895 
4597.000000	65.039324 
4596.000000	65.036344 
4595.000000	65.027666 
4594.000000	65.011882 
4593.000000	64.989423 
4592.000000	64.962482 
4591.000000	64.934921 
4590.000000	64.911413 
4589.000000	64.896273 
4588.000000	64.892339 
4587.000000	64.900326 
4586.000000	64.918422 
4585.000000	64.942789 
4584.000000	64.968609 
4583.000000	64.990806 
4582.000000	65.004968 
4581.000000	65.008521 
4580.000000	65.001249 
4579.000000	64.985227 
4578.000000	64.964437 
4577.000000	64.944028 
4576.000000	64.928960 
4575.000000	64.923501 
4574.000000	64.930057 
4573.000000	64.948916 
4572.000000	64.978122 
4571.000000	65.013837 
4570.000000	65.051150 
4569.000000	65.085244 
4568.000000	65.111875 
4567.000000	65.128350 
4566.000000	65.133452 
4565.000000	65.127778 
4564.000000	65.112757 
4563.000000	65.090155 
4562.000000	65.061736 
4561.000000	65.029191 
4560.000000	64.994263 
4559.000000	64.958953 
4558.000000	64.925765 
4557.000000	64.898109 
4556.000000	64.878964 
4555.000000	64.870285 
4554.000000	64.872312 
4553.000000	64.883089 
4552.000000	64.898896 
4551.000000	64.914894 
4550.000000	64.926338 
4549.000000	64.930009 
4548.000000	64.924931 
4547.000000	64.912867 
4546.000000	64.897751 
4545.000000	64.884567 
4544.000000	64.877796 
4543.000000	64.880299 
4542.000000	64.892387 
4541.000000	64.911842 
4540.000000	64.934539 
4539.000000	64.956021 
4538.000000	64.972639 
4537.000000	64.982819 
4536.000000	64.987206 
4535.000000	64.988827 
4534.000000	64.991712 
4533.000000	65.000343 
4532.000000	65.018010 
4531.000000	65.046095 
4530.000000	65.083885 
4529.000000	65.128564 
4528.000000	65.175890 
4527.000000	65.221428 
4526.000000	65.261292 
4525.000000	65.293049 
4524.000000	65.316033 
4523.000000	65.330815 
4522.000000	65.338635 
4521.000000	65.341281 
4520.000000	65.340232 
4519.000000	65.335965 
4518.000000	65.327978 
4517.000000	65.315485 
4516.000000	65.298032 
4515.000000	65.276169 
4514.000000	65.251970 
4513.000000	65.229105 
4512.000000	65.212154 
4511.000000	65.205764 
4510.000000	65.213251 
4509.000000	65.235662 
4508.000000	65.271210 
4507.000000	65.315175 
4506.000000	65.360903 
4505.000000	65.401268 
4504.000000	65.430235 
4503.000000	65.444540 
4502.000000	65.443730 
4501.000000	65.430188 
4500.000000	65.407562 
4499.000000	65.379595 
4498.000000	65.346717 
4497.000000	65.305972 
4496.000000	65.250897 
4495.000000	65.174078 
4494.000000	65.070700 
4493.000000	64.941239 
4492.000000	64.793443 
4491.000000	64.641404 
4490.000000	64.502406 
4489.000000	64.393281 
4488.000000	64.325165 
4487.000000	64.302086 
4486.000000	64.319467 
4485.000000	64.366364 
4484.000000	64.429092 
4483.000000	64.494180 
4482.000000	64.547705 
4481.000000	64.581918 
4480.000000	64.597487 
4479.000000	64.601564 
4478.000000	64.598989 
4477.000000	64.599800 
4476.000000	64.621067 
4475.000000	64.672994 
4474.000000	64.753103 
4473.000000	64.853024 
4472.000000	64.959478 
4471.000000	65.061330 
4470.000000	65.155863 
4469.000000	65.228581 
4468.000000	65.256762 
4467.000000	65.238690 
4466.000000	65.189456 
4465.000000	65.128326 
4464.000000	65.073132 
4463.000000	65.032958 
4462.000000	65.009379 
4461.000000	64.980173 
4460.000000	64.928174 
4459.000000	64.857172 
4458.000000	64.796876 
4457.000000	64.813542 
4456.000000	64.981818 
4455.000000	65.321040 
4454.000000	65.847945 
4453.000000	66.518616 
4452.000000	67.338228 
4451.000000	68.375110 
4450.000000	69.748163 
4449.000000	71.638822 
4448.000000	74.105310 
4447.000000	77.038049 
4446.000000	80.076313 
4445.000000	82.654452 
4444.000000	84.127831 
4443.000000	83.929800 
4442.000000	81.748414 
4441.000000	77.622365 
4440.000000	71.904945 
4439.000000	65.211033 
4438.000000	58.250260 
4437.000000	51.725459 
4436.000000	46.228146 
4435.000000	42.171549 
4434.000000	39.785456 
4433.000000	39.100384 
4432.000000	39.971184 
4431.000000	42.129707 
4430.000000	45.177483 
4429.000000	48.716044 
4428.000000	52.340817 
4427.000000	55.752325 
4426.000000	58.711671 
4425.000000	61.116266 
4424.000000	62.942361 
4423.000000	64.255642 
4422.000000	65.157270 
4421.000000	65.765523 
4420.000000	66.192626 
4419.000000	66.517949 
4418.000000	66.793346 
4417.000000	67.033267 
4416.000000	67.233991 
4415.000000	67.382431 
4414.000000	67.471265 
4413.000000	67.499637 
4412.000000	67.474937 
4411.000000	67.408347 
4410.000000	67.311835 
4409.000000	67.187738 
4408.000000	67.031860 
4407.000000	66.857361 
4406.000000	66.679692 
4405.000000	66.499042 
4404.000000	66.311597 
4403.000000	66.123557 
4402.000000	65.941262 
4401.000000	65.767979 
4400.000000	65.607190 
4399.000000	65.458154 
4398.000000	65.322089 
4397.000000	65.209245 
4396.000000	65.125679 
4395.000000	65.063428 
4394.000000	65.015482 
4393.000000	64.980626 
4392.000000	64.954566 
4391.000000	64.928865 
4390.000000	64.898610 
4389.000000	64.862823 
4388.000000	64.822030 
4387.000000	64.777851 
4386.000000	64.733147 
4385.000000	64.691448 
4384.000000	64.655041 
4383.000000	64.625787 
4382.000000	64.605307 
4381.000000	64.595627 
4380.000000	64.599180 
4379.000000	64.618849 
4378.000000	64.656162 
4377.000000	64.711523 
4376.000000	64.783382 
4375.000000	64.868426 
4374.000000	64.961099 
4373.000000	65.054821 
4372.000000	65.144085 
4371.000000	65.223646 
4370.000000	65.289044 
4369.000000	65.337252 
4368.000000	65.367221 
4367.000000	65.379095 
4366.000000	65.373921 
4365.000000	65.354251 
4364.000000	65.324258 
4363.000000	65.288782 
4362.000000	65.252900 
4361.000000	65.221738 
4360.000000	65.199828 
4359.000000	65.189599 
4358.000000	65.191435 
4357.000000	65.203523 
4356.000000	65.222716 
4355.000000	65.245270 
4354.000000	65.267539 
4353.000000	65.286946 
4352.000000	65.301847 
4351.000000	65.311169 
4350.000000	65.314197 
4349.000000	65.309762 
4348.000000	65.296792 
4347.000000	65.274977 
4346.000000	65.245008 
4345.000000	65.209054 
4344.000000	65.170240 
4343.000000	65.132617 
4342.000000	65.099811 
4341.000000	65.074038 
4340.000000	65.056300 
4339.000000	65.046310 
4338.000000	65.043163 
4337.000000	65.045523 
4336.000000	65.053081 
4335.000000	65.066695 
4334.000000	65.088129 
4333.000000	65.119218 
4332.000000	65.160894 
4331.000000	65.212345 
4330.000000	65.270280 
4329.000000	65.329170 
4328.000000	65.382003 
4327.000000	65.421557 
4326.000000	65.442252 
4325.000000	65.441274 
4324.000000	65.419030 
4323.000000	65.379095 
4322.000000	65.327715 
4321.000000	65.272045 
4320.000000	65.219044 
4319.000000	65.174245 
4318.000000	65.141367 
4317.000000	65.121746 
4316.000000	65.115070 
4315.000000	65.119528 
4314.000000	65.132546 
4313.000000	65.150833 
4312.000000	65.170741 
4311.000000	65.188479 
4310.000000	65.200662 
4309.000000	65.204524 
4308.000000	65.198254 
4307.000000	65.181875 
4306.000000	65.157103 
4305.000000	65.127348 
4304.000000	65.096902 
4303.000000	65.070056 
4302.000000	65.050482 
4301.000000	65.040278 
4300.000000	65.039920 
4299.000000	65.048098 
4298.000000	65.062355 
4297.000000	65.080475 
4296.000000	65.100502 
4295.000000	65.121316 
4294.000000	65.141868 
4293.000000	65.160870 
4292.000000	65.176606 
4291.000000	65.186262 
4290.000000	65.187239 
4289.000000	65.177345 
4288.000000	65.156388 
4287.000000	65.126872 
4286.000000	65.093898 
4285.000000	65.064334 
4284.000000	65.045714 
4283.000000	65.044164 
4282.000000	65.063285 
4281.000000	65.102767 
4280.000000	65.158534 
4279.000000	65.223360 
4278.000000	65.288305 
4277.000000	65.344524 
4276.000000	65.384864 
4275.000000	65.404915 
4274.000000	65.403127 
4273.000000	65.381002 
4272.000000	65.342116 
4271.000000	65.291690 
4270.000000	65.235948 
4269.000000	65.180969 
4268.000000	65.132665 
4267.000000	65.095400 
4266.000000	65.071988 
4265.000000	65.062952 
4264.000000	65.066742 
4263.000000	65.080237 
4262.000000	65.099453 
4261.000000	65.120911 
4260.000000	65.141606 
4259.000000	65.160226 
4258.000000	65.176510 
4257.000000	65.191125 
4256.000000	65.204811 
4255.000000	65.218019 
4254.000000	65.230488 
4253.000000	65.241432 
4252.000000	65.249443 
4251.000000	65.253758 
4250.000000	65.254235 
4249.000000	65.251851 
4248.000000	65.248036 
4247.000000	65.244388 
4246.000000	65.241551 
4245.000000	65.239048 
4244.000000	65.235114 
4243.000000	65.227174 
4242.000000	65.213036 
4241.000000	65.191769 
4240.000000	65.164422 
4239.000000	65.133929 
4238.000000	65.104722 
4237.000000	65.081834 
4236.000000	65.069627 
4235.000000	65.070343 
4234.000000	65.083408 
4233.000000	65.105819 
4232.000000	65.132379 
4231.000000	65.157079 
4230.000000	65.173983 
4229.000000	65.178728 
4228.000000	65.168905 
4227.000000	65.144586 
4226.000000	65.107703 
4225.000000	65.061759 
4224.000000	65.011501 
4223.000000	64.962100 
4222.000000	64.918756 
4221.000000	64.885854 
4220.000000	64.866662 
4219.000000	64.862918 
4218.000000	64.874267 
4217.000000	64.898800 
4216.000000	64.932799 
4215.000000	64.972138 
4214.000000	65.012192 
4213.000000	65.049481 
4212.000000	65.081596 
4211.000000	65.107917 
4210.000000	65.128946 
4209.000000	65.146017 
4208.000000	65.160417 
4207.000000	65.172767 
4206.000000	65.183067 
4205.000000	65.189766 
4204.000000	65.190529 
4203.000000	65.183019 
4202.000000	65.165996 
4201.000000	65.139222 
4200.000000	65.104198 
4199.000000	65.063405 
4198.000000	65.020179 
4197.000000	64.977979 
4196.000000	64.940094 
4195.000000	64.908981 
4194.000000	64.886498 
4193.000000	64.873600 
4192.000000	64.870834 
4191.000000	64.878439 
4190.000000	64.896202 
4189.000000	64.923238 
4188.000000	64.957451 
4187.000000	64.995288 
4186.000000	65.032052 
4185.000000	65.062093 
4184.000000	65.080642 
4183.000000	65.083837 
4182.000000	65.071654 
4181.000000	65.047907 
4180.000000	65.020084 
4179.000000	64.997863 
4178.000000	64.990711 
4177.000000	65.005421 
4176.000000	65.043735 
4175.000000	65.101790 
4174.000000	65.170145 
4173.000000	65.236330 
4172.000000	65.287590 
4171.000000	65.314340 
4170.000000	65.312480 
4169.000000	65.284276 
4168.000000	65.237903 
4167.000000	65.184783 
4166.000000	65.136337 
4165.000000	65.100741 
4164.000000	65.081739 
4163.000000	65.077543 
4162.000000	65.082645 
4161.000000	65.089201 
4160.000000	65.090656 
4159.000000	65.082573 
4158.000000	65.063905 
4157.000000	65.036749 
4156.000000	65.004539 
4155.000000	64.971899 
4154.000000	64.942479 
4153.000000	64.918994 
4152.000000	64.902496 
4151.000000	64.892911 
4150.000000	64.889740 
4149.000000	64.892148 
4148.000000	64.899349 
4147.000000	64.910459 
4146.000000	64.924430 
4145.000000	64.939618 
4144.000000	64.954257 
4143.000000	64.967131 
4142.000000	64.977955 
4141.000000	64.987659 
4140.000000	64.998197 
4139.000000	65.012168 
4138.000000	65.031933 
4137.000000	65.058565 
4136.000000	65.091490 
4135.000000	65.128350 
4134.000000	65.165376 
4133.000000	65.198993 
4132.000000	65.225768 
4131.000000	65.243244 
4130.000000	65.250229 
4129.000000	65.247082 
4128.000000	65.235471 
4127.000000	65.218257 
4126.000000	65.198469 
4125.000000	65.179157 
4124.000000	65.162396 
4123.000000	65.149116 
4122.000000	65.138888 
4121.000000	65.130639 
4120.000000	65.122914 
4119.000000	65.114617 
4118.000000	65.105175 
4117.000000	65.094733 
4116.000000	65.083765 
4115.000000	65.072846 
4114.000000	65.062117 
4113.000000	65.051388 
4112.000000	65.040278 
4111.000000	65.028572 
4110.000000	65.016818 
4109.000000	65.006327 
4108.000000	64.999222 
4107.000000	64.997792 
4106.000000	65.003991 
4105.000000	65.018558 
4104.000000	65.040373 
4103.000000	65.066289 
4102.000000	65.091538 
4101.000000	65.110969 
4100.000000	65.120172 
4099.000000	65.116524 
4098.000000	65.099835 
4097.000000	65.072250 
4096.000000	65.037608 
4095.000000	65.000534 
4094.000000	64.965105 
4093.000000	64.934182 
4092.000000	64.909076 
4091.000000	64.889574 
4090.000000	64.874720 
4089.000000	64.863348 
4088.000000	64.854907 
4087.000000	64.849591 
4086.000000	64.848756 
4085.000000	64.854168 
4084.000000	64.867901 
4083.000000	64.891338 
4082.000000	64.924836 
4081.000000	64.967489 
4080.000000	65.016818 
4079.000000	65.069484 
4078.000000	65.121364 
4077.000000	65.168213 
4076.000000	65.206027 
4075.000000	65.231966 
4074.000000	65.244340 
4073.000000	65.242862 
4072.000000	65.228605 
4071.000000	65.204119 
4070.000000	65.172433 
4069.000000	65.136718 
4068.000000	65.099573 
4067.000000	65.062975 
4066.000000	65.028095 
4065.000000	64.995455 
4064.000000	64.965224 
4063.000000	64.937639 
4062.000000	64.912939 
4061.000000	64.891648 
4060.000000	64.874339 
4059.000000	64.861917 
4058.000000	64.855051 
4057.000000	64.854264 
4056.000000	64.859461 
4055.000000	64.870357 
4054.000000	64.885830 
4053.000000	64.904975 
4052.000000	64.926362 
4051.000000	64.949250 
4050.000000	64.973378 
4049.000000	64.999246 
4048.000000	65.027427 
4047.000000	65.058636 
4046.000000	65.093255 
4045.000000	65.130829 
4044.000000	65.169429 
4043.000000	65.206003 
4042.000000	65.237021 
4041.000000	65.258812 
4040.000000	65.268564 
4039.000000	65.264987 
4038.000000	65.248966 
4037.000000	65.223312 
4036.000000	65.192508 
4035.000000	65.161347 
4034.000000	65.134000 
4033.000000	65.113449 
4032.000000	65.100955 
4031.000000	65.095734 
4030.000000	65.095686 
4029.000000	65.098285 
4028.000000	65.101480 
4027.000000	65.103864 
4026.000000	65.105032 
4025.000000	65.105438 
4024.000000	65.105652 
4023.000000	65.105915 
4022.000000	65.105676 
4021.000000	65.103483 
4020.000000	65.097165 
4019.000000	65.084719 
4018.000000	65.064358 
4017.000000	65.035533 
4016.000000	64.998698 
4015.000000	64.955520 
4014.000000	64.908170 
4013.000000	64.858984 
4012.000000	64.810276 
4011.000000	64.764142 
4010.000000	64.722514 
4009.000000	64.687395 
4008.000000	64.661431 
4007.000000	64.647889 
4006.000000	64.649915 
4005.000000	64.670085 
4004.000000	64.709043 
4003.000000	64.765262 
4002.000000	64.834260 
4001.000000	64.909601 
4000.000000	64.983558 
3999.000000	65.048670 
3998.000000	65.099215 
3997.000000	65.132188 
3996.000000	65.147638 
3995.000000	65.148138 
3994.000000	65.138292 
3993.000000	65.122961 
3992.000000	65.106534 
3991.000000	65.091753 
3990.000000	65.080165 
3989.000000	65.071487 
3988.000000	65.064811 
3987.000000	65.058636 
3986.000000	65.051937 
3985.000000	65.043568 
3984.000000	65.032625 
3983.000000	65.018177 
3982.000000	64.999675 
3981.000000	64.977240 
3980.000000	64.951992 
3979.000000	64.926195 
3978.000000	64.903092 
3977.000000	64.886379 
3976.000000	64.879322 
3975.000000	64.883756 
3974.000000	64.899587 
3973.000000	64.924311 
3972.000000	64.953947 
3971.000000	64.983510 
3970.000000	65.008306 
3969.000000	65.025162 
3968.000000	65.033173 
3967.000000	65.033268 
3966.000000	65.028262 
3965.000000	65.021586 
3964.000000	65.016460 
3963.000000	65.015077 
3962.000000	65.018129 
3961.000000	65.025138 
3960.000000	65.034651 
3959.000000	65.045213 
3958.000000	65.054869 
3957.000000	65.061378 
3956.000000	65.062260 
3955.000000	65.055131 
3954.000000	65.037655 
3953.000000	65.008187 
3952.000000	64.966297 
3951.000000	64.913463 
3950.000000	64.853429 
3949.000000	64.792013 
3948.000000	64.736199 
3947.000000	64.693069 
3946.000000	64.668488 
3945.000000	64.665889 
3944.000000	64.685487 
3943.000000	64.724397 
3942.000000	64.776778 
3941.000000	64.835548 
3940.000000	64.893317 
3939.000000	64.944410 
3938.000000	64.984989 
3937.000000	65.014410 
3936.000000	65.034008 
3935.000000	65.047287 
3934.000000	65.058302 
3933.000000	65.071034 
3932.000000	65.088343 
3931.000000	65.111136 
3930.000000	65.138268 
3929.000000	65.166807 
3928.000000	65.192484 
3927.000000	65.210151 
3926.000000	65.214896 
3925.000000	65.202713 
3924.000000	65.171575 
3923.000000	65.121936 
3922.000000	65.057134 
3921.000000	64.982891 
3920.000000	64.907336 
3919.000000	64.839196 
3918.000000	64.787173 
3917.000000	64.758086 
3916.000000	64.756178 
3915.000000	64.782118 
3914.000000	64.832973 
3913.000000	64.902639 
3912.000000	64.982938 
3911.000000	65.065121 
3910.000000	65.140891 
3909.000000	65.203309 
3908.000000	65.248036 
3907.000000	65.273761 
3906.000000	65.281820 
3905.000000	65.275406 
3904.000000	65.259122 
3903.000000	65.237689 
3902.000000	65.215492 
3901.000000	65.195798 
3900.000000	65.180683 
3899.000000	65.170836 
3898.000000	65.165901 
3897.000000	65.164542 
3896.000000	65.164875 
3895.000000	65.164995 
3894.000000	65.163087 
3893.000000	65.158414 
3892.000000	65.150737 
3891.000000	65.140914 
3890.000000	65.130639 
3889.000000	65.121388 
3888.000000	65.113782 
3887.000000	65.107131 
3886.000000	65.099835 
3885.000000	65.089583 
3884.000000	65.073609 
3883.000000	65.050244 
3882.000000	65.019345 
3881.000000	64.982867 
3880.000000	64.944911 
3879.000000	64.910197 
3878.000000	64.883017 
3877.000000	64.865946 
3876.000000	64.859223 
3875.000000	64.860200 
3874.000000	64.864206 
3873.000000	64.866161 
3872.000000	64.861965 
3871.000000	64.849877 
3870.000000	64.831066 
3869.000000	64.808583 
3868.000000	64.786934 
3867.000000	64.770007 
3866.000000	64.761042 
3865.000000	64.761209 
3864.000000	64.770269 
3863.000000	64.787077 
3862.000000	64.810204 
3861.000000	64.838719 
3860.000000	64.872074 
3859.000000	64.910197 
3858.000000	64.952301 
3857.000000	64.996528 
3856.000000	65.039563 
3855.000000	65.076923 
3854.000000	65.103888 
3853.000000	65.116405 
3852.000000	65.112566 
3851.000000	65.093493 
3850.000000	65.062713 
3849.000000	65.025568 
3848.000000	64.988255 
3847.000000	64.956521 
3846.000000	64.934706 
3845.000000	64.925074 
3844.000000	64.928221 
3843.000000	64.942979 
3842.000000	64.967250 
3841.000000	64.998507 
3840.000000	65.033960 
3839.000000	65.070724 
3838.000000	65.106296 
3837.000000	65.138268 
3836.000000	65.164256 
3835.000000	65.182161 
3834.000000	65.190362 
3833.000000	65.188193 
3832.000000	65.176081 
3831.000000	65.155720 
3830.000000	65.130209 
3829.000000	65.103387 
3828.000000	65.079426 
3827.000000	65.062284 
3826.000000	65.054965 
3825.000000	65.058660 
3824.000000	65.072917 
3823.000000	65.095376 
3822.000000	65.122604 
3821.000000	65.150141 
3820.000000	65.173768 
3819.000000	65.189862 
3818.000000	65.196299 
3817.000000	65.192699 
3816.000000	65.180230 
3815.000000	65.160822 
3814.000000	65.136575 
3813.000000	65.109252 
3812.000000	65.079927 
3811.000000	65.048789 
3810.000000	65.015292 
3809.000000	64.979195 
3808.000000	64.940977 
3807.000000	64.902281 
3806.000000	64.866423 
3805.000000	64.837646 
3804.000000	64.820790 
3803.000000	64.820003 
3802.000000	64.837455 
3801.000000	64.872598 
3800.000000	64.921522 
3799.000000	64.977407 
3798.000000	65.031456 
3797.000000	65.074563 
3796.000000	65.099573 
3795.000000	65.102601 
3794.000000	65.084338 
3793.000000	65.049624 
3792.000000	65.006637 
3791.000000	64.965081 
3790.000000	64.934039 
3789.000000	64.919924 
3788.000000	64.925551 
3787.000000	64.949560 
3786.000000	64.987421 
3785.000000	65.032720 
3784.000000	65.078616 
3783.000000	65.119647 
3782.000000	65.152621 
3781.000000	65.177106 
3780.000000	65.194678 
3779.000000	65.208172 
3778.000000	65.220451 
3777.000000	65.233325 
3776.000000	65.247178 
3775.000000	65.260219 
3774.000000	65.270042 
3773.000000	65.273141 
3772.000000	65.266418 
3771.000000	65.247726 
3770.000000	65.216898 
3769.000000	65.175652 
3768.000000	65.127587 
3767.000000	65.077567 
3766.000000	65.030765 
3765.000000	64.991974 
3764.000000	64.964699 
3763.000000	64.950418 
3762.000000	64.949035 
3761.000000	64.959001 
3760.000000	64.978146 
3759.000000	65.004014 
3758.000000	65.034317 
3757.000000	65.066957 
3756.000000	65.100073 
3755.000000	65.131402 
3754.000000	65.158534 
3753.000000	65.178823 
3752.000000	65.189957 
3751.000000	65.190029 
3750.000000	65.178775 
3749.000000	65.157699 
3748.000000	65.130305 
3747.000000	65.101718 
3746.000000	65.077471 
3745.000000	65.062499 
3744.000000	65.060067 
3743.000000	65.071129 
3742.000000	65.094399 
3741.000000	65.126490 
3740.000000	65.162992 
3739.000000	65.199351 
3738.000000	65.231561 
3737.000000	65.256810 
3736.000000	65.273427 
3735.000000	65.280938 
3734.000000	65.279483 
3733.000000	65.269851 
3732.000000	65.253114 
3731.000000	65.230464 
3730.000000	65.203499 
3729.000000	65.173888 
3728.000000	65.143823 
3727.000000	65.115499 
3726.000000	65.091347 
3725.000000	65.073513 
3724.000000	65.063476 
3723.000000	65.062069 
3722.000000	65.069222 
3721.000000	65.084290 
3720.000000	65.105628 
3719.000000	65.131378 
3718.000000	65.159273 
3717.000000	65.187144 
3716.000000	65.212702 
3715.000000	65.233802 
3714.000000	65.248489 
3713.000000	65.255022 
3712.000000	65.252232 
3711.000000	65.239715 
3710.000000	65.218019 
3709.000000	65.188479 
3708.000000	65.153217 
3707.000000	65.115094 
3706.000000	65.077400 
3705.000000	65.043115 
3704.000000	65.014863 
3703.000000	64.994549 
3702.000000	64.983224 
3701.000000	64.981174 
3700.000000	64.987754 
3699.000000	65.001511 
3698.000000	65.020561 
3697.000000	65.042448 
3696.000000	65.064716 
3695.000000	65.084600 
3694.000000	65.100216 
3693.000000	65.110039 
3692.000000	65.113902 
3691.000000	65.112662 
3690.000000	65.107917 
3689.000000	65.101861 
3688.000000	65.096068 
3687.000000	65.091419 
3686.000000	65.087223 
3685.000000	65.081644 
3684.000000	65.072035 
3683.000000	65.055894 
3682.000000	65.031790 
3681.000000	65.000033 
3680.000000	64.962768 
3679.000000	64.923858 
3678.000000	64.887952 
3677.000000	64.859747 
3676.000000	64.842438 
3675.000000	64.837503 
3674.000000	64.844250 
3673.000000	64.860463 
3672.000000	64.882683 
3671.000000	64.907383 
3670.000000	64.931654 
3669.000000	64.953613 
3668.000000	64.972043 
3667.000000	64.986586 
3666.000000	64.997005 
3665.000000	65.003204 
3664.000000	65.004944 
3663.000000	65.001964 
3662.000000	64.994144 
3661.000000	64.981770 
3660.000000	64.965844 
3659.000000	64.947795 
3658.000000	64.929437 
3657.000000	64.912939 
3656.000000	64.900732 
3655.000000	64.894795 
3654.000000	64.896726 
3653.000000	64.907479 
3652.000000	64.927434 
3651.000000	64.956021 
3650.000000	64.992046 
3649.000000	65.033292 
3648.000000	65.077471 
3647.000000	65.121698 
3646.000000	65.163826 
3645.000000	65.201854 
3644.000000	65.234947 
3643.000000	65.263295 
3642.000000	65.287852 
3641.000000	65.309834 
3640.000000	65.329909 
3639.000000	65.348339 
3638.000000	65.363836 
3637.000000	65.374326 
3636.000000	65.376758 
3635.000000	65.368199 
3634.000000	65.346145 
3633.000000	65.309357 
3632.000000	65.258264 
3631.000000	65.195202 
3630.000000	65.124201 
3629.000000	65.050196 
3628.000000	64.978623 
3627.000000	64.914393 
3626.000000	64.861130 
3625.000000	64.821100 
3624.000000	64.794778 
3623.000000	64.781546 
3622.000000	64.779806 
3621.000000	64.788007 
3620.000000	64.803910 
3619.000000	64.826345 
3618.000000	64.854216 
3617.000000	64.887142 
3616.000000	64.923954 
3615.000000	64.963459 
3614.000000	65.003943 
3613.000000	65.043163 
3612.000000	65.078496 
3611.000000	65.107417 
3610.000000	65.128207 
3609.000000	65.139794 
3608.000000	65.142250 
3607.000000	65.136313 
3606.000000	65.123486 
3605.000000	65.105652 
3604.000000	65.084671 
3603.000000	65.062475 
3602.000000	65.040922 
3601.000000	65.022158 
3600.000000	65.008378 
3599.000000	65.001535 
3598.000000	65.002918 
3597.000000	65.013360 
3596.000000	65.032386 
3595.000000	65.057635 
3594.000000	65.085434 
3593.000000	65.111374 
3592.000000	65.131020 
3591.000000	65.140938 
3590.000000	65.139198 
3589.000000	65.126132 
3588.000000	65.103816 
3587.000000	65.075874 
3586.000000	65.046095 
3585.000000	65.017652 
3584.000000	64.992427 
3583.000000	64.971017 
3582.000000	64.952635 
3581.000000	64.935970 
3580.000000	64.919853 
3579.000000	64.903950 
3578.000000	64.888858 
3577.000000	64.876008 
3576.000000	64.867162 
3575.000000	64.863896 
3574.000000	64.866924 
3573.000000	64.875864 
3572.000000	64.889526 
3571.000000	64.906311 
3570.000000	64.924764 
3569.000000	64.944028 
3568.000000	64.963936 
3567.000000	64.984869 
3566.000000	65.007257 
3565.000000	65.030980 
3564.000000	65.055227 
3563.000000	65.077972 
3562.000000	65.096521 
3561.000000	65.107893 
3560.000000	65.109610 
3559.000000	65.100407 
3558.000000	65.080833 
3557.000000	65.053129 
3556.000000	65.020918 
3555.000000	64.988493 
3554.000000	64.960074 
3553.000000	64.938640 
3552.000000	64.925789 
3551.000000	64.921379 
3550.000000	64.923739 
3549.000000	64.930605 
3548.000000	64.939498 
3547.000000	64.948487 
3546.000000	64.956569 
3545.000000	64.963483 
3544.000000	64.969801 
3543.000000	64.976143 
3542.000000	64.983057 
3541.000000	64.990043 
3540.000000	64.996242 
3539.000000	65.000319 
3538.000000	65.001106 
3537.000000	64.998316 
3536.000000	64.992713 
3535.000000	64.986133 
3534.000000	64.981222 
3533.000000	64.980626 
3532.000000	64.985990 
3531.000000	64.997744 
3530.000000	65.014290 
3529.000000	65.032434 
3528.000000	65.047907 
3527.000000	65.056395 
3526.000000	65.054464 
3525.000000	65.040159 
3524.000000	65.013647 
3523.000000	64.977359 
3522.000000	64.935088 
3521.000000	64.891600 
3520.000000	64.851832 
3519.000000	64.820122 
3518.000000	64.799737 
3517.000000	64.792585 
3516.000000	64.799070 
3515.000000	64.818143 
3514.000000	64.847612 
3513.000000	64.884591 
3512.000000	64.925289 
3511.000000	64.965987 
3510.000000	65.003132 
3509.000000	65.034341 
3508.000000	65.058064 
3507.000000	65.074372 
3506.000000	65.084409 
3505.000000	65.090203 
3504.000000	65.094089 
3503.000000	65.097784 
3502.000000	65.102195 
3501.000000	65.107011 
3500.000000	65.111136 
3499.000000	65.113115 
3498.000000	65.112090 
3497.000000	65.108227 
3496.000000	65.102910 
3495.000000	65.098643 
3494.000000	65.098142 
3493.000000	65.103697 
3492.000000	65.116071 
3491.000000	65.134024 
3490.000000	65.154409 
3489.000000	65.172910 
3488.000000	65.184974 
3487.000000	65.187025 
3486.000000	65.177345 
3485.000000	65.156722 
3484.000000	65.128064 
3483.000000	65.095996 
3482.000000	65.065574 
3481.000000	65.040802 
3480.000000	65.024137 
3479.000000	65.016245 
3478.000000	65.015864 
3477.000000	65.020298 
3476.000000	65.026402 
3475.000000	65.031576 
3474.000000	65.034079 
3473.000000	65.033245 
3472.000000	65.029382 
3471.000000	65.023469 
3470.000000	65.016746 
3469.000000	65.010046 
3468.000000	65.003991 
3467.000000	64.998745 
3466.000000	64.994359 
3465.000000	64.990830 
3464.000000	64.988374 
3463.000000	64.987134 
3462.000000	64.987230 
3461.000000	64.988374 
3460.000000	64.989757 
3459.000000	64.990043 
3458.000000	64.987516 
3457.000000	64.980387 
3456.000000	64.967250 
3455.000000	64.947509 
3454.000000	64.921545 
3453.000000	64.891099 
3452.000000	64.858794 
3451.000000	64.827990 
3450.000000	64.802169 
3449.000000	64.784097 
3448.000000	64.775109 
3447.000000	64.775228 
3446.000000	64.783024 
3445.000000	64.796066 
3444.000000	64.811491 
3443.000000	64.826679 
3442.000000	64.839673 
3441.000000	64.849424 
3440.000000	64.855742 
3439.000000	64.859199 
3438.000000	64.860844 
3437.000000	64.861774 
3436.000000	64.862966 
3435.000000	64.865183 
3434.000000	64.868545 
3433.000000	64.872980 
3432.000000	64.877867 
3431.000000	64.882373 
3430.000000	64.885711 
3429.000000	64.886784 
3428.000000	64.885187 
3427.000000	64.880847 
3426.000000	64.874792 
3425.000000	64.868783 
3424.000000	64.865541 
3423.000000	64.868044 
3422.000000	64.878940 
3421.000000	64.899897 
3420.000000	64.931154 
3419.000000	64.971232 
3418.000000	65.017271 
3417.000000	65.065503 
3416.000000	65.112185 
3415.000000	65.153956 
3414.000000	65.188574 
3413.000000	65.214633 
3412.000000	65.231752 
3411.000000	65.240120 
3410.000000	65.240454 
3409.000000	65.233516 
3408.000000	65.220451 
3407.000000	65.202307 
3406.000000	65.180540 
3405.000000	65.156745 
3404.000000	65.133070 
3403.000000	65.111374 
3402.000000	65.093588 
3401.000000	65.080809 
3400.000000	65.073227 
3399.000000	65.070056 
3398.000000	65.069818 
3397.000000	65.070557 
3396.000000	65.070199 
3395.000000	65.067172 
3394.000000	65.060472 
3393.000000	65.050125 
3392.000000	65.036940 
3391.000000	65.022659 
3390.000000	65.009522 
3389.000000	64.999747 
3388.000000	64.994955 
3387.000000	64.995932 
3386.000000	65.002226 
3385.000000	65.012288 
3384.000000	65.023708 
3383.000000	65.034103 
3382.000000	65.041589 
3381.000000	65.045237 
3380.000000	65.045237 
3379.000000	65.042471 
3378.000000	65.038156 
3377.000000	65.033388 
3376.000000	65.028548 
3375.000000	65.022730 
3374.000000	65.014553 
3373.000000	65.002417 
3372.000000	64.985585 
3371.000000	64.964437 
3370.000000	64.940905 
3369.000000	64.918327 
3368.000000	64.900279 
3367.000000	64.889836 
3366.000000	64.888381 
3365.000000	64.895033 
3364.000000	64.906978 
3363.000000	64.920258 
3362.000000	64.930725 
3361.000000	64.935421 
3360.000000	64.933419 
3359.000000	64.926290 
3358.000000	64.917445 
3357.000000	64.911270 
3356.000000	64.911675 
3355.000000	64.921355 
3354.000000	64.940690 
3353.000000	64.968132 
3352.000000	65.000772 
3351.000000	65.035223 
3350.000000	65.068864 
3349.000000	65.099835 
3348.000000	65.127444 
3347.000000	65.151739 
3346.000000	65.173149 
3345.000000	65.191459 
3344.000000	65.205788 
3343.000000	65.214347 
3342.000000	65.215420 
3341.000000	65.207314 
3340.000000	65.189123 
3339.000000	65.160942 
3338.000000	65.124297 
3337.000000	65.081310 
3336.000000	65.034604 
3335.000000	64.986753 
3334.000000	64.940094 
3333.000000	64.896392 
3332.000000	64.856934 
3331.000000	64.822602 
3330.000000	64.794397 
3329.000000	64.772891 
3328.000000	64.758658 
3327.000000	64.751529 
3326.000000	64.751267 
3325.000000	64.757037 
3324.000000	64.768362 
3323.000000	64.784312 
3322.000000	64.804244 
3321.000000	64.827799 
3320.000000	64.854693 
3319.000000	64.884114 
3318.000000	64.914870 
3317.000000	64.945507 
3316.000000	64.974021 
3315.000000	64.997935 
3314.000000	65.014791 
3313.000000	65.022754 
3312.000000	65.020942 
3311.000000	65.009903 
3310.000000	64.991760 
3309.000000	64.970135 
3308.000000	64.949536 
3307.000000	64.934468 
3306.000000	64.928627 
3305.000000	64.933872 
3304.000000	64.950037 
3303.000000	64.974999 
3302.000000	65.004920 
3301.000000	65.035104 
3300.000000	65.061140 
3299.000000	65.079760 
3298.000000	65.089249 
3297.000000	65.089344 
3296.000000	65.081596 
3295.000000	65.068078 
3294.000000	65.051078 
3293.000000	65.032267 
3292.000000	65.012764 
3291.000000	64.992856 
3290.000000	64.972519 
3289.000000	64.951634 
3288.000000	64.930582 
3287.000000	64.910054 
3286.000000	64.891076 
3285.000000	64.874815 
3284.000000	64.861989 
3283.000000	64.852905 
3282.000000	64.847230 
3281.000000	64.844107 
3280.000000	64.842343 
3279.000000	64.840912 
3278.000000	64.839148 
3277.000000	64.836907 
3276.000000	64.834618 
3275.000000	64.833259 
3274.000000	64.833998 
3273.000000	64.837789 
3272.000000	64.845275 
3271.000000	64.856505 
3270.000000	64.870905 
3269.000000	64.887189 
3268.000000	64.903569 
3267.000000	64.918255 
3266.000000	64.929652 
3265.000000	64.936757 
3264.000000	64.939522 
3263.000000	64.938831 
3262.000000	64.936780 
3261.000000	64.935970 
3260.000000	64.939117 
3259.000000	64.948248 
3258.000000	64.964127 
3257.000000	64.986157 
3256.000000	65.012264 
3255.000000	65.039300 
3254.000000	65.063762 
3253.000000	65.082621 
3252.000000	65.093660 
3251.000000	65.096020 
3250.000000	65.090322 
3249.000000	65.078115 
3248.000000	65.061473 
3247.000000	65.042495 
3246.000000	65.022921 
3245.000000	65.003919 
3244.000000	64.986133 
3243.000000	64.969873 
3242.000000	64.955496 
3241.000000	64.943337 
3240.000000	64.934134 
3239.000000	64.928460 
3238.000000	64.926576 
3237.000000	64.928078 
3236.000000	64.931964 
3235.000000	64.936470 
3234.000000	64.939451 
3233.000000	64.938664 
3232.000000	64.932489 
3231.000000	64.920210 
3230.000000	64.902138 
3229.000000	64.879703 
3228.000000	64.855146 
3227.000000	64.830970 
3226.000000	64.809703 
3225.000000	64.793372 
3224.000000	64.783453 
3223.000000	64.780545 
3222.000000	64.784455 
3221.000000	64.794397 
3220.000000	64.809012 
3219.000000	64.826369 
3218.000000	64.844274 
3217.000000	64.860272 
3216.000000	64.871954 
3215.000000	64.877390 
3214.000000	64.875411 
3213.000000	64.865899 
3212.000000	64.849781 
3211.000000	64.829206 
3210.000000	64.806938 
3209.000000	64.785814 
3208.000000	64.768290 
3207.000000	64.755868 
3206.000000	64.749360 
3205.000000	64.748620 
3204.000000	64.753103 
3203.000000	64.762043 
3202.000000	64.774870 
3201.000000	64.791178 
3200.000000	64.810729 
3199.000000	64.833068 
3198.000000	64.857459 
3197.000000	64.882683 
3196.000000	64.907145 
3195.000000	64.928936 
3194.000000	64.946293 
3193.000000	64.957737 
3192.000000	64.962649 
3191.000000	64.961099 
3190.000000	64.953947 
3189.000000	64.942407 
3188.000000	64.928054 
3187.000000	64.912271 
3186.000000	64.896583 
3185.000000	64.882159 
3184.000000	64.869976 
3183.000000	64.860796 
3182.000000	64.854979 
3181.000000	64.852738 
3180.000000	64.853715 
3179.000000	64.857435 
3178.000000	64.862990 
3177.000000	64.869570 
3176.000000	64.876294 
3175.000000	64.882755 
3174.000000	64.888787 
3173.000000	64.894533 
3172.000000	64.900255 
3171.000000	64.906144 
3170.000000	64.912104 
3169.000000	64.917755 
3168.000000	64.922404 
3167.000000	64.925241 
3166.000000	64.925694 
3165.000000	64.923453 
3164.000000	64.918565 
3163.000000	64.911508 
3162.000000	64.902901 
3161.000000	64.893126 
3160.000000	64.882397 
3159.000000	64.870810 
3158.000000	64.858603 
3157.000000	64.846086 
3156.000000	64.833974 
3155.000000	64.823174 
3154.000000	64.814782 
3153.000000	64.809942 
3152.000000	64.809274 
3151.000000	64.812803 
3150.000000	64.819836 
3149.000000	64.828920 
3148.000000	64.838337 
3147.000000	64.846301 
3146.000000	64.851784 
3145.000000	64.854669 
3144.000000	64.856052 
3143.000000	64.857983 
3142.000000	64.862871 
3141.000000	64.872598 
3140.000000	64.887905 
3139.000000	64.907503 
3138.000000	64.928269 
3137.000000	64.945459 
3136.000000	64.954042 
3135.000000	64.949727 
3134.000000	64.930105 
3133.000000	64.895558 
3132.000000	64.849185 
3131.000000	64.796495 
3130.000000	64.744234 
3129.000000	64.699053 
3128.000000	64.666008 
3127.000000	64.647936 
3126.000000	64.644956 
3125.000000	64.654970 
3124.000000	64.674329 
3123.000000	64.699053 
3122.000000	64.725708 
3121.000000	64.752030 
3120.000000	64.776873 
3119.000000	64.800143 
3118.000000	64.821982 
3117.000000	64.842295 
3116.000000	64.860296 
3115.000000	64.874601 
3114.000000	64.883136 
3113.000000	64.884018 
3112.000000	64.875793 
3111.000000	64.858269 
3110.000000	64.832520 
3109.000000	64.801025 
3108.000000	64.767289 
3107.000000	64.735031 
3106.000000	64.707875 
3105.000000	64.688682 
3104.000000	64.679169 
3103.000000	64.679718 
3102.000000	64.689683 
3101.000000	64.707469 
3100.000000	64.731216 
3099.000000	64.758706 
3098.000000	64.788031 
3097.000000	64.817380 
3096.000000	64.845418 
3095.000000	64.871048 
3094.000000	64.893555 
3093.000000	64.912295 
3092.000000	64.926934 
3091.000000	64.937329 
3090.000000	64.943742 
3089.000000	64.946794 
3088.000000	64.947414 
3087.000000	64.946627 
3086.000000	64.945197 
3085.000000	64.943337 
3084.000000	64.940929 
3083.000000	64.937305 
3082.000000	64.931726 
3081.000000	64.923262 
3080.000000	64.911603 
3079.000000	64.896678 
3078.000000	64.878869 
3077.000000	64.858913 
3076.000000	64.837789 
3075.000000	64.816570 
3074.000000	64.796113 
3073.000000	64.777207 
3072.000000	64.760351 
3071.000000	64.746165 
3070.000000	64.735102 
3069.000000	64.727640 
3068.000000	64.723992 
3067.000000	64.724302 
3066.000000	64.728689 
3065.000000	64.737176 
3064.000000	64.749479 
3063.000000	64.765453 
3062.000000	64.784979 
3061.000000	64.807939 
3060.000000	64.833760 
3059.000000	64.861249 
3058.000000	64.888787 
3057.000000	64.913988 
3056.000000	64.934587 
3055.000000	64.948844 
3054.000000	64.955973 
3053.000000	64.956831 
3052.000000	64.953446 
3051.000000	64.948916 
3050.000000	64.946341 
3049.000000	64.948225 
3048.000000	64.955496 
3047.000000	64.967203 
3046.000000	64.980792 
3045.000000	64.992856 
3044.000000	64.999842 
3043.000000	64.999318 
3042.000000	64.990520 
3041.000000	64.974641 
3040.000000	64.954185 
3039.000000	64.932322 
3038.000000	64.912033 
3037.000000	64.895319 
3036.000000	64.882993 
3035.000000	64.874720 
3034.000000	64.869570 
3033.000000	64.866590 
3032.000000	64.865136 
3031.000000	64.865136 
3030.000000	64.866685 
3029.000000	64.870023 
3028.000000	64.875149 
3027.000000	64.881491 
3026.000000	64.887642 
3025.000000	64.892077 
3024.000000	64.893102 
3023.000000	64.889836 
3022.000000	64.882111 
3021.000000	64.870858 
3020.000000	64.857935 
3019.000000	64.845585 
3018.000000	64.835882 
3017.000000	64.830183 
3016.000000	64.828872 
3015.000000	64.831233 
3014.000000	64.835906 
3013.000000	64.841198 
3012.000000	64.845681 
3011.000000	64.848470 
3010.000000	64.849472 
3009.000000	64.849233 
3008.000000	64.848756 
3007.000000	64.848875 
3006.000000	64.850187 
3005.000000	64.852690 
3004.000000	64.855885 
3003.000000	64.859008 
3002.000000	64.861369 
3001.000000	64.862585 
3000.000000	64.862871 
2999.000000	64.862895 
2998.000000	64.863181 
2997.000000	64.864301 
2996.000000	64.866065 
2995.000000	64.867639 
2994.000000	64.867663 
2993.000000	64.864492 
2992.000000	64.856791 
2991.000000	64.844059 
2990.000000	64.826869 
2989.000000	64.806866 
2988.000000	64.786458 
2987.000000	64.768409 
2986.000000	64.755082 
2985.000000	64.747691 
2984.000000	64.746141 
2983.000000	64.748978 
2982.000000	64.753556 
2981.000000	64.756608 
2980.000000	64.754986 
2979.000000	64.746332 
2978.000000	64.729571 
2977.000000	64.705181 
2976.000000	64.674830 
2975.000000	64.641427 
2974.000000	64.608120 
2973.000000	64.578223 
2972.000000	64.554357 
2971.000000	64.538431 
2970.000000	64.531159 
2969.000000	64.532470 
2968.000000	64.541482 
2967.000000	64.556670 
2966.000000	64.576196 
2965.000000	64.598011 
2964.000000	64.620089 
2963.000000	64.640569 
2962.000000	64.657807 
2961.000000	64.670777 
2960.000000	64.679098 
2959.000000	64.683079 
2958.000000	64.683675 
2957.000000	64.682412 
2956.000000	64.681172 
2955.000000	64.681673 
2954.000000	64.685106 
2953.000000	64.691734 
2952.000000	64.701032 
2951.000000	64.711785 
2950.000000	64.722442 
2949.000000	64.731431 
2948.000000	64.737725 
2947.000000	64.741015 
2946.000000	64.741897 
2945.000000	64.741754 
2944.000000	64.742302 
2943.000000	64.745259 
2942.000000	64.751815 
2941.000000	64.762401 
2940.000000	64.776539 
2939.000000	64.792704 
2938.000000	64.808988 
2937.000000	64.823412 
2936.000000	64.834690 
2935.000000	64.842534 
2934.000000	64.847612 
2933.000000	64.851355 
2932.000000	64.855360 
2931.000000	64.860916 
2930.000000	64.868164 
2929.000000	64.876031 
2928.000000	64.882516 
2927.000000	64.885187 
2926.000000	64.881992 
2925.000000	64.871740 
2924.000000	64.854526 
2923.000000	64.831805 
2922.000000	64.805912 
2921.000000	64.779543 
2920.000000	64.755129 
2919.000000	64.734387 
2918.000000	64.717817 
2917.000000	64.705038 
2916.000000	64.695072 
2915.000000	64.687085 
2914.000000	64.680314 
2913.000000	64.674878 
2912.000000	64.671611 
2911.000000	64.671659 
2910.000000	64.675998 
2909.000000	64.684963 
2908.000000	64.697813 
2907.000000	64.712667 
2906.000000	64.726805 
2905.000000	64.737248 
2904.000000	64.741563 
2903.000000	64.738392 
2902.000000	64.727807 
2901.000000	64.711308 
2900.000000	64.691567 
2899.000000	64.671850 
2898.000000	64.655280 
2897.000000	64.644336 
2896.000000	64.640307 
2895.000000	64.643478 
2894.000000	64.652848 
2893.000000	64.666676 
2892.000000	64.682531 
2891.000000	64.698147 
2890.000000	64.711403 
2889.000000	64.720702 
2888.000000	64.725208 
2887.000000	64.724922 
2886.000000	64.720511 
2885.000000	64.713144 
2884.000000	64.704298 
2883.000000	64.695429 
2882.000000	64.687490 
2881.000000	64.680957 
2880.000000	64.675402 
2879.000000	64.670062 
2878.000000	64.663696 
2877.000000	64.655280 
2876.000000	64.644265 
2875.000000	64.630866 
2874.000000	64.616274 
2873.000000	64.602470 
2872.000000	64.591789 
2871.000000	64.586377 
2870.000000	64.587974 
2869.000000	64.597105 
2868.000000	64.613342 
2867.000000	64.634990 
2866.000000	64.659380 
2865.000000	64.683341 
2864.000000	64.703822 
2863.000000	64.718127 
2862.000000	64.724564 
2861.000000	64.722347 
2860.000000	64.711999 
2859.000000	64.694976 
2858.000000	64.673495 
2857.000000	64.650297 
2856.000000	64.628219 
2855.000000	64.609694 
2854.000000	64.596533 
2853.000000	64.589619 
2852.000000	64.588999 
2851.000000	64.593768 
2850.000000	64.602375 
2849.000000	64.612865 
2848.000000	64.623308 
2847.000000	64.632272 
2846.000000	64.638996 
2845.000000	64.643383 
2844.000000	64.646148 
2843.000000	64.648509 
2842.000000	64.651989 
2841.000000	64.657902 
2840.000000	64.667129 
2839.000000	64.680075 
2838.000000	64.696216 
2837.000000	64.714717 
2836.000000	64.733982 
2835.000000	64.752483 
2834.000000	64.768838 
2833.000000	64.781999 
2832.000000	64.791417 
2831.000000	64.797377 
2830.000000	64.800620 
2829.000000	64.802455 
2828.000000	64.804029 
2827.000000	64.806270 
2826.000000	64.809322 
2825.000000	64.812779 
2824.000000	64.815258 
2823.000000	64.814758 
2822.000000	64.809083 
2821.000000	64.796662 
2820.000000	64.776635 
2819.000000	64.749479 
2818.000000	64.716887 
2817.000000	64.681816 
2816.000000	64.647817 
2815.000000	64.618468 
2814.000000	64.596629 
2813.000000	64.583921 
2812.000000	64.580488 
2811.000000	64.585161 
2810.000000	64.595556 
2809.000000	64.608860 
2808.000000	64.622235 
2807.000000	64.633679 
2806.000000	64.641737 
2805.000000	64.646434 
2804.000000	64.648556 
2803.000000	64.649724 
2802.000000	64.651513 
2801.000000	64.655470 
2800.000000	64.662480 
2799.000000	64.672756 
2798.000000	64.685845 
2797.000000	64.700651 
2796.000000	64.715671 
2795.000000	64.729356 
2794.000000	64.740562 
2793.000000	64.748477 
2792.000000	64.752817 
2791.000000	64.753842 
2790.000000	64.752459 
2789.000000	64.749956 
2788.000000	64.747810 
2787.000000	64.747524 
2786.000000	64.750218 
2785.000000	64.756727 
2784.000000	64.767026 
2783.000000	64.780473 
2782.000000	64.795684 
2781.000000	64.810752 
2780.000000	64.823412 
2779.000000	64.831614 
2778.000000	64.833807 
2777.000000	64.829349 
2776.000000	64.818739 
2775.000000	64.803433 
2774.000000	64.786052 
2773.000000	64.769649 
2772.000000	64.757418 
2771.000000	64.751863 
2770.000000	64.754652 
2769.000000	64.766144 
2768.000000	64.785194 
2767.000000	64.809536 
2766.000000	64.836001 
2765.000000	64.861130 
2764.000000	64.881658 
2763.000000	64.894986 
2762.000000	64.899396 
2761.000000	64.894318 
2760.000000	64.880204 
2759.000000	64.858460 
2758.000000	64.831137 
2757.000000	64.800477 
2756.000000	64.769005 
2755.000000	64.738869 
2754.000000	64.711880 
2753.000000	64.689350 
2752.000000	64.672064 
2751.000000	64.660310 
2750.000000	64.653968 
2749.000000	64.652729 
2748.000000	64.655876 
2747.000000	64.662694 
2746.000000	64.672255 
2745.000000	64.683651 
2744.000000	64.695763 
2743.000000	64.707493 
2742.000000	64.717888 
2741.000000	64.726138 
2740.000000	64.731836 
2739.000000	64.735221 
2738.000000	64.736866 
2737.000000	64.737844 
2736.000000	64.739251 
2735.000000	64.741826 
2734.000000	64.745712 
2733.000000	64.750432 
2732.000000	64.754843 
2731.000000	64.757657 
2730.000000	64.757752 
2729.000000	64.754724 
2728.000000	64.748787 
2727.000000	64.741015 
2726.000000	64.732766 
2725.000000	64.725589 
2724.000000	64.720630 
2723.000000	64.718365 
2722.000000	64.718365 
2721.000000	64.719676 
2720.000000	64.721035 
2719.000000	64.721202 
2718.000000	64.719390 
2717.000000	64.715242 
2716.000000	64.709043 
2715.000000	64.701461 
2714.000000	64.693284 
2713.000000	64.685249 
2712.000000	64.678120 
2711.000000	64.672493 
2710.000000	64.669013 
2709.000000	64.668035 
2708.000000	64.669919 
2707.000000	64.674496 
2706.000000	64.681410 
2705.000000	64.689803 
2704.000000	64.698696 
2703.000000	64.706945 
2702.000000	64.713597 
2701.000000	64.717960 
2700.000000	64.719653 
2699.000000	64.718389 
2698.000000	64.714336 
2697.000000	64.707493 
2696.000000	64.697861 
2695.000000	64.685392 
2694.000000	64.670157 
2693.000000	64.652490 
2692.000000	64.633131 
2691.000000	64.613342 
2690.000000	64.594864 
2689.000000	64.579510 
2688.000000	64.569091 
2687.000000	64.564728 
2686.000000	64.566779 
2685.000000	64.574694 
2684.000000	64.587378 
2683.000000	64.603209 
2682.000000	64.620423 
2681.000000	64.637136 
2680.000000	64.651942 
2679.000000	64.663648 
2678.000000	64.671730 
2677.000000	64.675998 
2676.000000	64.676690 
2675.000000	64.674377 
2674.000000	64.669871 
2673.000000	64.664173 
2672.000000	64.658117 
2671.000000	64.652562 
2670.000000	64.648032 
2669.000000	64.644885 
2668.000000	64.643216 
2667.000000	64.642834 
2666.000000	64.643311 
2665.000000	64.644026 
2664.000000	64.644002 
2663.000000	64.642429 
2662.000000	64.638519 
2661.000000	64.631628 
2660.000000	64.621710 
2659.000000	64.609408 
2658.000000	64.596152 
2657.000000	64.584255 
2656.000000	64.576482 
2655.000000	64.575672 
2654.000000	64.584016 
2653.000000	64.602470 
2652.000000	64.630413 
2651.000000	64.665460 
2650.000000	64.703941 
2649.000000	64.741396 
2648.000000	64.773344 
2647.000000	64.796185 
2646.000000	64.807701 
2645.000000	64.807391 
2644.000000	64.796447 
2643.000000	64.777374 
2642.000000	64.753437 
2641.000000	64.728236 
2640.000000	64.704871 
2639.000000	64.685797 
2638.000000	64.672589 
2637.000000	64.665794 
2636.000000	64.665198 
2635.000000	64.669847 
2634.000000	64.678335 
2633.000000	64.688777 
2632.000000	64.699244 
2631.000000	64.707970 
2630.000000	64.713573 
2629.000000	64.715266 
2628.000000	64.712882 
2627.000000	64.706826 
2626.000000	64.697909 
2625.000000	64.687466 
2624.000000	64.676809 
2623.000000	64.667463 
2622.000000	64.660406 
2621.000000	64.656472 
2620.000000	64.655852 
2619.000000	64.658284 
2618.000000	64.662814 
2617.000000	64.667940 
2616.000000	64.671993 
2615.000000	64.673328 
2614.000000	64.670801 
2613.000000	64.663934 
2612.000000	64.653253 
2611.000000	64.640140 
2610.000000	64.626622 
2609.000000	64.614939 
2608.000000	64.607048 
2607.000000	64.603996 
2606.000000	64.605784 
2605.000000	64.611411 
2604.000000	64.619231 
2603.000000	64.627647 
2602.000000	64.635443 
2601.000000	64.642333 
2600.000000	64.649176 
2599.000000	64.657568 
2598.000000	64.669251 
2597.000000	64.685273 
2596.000000	64.705610 
2595.000000	64.728617 
2594.000000	64.751577 
2593.000000	64.770793 
2592.000000	64.783024 
2591.000000	64.785957 
2590.000000	64.779162 
2589.000000	64.764142 
2588.000000	64.743900 
2587.000000	64.722204 
2586.000000	64.702844 
2585.000000	64.688539 
2584.000000	64.680624 
2583.000000	64.678812 
2582.000000	64.681553 
2581.000000	64.686417 
2580.000000	64.690828 
2579.000000	64.692544 
2578.000000	64.690184 
2577.000000	64.683103 
2576.000000	64.671492 
2575.000000	64.655971 
2574.000000	64.637637 
2573.000000	64.617705 
2572.000000	64.597415 
2571.000000	64.578247 
2570.000000	64.561557 
2569.000000	64.548563 
2568.000000	64.540290 
2567.000000	64.537167 
2566.000000	64.538979 
2565.000000	64.544916 
2564.000000	64.553594 
2563.000000	64.563155 
2562.000000	64.571833 
2561.000000	64.578151 
2560.000000	64.581155 
2559.000000	64.580702 
2558.000000	64.577341 
2557.000000	64.572095 
2556.000000	64.566421 
2555.000000	64.561748 
2554.000000	64.559268 
2553.000000	64.559721 
2552.000000	64.563226 
2551.000000	64.569592 
2550.000000	64.578151 
2549.000000	64.587998 
2548.000000	64.597988 
2547.000000	64.607191 
2546.000000	64.614892 
2545.000000	64.620494 
2544.000000	64.623904 
2543.000000	64.625263 
2542.000000	64.624714 
2541.000000	64.622378 
2540.000000	64.618515 
2539.000000	64.613223 
2538.000000	64.606666 
2537.000000	64.598941 
2536.000000	64.590477 
2535.000000	64.581680 
2534.000000	64.573001 
2533.000000	64.564967 
2532.000000	64.557933 
2531.000000	64.552211 
2530.000000	64.548015 
2529.000000	64.545536 
2528.000000	64.544820 
2527.000000	64.545893 
2526.000000	64.548635 
2525.000000	64.552783 
2524.000000	64.558029 
2523.000000	64.563846 
2522.000000	64.569568 
2521.000000	64.574456 
2520.000000	64.577913 
2519.000000	64.579725 
2518.000000	64.579796 
2517.000000	64.578604 
2516.000000	64.576697 
2515.000000	64.574837 
2514.000000	64.573550 
2513.000000	64.573073 
2512.000000	64.572978 
2511.000000	64.572811 
2510.000000	64.571690 
2509.000000	64.568901 
2508.000000	64.564085 
2507.000000	64.557266 
2506.000000	64.549064 
2505.000000	64.540505 
2504.000000	64.533138 
2503.000000	64.528465 
2502.000000	64.527797 
2501.000000	64.531922 
2500.000000	64.540743 
2499.000000	64.553403 
2498.000000	64.568209 
2497.000000	64.583015 
2496.000000	64.595818 
2495.000000	64.604949 
2494.000000	64.609599 
2493.000000	64.609789 
2492.000000	64.606332 
2491.000000	64.600419 
2490.000000	64.593553 
2489.000000	64.586830 
2488.000000	64.580750 
2487.000000	64.575195 
2486.000000	64.569783 
2485.000000	64.563965 
2484.000000	64.557409 
2483.000000	64.550304 
2482.000000	64.543271 
2481.000000	64.537310 
2480.000000	64.533376 
2479.000000	64.532160 
2478.000000	64.533591 
2477.000000	64.537119 
2476.000000	64.541935 
2475.000000	64.547133 
2474.000000	64.552044 
2473.000000	64.556217 
2472.000000	64.559721 
2471.000000	64.562797 
2470.000000	64.565634 
2469.000000	64.568114 
2468.000000	64.570093 
2467.000000	64.571070 
2466.000000	64.570903 
2465.000000	64.569807 
2464.000000	64.568805 
2463.000000	64.569449 
2462.000000	64.573597 
2461.000000	64.582824 
2460.000000	64.597797 
2459.000000	64.618110 
2458.000000	64.642024 
2457.000000	64.666748 
2456.000000	64.688920 
2455.000000	64.705491 
2454.000000	64.714002 
2453.000000	64.713096 
2452.000000	64.702677 
2451.000000	64.683771 
2450.000000	64.658188 
2449.000000	64.628314 
2448.000000	64.596438 
2447.000000	64.564776 
2446.000000	64.535093 
2445.000000	64.508676 
2444.000000	64.486265 
2443.000000	64.468121 
2442.000000	64.454102 
2441.000000	64.444041 
2440.000000	64.437532 
2439.000000	64.434361 
2438.000000	64.434623 
2437.000000	64.438796 
2436.000000	64.447569 
2435.000000	64.461588 
2434.000000	64.481210 
2433.000000	64.505863 
2432.000000	64.534091 
2431.000000	64.563393 
2430.000000	64.590573 
2429.000000	64.612269 
2428.000000	64.625620 
2427.000000	64.628744 
2426.000000	64.621210 
2425.000000	64.604067 
2424.000000	64.579892 
2423.000000	64.551830 
2422.000000	64.523386 
2421.000000	64.497447 
2420.000000	64.475989 
2419.000000	64.459681 
2418.000000	64.447999 
2417.000000	64.439487 
2416.000000	64.432549 
2415.000000	64.425659 
2414.000000	64.417767 
2413.000000	64.408612 
2412.000000	64.398741 
2411.000000	64.389038 
2410.000000	64.380598 
2409.000000	64.374136 
2408.000000	64.369988 
2407.000000	64.367890 
2406.000000	64.367151 
2405.000000	64.366722 
2404.000000	64.365911 
2403.000000	64.364385 
2402.000000	64.362525 
2401.000000	64.361095 
2400.000000	64.361047 
2399.000000	64.363098 
2398.000000	64.367461 
2397.000000	64.373421 
2396.000000	64.379835 
2395.000000	64.385223 
2394.000000	64.388418 
2393.000000	64.388895 
2392.000000	64.386963 
2391.000000	64.383840 
2390.000000	64.381408 
2389.000000	64.381742 
2388.000000	64.386677 
2387.000000	64.397168 
2386.000000	64.413213 
2385.000000	64.433860 
2384.000000	64.457154 
2383.000000	64.480781 
2382.000000	64.502453 
2381.000000	64.520311 
2380.000000	64.533209 
2379.000000	64.541006 
2378.000000	64.544296 
2377.000000	64.544224 
2376.000000	64.542412 
2375.000000	64.540266 
2374.000000	64.539003 
2373.000000	64.539051 
2372.000000	64.540457 
2371.000000	64.542460 
2370.000000	64.544034 
2369.000000	64.544153 
2368.000000	64.542174 
2367.000000	64.537811 
2366.000000	64.531421 
2365.000000	64.523553 
2364.000000	64.514994 
2363.000000	64.506244 
2362.000000	64.497423 
2361.000000	64.488267 
2360.000000	64.478206 
2359.000000	64.466857 
2358.000000	64.453983 
2357.000000	64.440011 
2356.000000	64.425992 
2355.000000	64.413404 
2354.000000	64.403963 
2353.000000	64.399003 
2352.000000	64.399194 
2351.000000	64.404177 
2350.000000	64.412713 
2349.000000	64.422917 
2348.000000	64.432716 
2347.000000	64.440155 
2346.000000	64.444017 
2345.000000	64.443802 
2344.000000	64.440178 
2343.000000	64.434337 
2342.000000	64.427828 
2341.000000	64.422225 
2340.000000	64.418649 
2339.000000	64.417672 
2338.000000	64.419269 
2337.000000	64.422798 
2336.000000	64.427328 
2335.000000	64.431929 
2334.000000	64.435958 
2333.000000	64.439344 
2332.000000	64.442539 
2331.000000	64.446282 
2330.000000	64.451551 
2329.000000	64.459085 
2328.000000	64.469122 
2327.000000	64.481353 
2326.000000	64.494824 
2325.000000	64.508008 
2324.000000	64.519214 
2323.000000	64.526891 
2322.000000	64.529657 
2321.000000	64.526939 
2320.000000	64.518809 
2319.000000	64.506006 
2318.000000	64.489936 
2317.000000	64.472103 
2316.000000	64.454054 
2315.000000	64.437007 
2314.000000	64.421868 
2313.000000	64.409112 
2312.000000	64.398717 
2311.000000	64.390349 
2310.000000	64.383459 
2309.000000	64.377498 
2308.000000	64.372086 
2307.000000	64.366960 
2306.000000	64.362096 
2305.000000	64.357709 
2304.000000	64.354109 
2303.000000	64.351511 
2302.000000	64.350008 
2301.000000	64.349627 
2300.000000	64.350295 
2299.000000	64.351987 
2298.000000	64.354753 
2297.000000	64.358806 
2296.000000	64.364171 
2295.000000	64.370918 
2294.000000	64.378619 
2293.000000	64.386367 
2292.000000	64.392757 
2291.000000	64.396190 
2290.000000	64.395070 
2289.000000	64.388251 
2288.000000	64.375472 
2287.000000	64.357423 
2286.000000	64.336037 
2285.000000	64.314079 
2284.000000	64.294838 
2283.000000	64.281320 
2282.000000	64.275932 
2281.000000	64.280056 
2280.000000	64.293837 
2279.000000	64.316201 
2278.000000	64.345240 
2277.000000	64.378619 
2276.000000	64.413762 
2275.000000	64.448261 
2274.000000	64.479947 
2273.000000	64.507079 
2272.000000	64.528155 
2271.000000	64.541792 
2270.000000	64.547157 
2269.000000	64.543581 
2268.000000	64.530897 
2267.000000	64.509344 
2266.000000	64.480185 
2265.000000	64.445185 
2264.000000	64.407086 
2263.000000	64.369082 
2262.000000	64.334511 
2261.000000	64.306449 
2260.000000	64.287209 
2259.000000	64.278173 
2258.000000	64.279437 
2257.000000	64.290046 
2256.000000	64.308285 
2255.000000	64.331912 
2254.000000	64.358544 
2253.000000	64.385890 
2252.000000	64.411997 
2251.000000	64.435267 
2250.000000	64.454436 
2249.000000	64.468574 
2248.000000	64.477109 
2247.000000	64.479780 
2246.000000	64.476537 
2245.000000	64.468050 
2244.000000	64.455151 
2243.000000	64.439225 
2242.000000	64.421677 
2241.000000	64.404106 
2240.000000	64.387893 
2239.000000	64.374232 
2238.000000	64.363908 
2237.000000	64.357376 
2236.000000	64.354848 
2235.000000	64.356184 
2234.000000	64.360952 
2233.000000	64.368271 
2232.000000	64.376950 
2231.000000	64.385724 
2230.000000	64.393210 
2229.000000	64.398121 
2228.000000	64.399695 
2227.000000	64.397621 
2226.000000	64.392185 
2225.000000	64.384031 
2224.000000	64.373946 
2223.000000	64.362764 
2222.000000	64.351224 
2221.000000	64.339923 
2220.000000	64.329242 
2219.000000	64.319634 
2218.000000	64.311647 
2217.000000	64.305996 
2216.000000	64.303421 
2215.000000	64.304518 
2214.000000	64.309477 
2213.000000	64.317870 
2212.000000	64.328503 
2211.000000	64.339733 
2210.000000	64.349579 
2209.000000	64.356327 
2208.000000	64.358758 
2207.000000	64.356541 
2206.000000	64.350295 
2205.000000	64.341378 
2204.000000	64.331555 
2203.000000	64.322471 
2202.000000	64.315366 
2201.000000	64.310717 
2200.000000	64.308142 
2199.000000	64.306545 
2198.000000	64.304566 
2197.000000	64.300918 
2196.000000	64.294743 
2195.000000	64.285922 
2194.000000	64.275121 
2193.000000	64.263558 
2192.000000	64.252805 
2191.000000	64.244389 
2190.000000	64.239287 
2189.000000	64.237880 
2188.000000	64.239978 
2187.000000	64.244580 
2186.000000	64.250445 
2185.000000	64.256143 
2184.000000	64.260339 
2183.000000	64.262032 
2182.000000	64.260578 
2181.000000	64.255785 
2180.000000	64.247965 
2179.000000	64.237880 
2178.000000	64.226651 
2177.000000	64.215612 
2176.000000	64.206218 
2175.000000	64.199686 
2174.000000	64.197015 
2173.000000	64.198803 
2172.000000	64.204907 
2171.000000	64.214706 
2170.000000	64.226865 
2169.000000	64.240074 
2168.000000	64.252829 
2167.000000	64.263939 
2166.000000	64.272499 
2165.000000	64.278173 
2164.000000	64.281034 
2163.000000	64.281535 
2162.000000	64.280223 
2161.000000	64.277696 
2160.000000	64.274430 
2159.000000	64.270663 
2158.000000	64.266562 
2157.000000	64.262056 
2156.000000	64.256930 
2155.000000	64.250755 
2154.000000	64.243245 
2153.000000	64.234256 
2152.000000	64.223980 
2151.000000	64.213132 
2150.000000	64.202690 
2149.000000	64.194011 
2148.000000	64.188480 
2147.000000	64.187264 
2146.000000	64.190936 
2145.000000	64.199376 
2144.000000	64.211511 
2143.000000	64.225554 
2142.000000	64.239287 
2141.000000	64.250564 
2140.000000	64.257645 
2139.000000	64.259672 
2138.000000	64.256954 
2137.000000	64.250707 
2136.000000	64.243030 
2135.000000	64.236092 
2134.000000	64.231896 
2133.000000	64.231801 
2132.000000	64.235949 
2131.000000	64.243602 
2130.000000	64.252805 
2129.000000	64.261150 
2128.000000	64.266061 
2127.000000	64.265489 
2126.000000	64.258360 
2125.000000	64.244747 
2124.000000	64.226102 
2123.000000	64.204788 
2122.000000	64.183568 
2121.000000	64.165115 
2120.000000	64.151477 
2119.000000	64.143800 
2118.000000	64.142251 
2117.000000	64.146280 
2116.000000	64.154839 
2115.000000	64.166784 
2114.000000	64.181160 
2113.000000	64.197278 
2112.000000	64.214706 
2111.000000	64.233040 
2110.000000	64.251875 
2109.000000	64.270687 
2108.000000	64.288568 
2107.000000	64.304566 
2106.000000	64.317655 
2105.000000	64.326858 
2104.000000	64.331555 
2103.000000	64.331412 
2102.000000	64.326667 
2101.000000	64.317846 
2100.000000	64.305782 
2099.000000	64.291572 
2098.000000	64.276432 
2097.000000	64.261674 
2096.000000	64.248657 
2095.000000	64.238524 
2094.000000	64.232158 
2093.000000	64.230155 
2092.000000	64.232778 
2091.000000	64.239573 
2090.000000	64.249610 
2089.000000	64.261460 
2088.000000	64.273715 
2087.000000	64.284801 
2086.000000	64.293432 
2085.000000	64.298820 
2084.000000	64.300704 
2083.000000	64.299201 
2082.000000	64.294838 
2081.000000	64.288163 
2080.000000	64.279675 
2079.000000	64.269995 
2078.000000	64.259433 
2077.000000	64.248251 
2076.000000	64.236545 
2075.000000	64.224290 
2074.000000	64.211511 
2073.000000	64.198231 
2072.000000	64.184951 
2071.000000	64.172720 
2070.000000	64.163088 
2069.000000	64.157891 
2068.000000	64.158892 
2067.000000	64.167332 
2066.000000	64.183545 
2065.000000	64.206647 
2064.000000	64.234805 
2063.000000	64.265465 
2062.000000	64.295744 
2061.000000	64.323115 
2060.000000	64.345717 
2059.000000	64.362382 
2058.000000	64.372968 
2057.000000	64.377760 
2056.000000	64.377379 
2055.000000	64.372277 
2054.000000	64.362859 
2053.000000	64.349079 
2052.000000	64.330983 
2051.000000	64.308595 
2050.000000	64.282488 
2049.000000	64.253592 
2048.000000	64.223337 
2047.000000	64.193224 
2046.000000	64.164757 
2045.000000	64.139342 
2044.000000	64.117836 
2043.000000	64.100790 
2042.000000	64.088249 
2041.000000	64.080023 
2040.000000	64.075660 
2039.000000	64.074587 
2038.000000	64.076113 
2037.000000	64.079356 
2036.000000	64.083623 
2035.000000	64.088010 
2034.000000	64.091944 
2033.000000	64.095139 
2032.000000	64.097762 
2031.000000	64.100432 
2030.000000	64.103865 
2029.000000	64.108753 
2028.000000	64.115524 
2027.000000	64.124107 
2026.000000	64.133715 
2025.000000	64.143037 
2024.000000	64.150476 
2023.000000	64.154839 
2022.000000	64.155197 
2021.000000	64.151406 
2020.000000	64.143919 
2019.000000	64.134120 
2018.000000	64.123630 
2017.000000	64.113783 
2016.000000	64.105653 
2015.000000	64.099669 
2014.000000	64.095282 
2013.000000	64.091420 
2012.000000	64.086651 
2011.000000	64.079785 
2010.000000	64.070034 
2009.000000	64.057397 
2008.000000	64.042615 
2007.000000	64.027070 
2006.000000	64.012479 
2005.000000	64.000606 
2004.000000	63.992834 
2003.000000	63.989734 
2002.000000	63.991284 
2001.000000	63.996815 
2000.000000	64.005064 
1999.000000	64.014863 
1998.000000	64.025163 
1997.000000	64.035320 
1996.000000	64.045071 
1995.000000	64.054512 
1994.000000	64.063715 
1993.000000	64.072847 
1992.000000	64.081692 
1991.000000	64.090132 
1990.000000	64.097929 
1989.000000	64.105010 
1988.000000	64.111757 
1987.000000	64.118623 
1986.000000	64.126253 
1985.000000	64.135050 
1984.000000	64.145278 
1983.000000	64.156532 
1982.000000	64.167928 
1981.000000	64.178347 
1980.000000	64.186525 
1979.000000	64.191532 
1978.000000	64.192795 
1977.000000	64.190435 
1976.000000	64.185190 
1975.000000	64.178013 
1974.000000	64.170074 
1973.000000	64.162421 
1972.000000	64.155769 
1971.000000	64.150547 
1970.000000	64.146757 
1969.000000	64.144372 
1968.000000	64.143228 
1967.000000	64.143109 
1966.000000	64.143729 
1965.000000	64.144659 
1964.000000	64.145517 
1963.000000	64.145946 
1962.000000	64.145612 
1961.000000	64.144301 
1960.000000	64.141941 
1959.000000	64.138531 
1958.000000	64.134335 
1957.000000	64.129543 
1956.000000	64.124488 
1955.000000	64.119410 
1954.000000	64.114356 
1953.000000	64.109277 
1952.000000	64.103770 
1951.000000	64.097356 
1950.000000	64.089393 
1949.000000	64.079642 
1948.000000	64.068341 
1947.000000	64.056420 
1946.000000	64.045214 
1945.000000	64.036536 
1944.000000	64.032244 
1943.000000	64.033532 
1942.000000	64.040899 
1941.000000	64.053630 
1940.000000	64.069890 
1939.000000	64.086985 
1938.000000	64.102029 
1937.000000	64.112424 
1936.000000	64.116549 
1935.000000	64.114046 
1934.000000	64.105820 
1933.000000	64.093685 
1932.000000	64.079976 
1931.000000	64.066791 
1930.000000	64.055633 
1929.000000	64.047312 
1928.000000	64.041900 
1927.000000	64.038920 
1926.000000	64.037752 
1925.000000	64.037895 
1924.000000	64.038944 
1923.000000	64.040660 
1922.000000	64.042997 
1921.000000	64.045977 
1920.000000	64.049625 
1919.000000	64.053797 
1918.000000	64.058303 
1917.000000	64.062952 
1916.000000	64.067506 
1915.000000	64.071750 
1914.000000	64.075565 
1913.000000	64.078903 
1912.000000	64.081907 
1911.000000	64.084625 
1910.000000	64.087128 
1909.000000	64.089703 
1908.000000	64.092493 
1907.000000	64.095664 
1906.000000	64.099431 
1905.000000	64.103984 
1904.000000	64.109444 
1903.000000	64.115619 
1902.000000	64.122056 
1901.000000	64.128112 
1900.000000	64.132952 
1899.000000	64.135861 
1898.000000	64.136385 
1897.000000	64.134550 
1896.000000	64.130806 
1895.000000	64.126038 
1894.000000	64.121270 
1893.000000	64.117336 
1892.000000	64.114785 
1891.000000	64.113616 
1890.000000	64.113306 
1889.000000	64.112901 
1888.000000	64.111423 
1887.000000	64.108014 
1886.000000	64.102172 
1885.000000	64.093852 
1884.000000	64.083337 
1883.000000	64.071321 
1882.000000	64.058542 
1881.000000	64.045596 
1880.000000	64.032864 
1879.000000	64.020848 
1878.000000	64.009976 
1877.000000	64.000821 
1876.000000	63.993954 
1875.000000	63.989925 
1874.000000	63.989019 
1873.000000	63.991236 
1872.000000	63.996171 
1871.000000	64.002823 
1870.000000	64.010095 
1869.000000	64.016962 
1868.000000	64.022779 
1867.000000	64.027285 
1866.000000	64.030790 
1865.000000	64.033913 
1864.000000	64.037275 
1863.000000	64.041376 
1862.000000	64.046168 
1861.000000	64.051246 
1860.000000	64.055657 
1859.000000	64.058661 
1858.000000	64.059257 
1857.000000	64.057183 
1856.000000	64.052128 
1855.000000	64.044427 
1854.000000	64.034271 
1853.000000	64.021921 
1852.000000	64.007353 
1851.000000	63.990473 
1850.000000	63.971424 
1849.000000	63.950824 
1848.000000	63.930010 
1847.000000	63.911056 
1846.000000	63.896584 
1845.000000	63.889384 
1844.000000	63.891768 
1843.000000	63.904833 
1842.000000	63.928198 
1841.000000	63.959765 
1840.000000	63.996076 
1839.000000	64.032912 
1838.000000	64.066028 
1837.000000	64.091873 
1836.000000	64.108276 
1835.000000	64.114332 
1834.000000	64.110755 
1833.000000	64.098978 
1832.000000	64.081120 
1831.000000	64.059185 
1830.000000	64.034938 
1829.000000	64.009737 
1828.000000	63.984727 
1827.000000	63.961029 
1826.000000	63.940048 
1825.000000	63.923311 
1824.000000	63.912487 
1823.000000	63.909006 
1822.000000	63.913631 
1821.000000	63.926029 
1820.000000	63.944721 
1819.000000	63.967275 
1818.000000	63.990736 
1817.000000	64.011979 
1816.000000	64.028525 
1815.000000	64.039039 
1814.000000	64.043569 
1813.000000	64.043378 
1812.000000	64.040446 
1811.000000	64.037108 
1810.000000	64.035153 
1809.000000	64.035892 
1808.000000	64.039111 
1807.000000	64.043688 
1806.000000	64.047479 
1805.000000	64.048266 
1804.000000	64.043903 
1803.000000	64.033079 
1802.000000	64.015507 
1801.000000	63.992214 
1800.000000	63.965201 
1799.000000	63.937163 
1798.000000	63.910841 
1797.000000	63.888406 
1796.000000	63.871216 
1795.000000	63.859748 
1794.000000	63.853573 
1793.000000	63.851618 
1792.000000	63.852739 
1791.000000	63.856005 
1790.000000	63.860869 
1789.000000	63.867354 
1788.000000	63.875579 
1787.000000	63.885498 
1786.000000	63.896870 
1785.000000	63.908958 
1784.000000	63.920378 
1783.000000	63.929367 
1782.000000	63.934397 
1781.000000	63.934612 
1780.000000	63.929748 
1779.000000	63.920378 
1778.000000	63.907647 
1777.000000	63.893151 
1776.000000	63.878345 
1775.000000	63.864636 
1774.000000	63.853144 
1773.000000	63.844656 
1772.000000	63.839697 
1771.000000	63.838410 
1770.000000	63.840746 
1769.000000	63.846254 
1768.000000	63.854217 
1767.000000	63.863468 
1766.000000	63.872599 
1765.000000	63.880085 
1764.000000	63.884186 
1763.000000	63.883328 
1762.000000	63.876032 
1761.000000	63.861393 
1760.000000	63.839054 
1759.000000	63.809323 
1758.000000	63.773179 
1757.000000	63.732552 
1756.000000	63.689947 
1755.000000	63.648414 
1754.000000	63.611054 
1753.000000	63.580727 
1752.000000	63.559317 
1751.000000	63.547301 
1750.000000	63.543677 
1749.000000	63.546013 
1748.000000	63.550925 
1747.000000	63.554835 
1746.000000	63.554549 
1745.000000	63.548111 
1744.000000	63.534688 
1743.000000	63.514804 
1742.000000	63.490033 
1741.000000	63.462519 
1740.000000	63.434505 
1739.000000	63.408064 
1738.000000	63.384938 
1737.000000	63.366460 
1736.000000	63.353848 
1735.000000	63.348293 
1734.000000	63.350534 
1733.000000	63.361024 
1732.000000	63.379478 
1731.000000	63.404917 
1730.000000	63.435244 
1729.000000	63.467860 
1728.000000	63.499975 
1727.000000	63.529229 
1726.000000	63.554120 
1725.000000	63.574290 
1724.000000	63.590312 
1723.000000	63.603472 
1722.000000	63.615322 
1721.000000	63.627219 
1720.000000	63.639926 
1719.000000	63.653683 
1718.000000	63.668107 
1717.000000	63.682508 
1716.000000	63.696217 
1715.000000	63.708639 
1714.000000	63.719511 
1713.000000	63.728761 
1712.000000	63.736200 
1711.000000	63.741612 
1710.000000	63.744497 
1709.000000	63.744139 
1708.000000	63.739538 
1707.000000	63.730025 
1706.000000	63.715219 
1705.000000	63.695383 
1704.000000	63.671278 
1703.000000	63.644552 
1702.000000	63.617086 
1701.000000	63.591241 
1700.000000	63.569188 
1699.000000	63.552665 
1698.000000	63.542771 
1697.000000	63.539767 
1696.000000	63.543176 
1695.000000	63.551449 
1694.000000	63.562774 
1693.000000	63.575267 
1692.000000	63.587355 
1691.000000	63.597822 
1690.000000	63.606452 
1689.000000	63.613510 
1688.000000	63.619685 
1687.000000	63.625764 
1686.000000	63.632035 
1685.000000	63.638353 
1684.000000	63.644003 
1683.000000	63.647747 
1682.000000	63.648295 
1681.000000	63.644695 
1680.000000	63.636851 
1679.000000	63.625621 
1678.000000	63.612508 
1677.000000	63.599658 
1676.000000	63.589119 
1675.000000	63.582682 
1674.000000	63.581275 
1673.000000	63.584947 
1672.000000	63.593125 
1671.000000	63.604640 
1670.000000	63.618111 
1669.000000	63.632297 
1668.000000	63.646292 
1667.000000	63.659358 
1666.000000	63.671040 
1665.000000	63.680839 
1664.000000	63.688135 
1663.000000	63.692140 
1662.000000	63.692045 
1661.000000	63.687396 
1660.000000	63.678193 
1659.000000	63.665246 
1658.000000	63.650321 
1657.000000	63.635754 
1656.000000	63.624238 
1655.000000	63.618206 
1654.000000	63.619136 
1653.000000	63.627529 
1652.000000	63.642549 
1651.000000	63.662099 
1650.000000	63.683485 
1649.000000	63.703846 
1648.000000	63.720870 
1647.000000	63.733077 
1646.000000	63.739967 
1645.000000	63.742041 
1644.000000	63.740372 
1643.000000	63.736200 
1642.000000	63.730549 
1641.000000	63.724017 
1640.000000	63.716673 
1639.000000	63.708353 
1638.000000	63.698744 
1637.000000	63.687801 
1636.000000	63.675689 
1635.000000	63.662934 
1634.000000	63.650226 
1633.000000	63.638257 
1632.000000	63.627648 
1631.000000	63.618922 
1630.000000	63.612484 
1629.000000	63.608646 
1628.000000	63.607788 
1627.000000	63.610315 
1626.000000	63.616752 
1625.000000	63.627362 
1624.000000	63.641929 
1623.000000	63.659739 
1622.000000	63.679218 
1621.000000	63.698387 
1620.000000	63.714885 
1619.000000	63.726568 
1618.000000	63.731813 
1617.000000	63.730049 
1616.000000	63.721919 
1615.000000	63.709068 
1614.000000	63.693952 
1613.000000	63.679385 
1612.000000	63.667893 
1611.000000	63.661289 
1610.000000	63.660311 
1609.000000	63.664603 
1608.000000	63.672661 
1607.000000	63.682293 
1606.000000	63.691353 
1605.000000	63.697886 
1604.000000	63.700819 
1603.000000	63.700103 
1602.000000	63.696527 
1601.000000	63.691473 
1600.000000	63.686490 
1599.000000	63.682889 
1598.000000	63.681197 
1597.000000	63.681387 
1596.000000	63.682389 
1595.000000	63.682746 
1594.000000	63.680934 
1593.000000	63.675904 
1592.000000	63.667178 
1591.000000	63.655138 
1590.000000	63.640713 
1589.000000	63.625335 
1588.000000	63.610482 
1587.000000	63.597202 
1586.000000	63.586235 
1585.000000	63.577771 
1584.000000	63.571786 
1583.000000	63.567948 
1582.000000	63.565969 
1581.000000	63.565611 
1580.000000	63.566899 
1579.000000	63.569998 
1578.000000	63.575339 
1577.000000	63.583159 
1576.000000	63.593769 
1575.000000	63.607168 
1574.000000	63.623094 
1573.000000	63.640594 
1572.000000	63.658475 
1571.000000	63.674879 
1570.000000	63.687682 
1569.000000	63.694620 
1568.000000	63.693881 
1567.000000	63.684582 
1566.000000	63.667082 
1565.000000	63.643002 
1564.000000	63.615345 
1563.000000	63.587641 
1562.000000	63.563275 
1561.000000	63.544917 
1560.000000	63.533973 
1559.000000	63.530182 
1558.000000	63.532161 
1557.000000	63.537621 
1556.000000	63.544297 
1555.000000	63.550519 
1554.000000	63.555407 
1553.000000	63.559150 
1552.000000	63.562679 
1551.000000	63.567209 
1550.000000	63.573884 
1549.000000	63.583183 
1548.000000	63.594818 
1547.000000	63.607811 
1546.000000	63.620615 
1545.000000	63.631772 
1544.000000	63.639760 
1543.000000	63.643646 
1542.000000	63.642930 
1541.000000	63.637566 
1540.000000	63.627839 
1539.000000	63.614368 
1538.000000	63.598060 
1537.000000	63.579916 
1536.000000	63.561153 
1535.000000	63.543105 
1534.000000	63.527035 
1533.000000	63.514161 
1532.000000	63.505363 
1531.000000	63.501143 
1530.000000	63.501501 
1529.000000	63.505887 
1528.000000	63.513326 
1527.000000	63.522505 
1526.000000	63.531923 
1525.000000	63.540053 
1524.000000	63.545536 
1523.000000	63.547325 
1522.000000	63.544654 
1521.000000	63.537335 
1520.000000	63.525605 
1519.000000	63.510394 
1518.000000	63.492989 
1517.000000	63.475275 
1516.000000	63.459348 
1515.000000	63.447237 
1514.000000	63.440632 
1513.000000	63.440513 
1512.000000	63.446927 
1511.000000	63.458943 
1510.000000	63.474774 
1509.000000	63.491868 
1508.000000	63.507604 
1507.000000	63.519525 
1506.000000	63.525891 
1505.000000	63.525938 
1504.000000	63.519716 
1503.000000	63.508152 
1502.000000	63.492941 
1501.000000	63.476133 
1500.000000	63.459801 
1499.000000	63.445949 
1498.000000	63.436365 
1497.000000	63.432145 
1496.000000	63.433694 
1495.000000	63.440704 
1494.000000	63.452029 
1493.000000	63.465905 
1492.000000	63.480186 
1491.000000	63.492488 
1490.000000	63.500690 
1489.000000	63.502979 
1488.000000	63.498497 
1487.000000	63.487386 
1486.000000	63.470888 
1485.000000	63.451099 
1484.000000	63.430833 
1483.000000	63.413095 
1482.000000	63.400697 
1481.000000	63.395667 
1480.000000	63.398861 
1479.000000	63.410043 
1478.000000	63.427662 
1477.000000	63.449382 
1476.000000	63.472461 
1475.000000	63.494062 
1474.000000	63.511943 
1473.000000	63.524746 
1472.000000	63.532018 
1471.000000	63.534140 
1470.000000	63.531923 
1469.000000	63.526368 
1468.000000	63.518357 
1467.000000	63.508582 
1466.000000	63.497614 
1465.000000	63.486027 
1464.000000	63.474559 
1463.000000	63.464283 
1462.000000	63.456511 
1461.000000	63.452482 
1460.000000	63.453149 
1459.000000	63.458657 
1458.000000	63.468527 
1457.000000	63.481426 
1456.000000	63.495326 
1455.000000	63.507962 
1454.000000	63.517236 
1453.000000	63.521575 
1452.000000	63.520240 
1451.000000	63.513278 
1450.000000	63.501310 
1449.000000	63.485407 
1448.000000	63.466763 
1447.000000	63.446521 
1446.000000	63.425850 
1445.000000	63.405799 
1444.000000	63.387370 
1443.000000	63.371539 
1442.000000	63.359069 
1441.000000	63.350439 
1440.000000	63.345861 
1439.000000	63.345122 
1438.000000	63.347578 
1437.000000	63.352322 
1436.000000	63.358306 
1435.000000	63.364267 
1434.000000	63.369083 
1433.000000	63.371896 
1432.000000	63.372015 
1431.000000	63.369202 
1430.000000	63.363623 
1429.000000	63.355636 
1428.000000	63.345909 
1427.000000	63.335466 
1426.000000	63.325524 
1425.000000	63.317203 
1424.000000	63.311457 
1423.000000	63.309073 
1422.000000	63.310337 
1421.000000	63.315248 
1420.000000	63.323211 
1419.000000	63.333511 
1418.000000	63.345241 
1417.000000	63.357615 
1416.000000	63.369846 
1415.000000	63.381147 
1414.000000	63.391017 
1413.000000	63.399314 
1412.000000	63.406109 
1411.000000	63.411974 
1410.000000	63.417887 
1409.000000	63.424801 
1408.000000	63.433599 
1407.000000	63.444447 
1406.000000	63.456964 
1405.000000	63.469624 
1404.000000	63.480210 
1403.000000	63.485956 
1402.000000	63.484430 
1401.000000	63.473701 
1400.000000	63.453340 
1399.000000	63.424372 
1398.000000	63.389611 
1397.000000	63.352799 
1396.000000	63.317990 
1395.000000	63.288879 
1394.000000	63.268065 
1393.000000	63.256692 
1392.000000	63.254356 
1391.000000	63.259482 
1390.000000	63.269734 
1389.000000	63.282585 
1388.000000	63.295888 
1387.000000	63.307905 
1386.000000	63.317704 
1385.000000	63.324785 
1384.000000	63.329410 
1383.000000	63.331675 
1382.000000	63.331818 
1381.000000	63.329958 
1380.000000	63.326096 
1379.000000	63.320398 
1378.000000	63.313317 
1377.000000	63.305711 
1376.000000	63.298940 
1375.000000	63.294529 
1374.000000	63.294076 
1373.000000	63.298797 
1372.000000	63.309288 
1371.000000	63.325190 
1370.000000	63.345408 
1369.000000	63.367986 
1368.000000	63.390755 
1367.000000	63.411498 
1366.000000	63.428163 
1365.000000	63.439321 
1364.000000	63.444232 
1363.000000	63.442921 
1362.000000	63.435840 
1361.000000	63.423871 
1360.000000	63.408160 
1359.000000	63.389992 
1358.000000	63.371014 
1357.000000	63.352847 
1356.000000	63.337230 
1355.000000	63.325667 
1354.000000	63.319301 
1353.000000	63.318705 
1352.000000	63.323569 
1351.000000	63.332724 
1350.000000	63.344287 
1349.000000	63.355803 
1348.000000	63.364911 
1347.000000	63.369679 
1346.000000	63.368701 
1345.000000	63.361644 
1344.000000	63.348960 
1343.000000	63.332009 
1342.000000	63.312673 
1341.000000	63.293123 
1340.000000	63.275384 
1339.000000	63.261365 
1338.000000	63.252544 
1337.000000	63.249778 
1336.000000	63.253211 
1335.000000	63.262343 
1334.000000	63.276028 
1333.000000	63.292360 
1332.000000	63.308978 
1331.000000	63.323187 
1330.000000	63.332724 
1329.000000	63.335967 
1328.000000	63.332462 
1327.000000	63.322973 
1326.000000	63.309669 
1325.000000	63.295388 
1324.000000	63.283467 
1323.000000	63.276696 
1322.000000	63.276767 
1321.000000	63.284015 
1320.000000	63.296961 
1319.000000	63.313126 
1318.000000	63.329219 
1317.000000	63.342118 
1316.000000	63.349413 
1315.000000	63.349938 
1314.000000	63.343739 
1313.000000	63.331985 
1312.000000	63.316440 
1311.000000	63.298845 
1310.000000	63.280582 
1309.000000	63.262677 
1308.000000	63.245773 
1307.000000	63.230228 
1306.000000	63.216638 
1305.000000	63.205885 
1304.000000	63.198828 
1303.000000	63.196349 
1302.000000	63.198637 
1301.000000	63.205265 
1300.000000	63.214945 
1299.000000	63.225865 
1298.000000	63.235855 
1297.000000	63.242840 
1296.000000	63.245534 
1295.000000	63.243269 
1294.000000	63.236331 
1293.000000	63.225626 
1292.000000	63.212299 
1291.000000	63.197398 
1290.000000	63.181710 
1289.000000	63.165760 
1288.000000	63.149976 
1287.000000	63.134932 
1286.000000	63.121366 
1285.000000	63.110208 
1284.000000	63.102388 
1283.000000	63.098764 
1282.000000	63.099646 
1281.000000	63.104796 
1280.000000	63.113236 
1279.000000	63.123512 
1278.000000	63.133811 
1277.000000	63.142108 
1276.000000	63.146638 
1275.000000	63.145923 
1274.000000	63.139200 
1273.000000	63.126468 
1272.000000	63.108515 
1271.000000	63.086771 
1270.000000	63.063430 
1269.000000	63.040828 
1268.000000	63.021397 
1267.000000	63.007068 
1266.000000	62.998986 
1265.000000	62.997293 
1264.000000	63.001227 
1263.000000	63.009142 
1262.000000	63.019299 
1261.000000	63.030147 
1260.000000	63.040876 
1259.000000	63.051509 
1258.000000	63.062787 
1257.000000	63.075542 
1256.000000	63.090443 
1255.000000	63.107371 
1254.000000	63.125371 
1253.000000	63.142538 
1252.000000	63.156652 
1251.000000	63.165378 
1250.000000	63.167119 
1249.000000	63.161230 
1248.000000	63.148283 
1247.000000	63.129663 
1246.000000	63.107442 
1245.000000	63.083696 
1244.000000	63.060116 
1243.000000	63.038063 
1242.000000	63.018155 
1241.000000	63.000607 
1240.000000	62.985467 
1239.000000	62.972950 
1238.000000	62.963294 
1237.000000	62.957000 
1236.000000	62.954473 
1235.000000	62.956261 
1234.000000	62.962293 
1233.000000	62.972259 
1232.000000	62.985420 
1231.000000	63.000750 
1230.000000	63.017034 
1229.000000	63.032913 
1228.000000	63.047146 
1227.000000	63.058447 
1226.000000	63.065862 
1225.000000	63.068556 
1224.000000	63.066339 
1223.000000	63.059639 
1222.000000	63.049769 
1221.000000	63.038730 
1220.000000	63.028979 
1219.000000	63.022971 
1218.000000	63.022565 
1217.000000	63.028502 
1216.000000	63.040065 
1215.000000	63.055253 
1214.000000	63.071036 
1213.000000	63.084173 
1212.000000	63.092112 
1211.000000	63.093423 
1210.000000	63.088464 
1209.000000	63.079071 
1208.000000	63.068175 
1207.000000	63.058876 
1206.000000	63.053584 
1205.000000	63.053393 
1204.000000	63.057875 
1203.000000	63.065457 
1202.000000	63.073611 
1201.000000	63.079905 
1200.000000	63.082480 
1199.000000	63.080644 
1198.000000	63.074612 
1197.000000	63.065481 
1196.000000	63.054680 
1195.000000	63.043522 
1194.000000	63.032793 
1193.000000	63.022661 
1192.000000	63.012886 
1191.000000	63.002991 
1190.000000	62.992668 
1189.000000	62.981891 
1188.000000	62.970948 
1187.000000	62.960171 
1186.000000	62.949800 
1185.000000	62.939977 
1184.000000	62.930440 
1183.000000	62.920761 
1182.000000	62.910509 
1181.000000	62.899255 
1180.000000	62.886977 
1179.000000	62.873888 
1178.000000	62.860512 
1177.000000	62.847447 
1176.000000	62.835097 
1175.000000	62.823796 
1174.000000	62.813639 
1173.000000	62.804222 
1172.000000	62.795114 
1171.000000	62.785887 
1170.000000	62.776565 
1169.000000	62.767529 
1168.000000	62.759757 
1167.000000	62.754511 
1166.000000	62.753033 
1165.000000	62.756085 
1164.000000	62.763786 
1163.000000	62.775254 
1162.000000	62.789034 
1161.000000	62.803483 
1160.000000	62.817263 
1159.000000	62.829566 
1158.000000	62.840175 
1157.000000	62.849235 
1156.000000	62.857246 
1155.000000	62.864708 
1154.000000	62.872195 
1153.000000	62.880301 
1152.000000	62.889528 
1151.000000	62.900567 
1150.000000	62.913799 
1149.000000	62.929368 
1148.000000	62.946867 
1147.000000	62.965583 
1146.000000	62.984895 
1145.000000	63.004469 
1144.000000	63.024497 
1143.000000	63.045239 
1142.000000	63.066697 
1141.000000	63.088011 
1140.000000	63.107657 
1139.000000	63.123035 
1138.000000	63.131213 
1137.000000	63.129401 
1136.000000	63.116168 
1135.000000	63.091731 
1134.000000	63.058352 
1133.000000	63.020205 
1132.000000	62.982439 
1131.000000	62.950468 
1130.000000	62.928652 
1129.000000	62.919354 
1128.000000	62.922525 
1127.000000	62.935543 
1126.000000	62.954211 
1125.000000	62.973237 
1124.000000	62.987327 
1123.000000	62.992000 
1122.000000	62.984395 
1121.000000	62.963438 
1120.000000	62.930107 
1119.000000	62.887573 
1118.000000	62.840676 
1117.000000	62.795519 
1116.000000	62.758040 
1115.000000	62.733173 
1114.000000	62.723636 
1113.000000	62.729454 
1112.000000	62.748146 
1111.000000	62.775588 
1110.000000	62.807059 
1109.000000	62.838125 
1108.000000	62.865447 
1107.000000	62.886834 
1106.000000	62.901353 
1105.000000	62.908864 
1104.000000	62.909817 
1103.000000	62.904882 
1102.000000	62.894725 
1101.000000	62.880444 
1100.000000	62.862849 
1099.000000	62.842774 
1098.000000	62.820863 
1097.000000	62.797975 
1096.000000	62.774968 
1095.000000	62.753081 
1094.000000	62.733578 
1093.000000	62.717962 
1092.000000	62.707686 
1091.000000	62.703967 
1090.000000	62.707281 
1089.000000	62.717390 
1088.000000	62.733244 
1087.000000	62.753057 
1086.000000	62.774634 
1085.000000	62.795758 
1084.000000	62.814450 
1083.000000	62.829518 
1082.000000	62.840676 
1081.000000	62.848758 
1080.000000	62.855219 
1079.000000	62.861871 
1078.000000	62.870216 
1077.000000	62.880992 
1076.000000	62.893986 
1075.000000	62.907862 
1074.000000	62.920379 
1073.000000	62.928962 
1072.000000	62.931323 
1071.000000	62.926077 
1070.000000	62.913274 
1069.000000	62.894177 
1068.000000	62.870883 
1067.000000	62.845993 
1066.000000	62.822008 
1065.000000	62.800669 
1064.000000	62.782430 
1063.000000	62.766861 
1062.000000	62.752819 
1061.000000	62.738823 
1060.000000	62.723779 
1059.000000	62.707304 
1058.000000	62.689924 
1057.000000	62.672877 
1056.000000	62.657737 
1055.000000	62.645721 
1054.000000	62.637567 
1053.000000	62.632942 
1052.000000	62.630677 
1051.000000	62.628865 
1050.000000	62.625789 
1049.000000	62.620091 
1048.000000	62.611794 
1047.000000	62.601780 
1046.000000	62.592124 
1045.000000	62.585377 
1044.000000	62.583971 
1043.000000	62.589383 
1042.000000	62.602043 
1041.000000	62.620997 
1040.000000	62.644100 
1039.000000	62.668561 
1038.000000	62.691354 
1037.000000	62.709784 
1036.000000	62.721967 
1035.000000	62.727308 
1034.000000	62.726330 
1033.000000	62.720608 
1032.000000	62.712621 
1031.000000	62.705039 
1030.000000	62.700247 
1029.000000	62.699770 
1028.000000	62.704277 
1027.000000	62.713265 
1026.000000	62.725377 
1025.000000	62.738728 
1024.000000	62.751388 
1023.000000	62.761425 
1022.000000	62.767410 
1021.000000	62.768483 
1020.000000	62.764382 
1019.000000	62.755680 
1018.000000	62.743425 
1017.000000	62.729334 
1016.000000	62.715387 
1015.000000	62.703585 
1014.000000	62.695550 
1013.000000	62.692379 
1012.000000	62.694501 
1011.000000	62.701463 
1010.000000	62.711954 
1009.000000	62.724280 
1008.000000	62.736392 
1007.000000	62.746381 
1006.000000	62.752866 
1005.000000	62.755084 
1004.000000	62.752747 
1003.000000	62.746310 
1002.000000	62.736582 
1001.000000	62.724471 
1000.000000	62.710857 
999.000000	 62.696647 
998.000000	 62.682580 
997.000000	 62.669372 
996.000000	 62.657785 
995.000000	 62.648701 
994.000000	 62.643098 
993.000000	 62.641882 
992.000000	 62.646007 
991.000000	 62.656211 
990.000000	 62.672853 
989.000000	 62.695741 
988.000000	 62.724184 
987.000000	 62.756824 
986.000000	 62.791848 
985.000000	 62.827062 
984.000000	 62.860202 
983.000000	 62.889218 
982.000000	 62.912511 
981.000000	 62.929105 
980.000000	 62.938904 
979.000000	 62.942433 
978.000000	 62.940931 
977.000000	 62.935709 
976.000000	 62.928152 
975.000000	 62.919330 
974.000000	 62.909913 
973.000000	 62.900114 
972.000000	 62.889957 
971.000000	 62.879228 
970.000000	 62.867951 
969.000000	 62.856364 
968.000000	 62.844824 
967.000000	 62.833905 
966.000000	 62.824153 
965.000000	 62.816095 
964.000000	 62.809920 
963.000000	 62.805485 
962.000000	 62.802362 
961.000000	 62.799882 
960.000000	 62.797236 
959.000000	 62.793493 
958.000000	 62.787818 
957.000000	 62.779378 
956.000000	 62.767481 
955.000000	 62.751626 
954.000000	 62.731552 
953.000000	 62.707543 
952.000000	 62.680673 
951.000000	 62.652444 
950.000000	 62.624883 
949.000000	 62.600255 
948.000000	 62.580919 
947.000000	 62.568449 
946.000000	 62.563943 
945.000000	 62.567472 
944.000000	 62.578415 
943.000000	 62.595200 
942.000000	 62.615871 
941.000000	 62.637948 
940.000000	 62.659120 
939.000000	 62.677311 
938.000000	 62.691354 
937.000000	 62.700915 
936.000000	 62.706756 
935.000000	 62.710332 
934.000000	 62.713694 
933.000000	 62.718963 
932.000000	 62.727618 
931.000000	 62.740254 
930.000000	 62.756085 
929.000000	 62.773108 
928.000000	 62.788581 
927.000000	 62.799620 
926.000000	 62.804031 
925.000000	 62.800669 
924.000000	 62.790107 
923.000000	 62.774372 
922.000000	 62.756228 
921.000000	 62.738561 
920.000000	 62.723827 
919.000000	 62.713694 
918.000000	 62.708616 
917.000000	 62.708258 
916.000000	 62.711930 
915.000000	 62.718248 
914.000000	 62.725949 
913.000000	 62.733268 
912.000000	 62.738609 
911.000000	 62.740159 
910.000000	 62.736177 
909.000000	 62.725138 
908.000000	 62.706017 
907.000000	 62.678647 
906.000000	 62.644076 
905.000000	 62.604427 
904.000000	 62.562632 
903.000000	 62.522125 
902.000000	 62.486147 
901.000000	 62.457299 
900.000000	 62.437391 
899.000000	 62.427353 
898.000000	 62.427258 
897.000000	 62.436604 
896.000000	 62.454509 
895.000000	 62.479424 
894.000000	 62.509632 
893.000000	 62.542581 
892.000000	 62.575697 
891.000000	 62.606167 
890.000000	 62.631440 
889.000000	 62.649488 
888.000000	 62.659144 
887.000000	 62.660145 
886.000000	 62.653160 
885.000000	 62.639641 
884.000000	 62.621617 
883.000000	 62.601161 
882.000000	 62.580394 
881.000000	 62.561225 
880.000000	 62.545156 
879.000000	 62.533283 
878.000000	 62.526392 
877.000000	 62.525177 
876.000000	 62.529945 
875.000000	 62.540721 
874.000000	 62.557053 
873.000000	 62.578129 
872.000000	 62.602901 
871.000000	 62.629842 
870.000000	 62.657475 
869.000000	 62.684059 
868.000000	 62.707924 
867.000000	 62.727332 
866.000000	 62.740826 
865.000000	 62.747192 
864.000000	 62.745904 
863.000000	 62.736868 
862.000000	 62.720680 
861.000000	 62.698507 
860.000000	 62.672281 
859.000000	 62.644386 
858.000000	 62.617278 
857.000000	 62.593746 
856.000000	 62.576532 
855.000000	 62.568211 
854.000000	 62.570762 
853.000000	 62.585186 
852.000000	 62.611031 
851.000000	 62.646055 
850.000000	 62.686538 
849.000000	 62.727189 
848.000000	 62.761878 
847.000000	 62.784576 
846.000000	 62.790751 
845.000000	 62.778162 
844.000000	 62.747812 
843.000000	 62.703657 
842.000000	 62.652087 
841.000000	 62.600517 
840.000000	 62.555718 
839.000000	 62.522602 
838.000000	 62.503147 
837.000000	 62.496304 
836.000000	 62.498497 
835.000000	 62.504696 
834.000000	 62.510037 
833.000000	 62.510776 
832.000000	 62.505674 
831.000000	 62.495326 
830.000000	 62.482714 
829.000000	 62.471699 
828.000000	 62.466526 
827.000000	 62.470340 
826.000000	 62.484645 
825.000000	 62.508940 
824.000000	 62.540936 
823.000000	 62.577104 
822.000000	 62.613201 
821.000000	 62.645220 
820.000000	 62.669897 
819.000000	 62.685322 
818.000000	 62.691092 
817.000000	 62.688207 
816.000000	 62.678933 
815.000000	 62.666368 
814.000000	 62.654352 
813.000000	 62.646198 
812.000000	 62.644720 
811.000000	 62.650632 
810.000000	 62.662935 
809.000000	 62.678194 
808.000000	 62.691879 
807.000000	 62.698912 
806.000000	 62.695312 
805.000000	 62.678909 
804.000000	 62.650346 
803.000000	 62.612724 
802.000000	 62.570905 
801.000000	 62.530374 
800.000000	 62.495779 
799.000000	 62.470531 
798.000000	 62.456202 
797.000000	 62.452721 
796.000000	 62.458634 
795.000000	 62.472105 
794.000000	 62.491130 
793.000000	 62.513875 
792.000000	 62.538814 
791.000000	 62.564349 
790.000000	 62.588763 
789.000000	 62.609887 
788.000000	 62.625288 
787.000000	 62.632870 
786.000000	 62.631130 
785.000000	 62.619900 
784.000000	 62.600135 
783.000000	 62.574005 
782.000000	 62.544274 
781.000000	 62.514138 
780.000000	 62.486171 
779.000000	 62.462282 
778.000000	 62.442922 
777.000000	 62.427949 
776.000000	 62.416124 
775.000000	 62.405896 
774.000000	 62.395429 
773.000000	 62.383174 
772.000000	 62.368226 
771.000000	 62.350487 
770.000000	 62.330818 
769.000000	 62.310981 
768.000000	 62.293386 
767.000000	 62.280631 
766.000000	 62.275195 
765.000000	 62.278819 
764.000000	 62.291908 
763.000000	 62.313437 
762.000000	 62.340569 
761.000000	 62.369465 
760.000000	 62.396049 
759.000000	 62.417006 
758.000000	 62.430167 
757.000000	 62.435603 
756.000000	 62.435317 
755.000000	 62.433171 
754.000000	 62.433338 
753.000000	 62.439727 
752.000000	 62.454915 
751.000000	 62.479043 
750.000000	 62.510132 
749.000000	 62.543678 
748.000000	 62.573957 
747.000000	 62.594890 
746.000000	 62.601709 
745.000000	 62.592005 
744.000000	 62.566399 
743.000000	 62.528467 
742.000000	 62.484121 
741.000000	 62.440013 
740.000000	 62.402081 
739.000000	 62.374615 
738.000000	 62.359333 
737.000000	 62.355542 
736.000000	 62.360167 
735.000000	 62.369227 
734.000000	 62.378478 
733.000000	 62.384295 
732.000000	 62.384247 
731.000000	 62.376928 
730.000000	 62.362194 
729.000000	 62.340807 
728.000000	 62.314248 
727.000000	 62.284159 
726.000000	 62.252283 
725.000000	 62.220692 
724.000000	 62.191152 
723.000000	 62.165260 
722.000000	 62.143802 
721.000000	 62.126779 
720.000000	 62.113666 
719.000000	 62.103486 
718.000000	 62.095642 
717.000000	 62.090086 
716.000000	 62.088084 
715.000000	 62.091588 
714.000000	 62.102913 
713.000000	 62.123656 
712.000000	 62.153816 
711.000000	 62.191152 
710.000000	 62.231349 
709.000000	 62.268662 
708.000000	 62.297558 
707.000000	 62.313461 
706.000000	 62.314009 
705.000000	 62.299394 
704.000000	 62.272429 
703.000000	 62.237524 
702.000000	 62.199401 
701.000000	 62.161874 
700.000000	 62.127232 
699.000000	 62.095856 
698.000000	 62.066745 
697.000000	 62.038803 
696.000000	 62.011671 
695.000000	 61.986994 
694.000000	 61.968326 
693.000000	 61.960673 
692.000000	 61.968946 
691.000000	 61.996102 
690.000000	 62.041735 
689.000000	 62.101292 
688.000000	 62.166380 
687.000000	 62.226510 
686.000000	 62.271428 
685.000000	 62.293410 
684.000000	 62.289285 
683.000000	 62.261080 
682.000000	 62.215781 
681.000000	 62.163543 
680.000000	 62.115406 
679.000000	 62.081074 
678.000000	 62.066483 
677.000000	 62.073540 
676.000000	 62.098979 
675.000000	 62.136507 
674.000000	 62.177848 
673.000000	 62.214994 
672.000000	 62.241649 
671.000000	 62.254190 
670.000000	 62.252330 
669.000000	 62.238430 
668.000000	 62.216806 
667.000000	 62.192201 
666.000000	 62.168765 
665.000000	 62.149405 
664.000000	 62.134432 
663.000000	 62.121891 
662.000000	 62.108230 
661.000000	 62.089824 
660.000000	 62.064266 
659.000000	 62.031388 
658.000000	 61.993741 
657.000000	 61.956000 
656.000000	 61.924290 
655.000000	 61.904692 
654.000000	 61.900711 
653.000000	 61.913037 
652.000000	 61.939406 
651.000000	 61.975407 
650.000000	 62.015438 
649.000000	 62.054085 
648.000000	 62.087416 
647.000000	 62.113523 
646.000000	 62.132191 
645.000000	 62.145042 
644.000000	 62.154459 
643.000000	 62.163019 
642.000000	 62.171959 
641.000000	 62.182617 
640.000000	 62.196350 
639.000000	 62.214994 
638.000000	 62.240982 
637.000000	 62.276339 
636.000000	 62.322139 
635.000000	 62.377142 
634.000000	 62.437534 
633.000000	 62.496614 
632.000000	 62.545704 
631.000000	 62.575268 
630.000000	 62.577176 
629.000000	 62.545895 
628.000000	 62.480401 
627.000000	 62.384748 
626.000000	 62.267732 
625.000000	 62.142801 
624.000000	 62.024378 
623.000000	 61.926531 
622.000000	 61.857843 
621.000000	 61.820340 
620.000000	 61.807799 
619.000000	 61.807680 
618.000000	 61.804389 
617.000000	 61.782860 
616.000000	 61.733841 
615.000000	 61.655092 
614.000000	 61.554265 
613.000000	 61.446499 
612.000000	 61.350965 
611.000000	 61.285185 
610.000000	 61.260223 
609.000000	 61.277294 
608.000000	 61.327886 
607.000000	 61.396145 
606.000000	 61.463117 
605.000000	 61.511611 
604.000000	 61.530947 
603.000000	 61.518812 
602.000000	 61.478734 
601.000000	 61.419034 
600.000000	 61.348652 
599.000000	 61.276316 
598.000000	 61.208820 
597.000000	 61.151647 
596.000000	 61.110830 
595.000000	 61.091399 
594.000000	 61.098718 
593.000000	 61.134696 
592.000000	 61.197710 
591.000000	 61.279892 
590.000000	 61.367177 
589.000000	 61.442279 
588.000000	 61.486220 
587.000000	 61.486530 
586.000000	 61.440157 
585.000000	 61.356687 
584.000000	 61.255788 
583.000000	 61.164927 
582.000000	 61.113071 
581.000000	 61.123180 
580.000000	 61.206674 
579.000000	 61.361622 
578.000000	 61.573076 
577.000000	 61.817741 
576.000000	 62.068963 
575.000000	 62.302827 
574.000000	 62.501525 
573.000000	 62.655448 
572.000000	 62.762117 
571.000000	 62.823700 
570.000000	 62.844181 
569.000000	 62.828826 
568.000000	 62.780690 
567.000000	 62.702608 
566.000000	 62.595081 
565.000000	 62.463784 
564.000000	 62.312960 
563.000000	 62.149834 
562.000000	 61.978816 
561.000000	 61.803483 
560.000000	 61.623573 
559.000000	 61.436653 
558.000000	 61.239314 
557.000000	 61.028981 
556.000000	 60.808515 
555.000000	 60.587167 
554.000000	 60.379934 
553.000000	 60.204839 
552.000000	 60.078310 
551.000000	 60.011434 
550.000000	 60.005331 
549.000000	 60.051965 
548.000000	 60.135459 
547.000000	 60.238242 
546.000000	 60.342979 
545.000000	 60.439777 
544.000000	 60.527491 
543.000000	 60.614371 
542.000000	 60.712409 
541.000000	 60.834169 
540.000000	 60.987114 
539.000000	 61.169910 
538.000000	 61.372399 
537.000000	 61.574840 
536.000000	 61.754536 
535.000000	 61.887717 
534.000000	 61.957740 
533.000000	 61.955547 
532.000000	 61.882472 
531.000000	 61.749649 
530.000000	 61.576056 
529.000000	 61.386013 
528.000000	 61.204671 
527.000000	 61.055636 
526.000000	 60.957145 
525.000000	 60.917425 
524.000000	 60.933351 
523.000000	 60.991954 
522.000000	 61.073517 
521.000000	 61.153364 
520.000000	 61.209368 
519.000000	 61.226749 
518.000000	 61.202478 
517.000000	 61.144733 
516.000000	 61.070966 
515.000000	 61.002492 
514.000000	 60.958099 
513.000000	 60.950136 
512.000000	 60.978698 
511.000000	 61.032414 
510.000000	 61.089825 
509.000000	 61.126947 
508.000000	 61.121702 
507.000000	 61.061096 
506.000000	 60.943031 
505.000000	 60.776829 
504.000000	 60.580420 
503.000000	 60.374975 
502.000000	 60.182309 
501.000000	 60.020565 
500.000000	 59.903359 
499.000000	 59.839057 
498.000000	 59.834265 
497.000000	 59.894490 
496.000000	 60.025215 
495.000000	 60.229706 
494.000000	 60.505461 
493.000000	 60.840916 
492.000000	 61.214208 
491.000000	 61.593198 
490.000000	 61.938619 
489.000000	 62.210631 
488.000000	 62.376475 
487.000000	 62.417840 
486.000000	 62.334871 
485.000000	 62.147545 
484.000000	 61.892414 
483.000000	 61.615920 
482.000000	 61.367011 
481.000000	 61.186027 
480.000000	 61.100029 
479.000000	 61.114907 
478.000000	 61.218643 
477.000000	 61.381030 
476.000000	 61.563110 
475.000000	 61.722731 
474.000000	 61.824083 
473.000000	 61.843919 
472.000000	 61.776065 
471.000000	 61.632108 
470.000000	 61.438584 
469.000000	 61.232852 
468.000000	 61.055064 
467.000000	 60.940885 
466.000000	 60.913729 
465.000000	 60.982799 
464.000000	 61.139631 
463.000000	 61.362195 
462.000000	 61.617541 
461.000000	 61.868619 
460.000000	 62.080073 
459.000000	 62.225389 
458.000000	 62.289071 
457.000000	 62.266588 
456.000000	 62.164330 
455.000000	 61.995935 
454.000000	 61.780929 
453.000000	 61.542534 
452.000000	 61.303305 
451.000000	 61.082577 
450.000000	 60.896992 
449.000000	 60.761117 
448.000000	 60.684394 
447.000000	 60.671758 
446.000000	 60.719799 
445.000000	 60.817551 
444.000000	 60.952186 
443.000000	 61.111855 
442.000000	 61.284089 
441.000000	 61.458754 
440.000000	 61.630868 
439.000000	 61.798977 
438.000000	 61.964392 
437.000000	 62.126588 
436.000000	 62.279343 
435.000000	 62.410569 
434.000000	 62.505006 
433.000000	 62.548637 
432.000000	 62.530112 
431.000000	 62.451696 
430.000000	 62.327170 
429.000000	 62.189555 
428.000000	 62.088513 
427.000000	 62.077569 
426.000000	 62.201380 
425.000000	 62.481045 
424.000000	 62.911486 
423.000000	 63.446140 
422.000000	 64.007306 
421.000000	 64.490079 
420.000000	 64.785456 
419.000000	 64.801096 
418.000000	 64.484810 
417.000000	 63.834691 
416.000000	 62.904763 
415.000000	 61.797928 
414.000000	 60.649800 
413.000000	 59.604716 
412.000000	 58.792018 
411.000000	 58.301496 
410.000000	 58.172106 
409.000000	 58.397889 
408.000000	 58.925437 
407.000000	 59.669923 
406.000000	 60.521364 
405.000000	 61.367416 
404.000000	 62.095975 
403.000000	 62.600970 
402.000000	 62.797689 
401.000000	 62.634944 
400.000000	 62.098765 
399.000000	 61.208271 
398.000000	 60.028815 
397.000000	 58.665227 
396.000000	 57.256245 
395.000000	 55.959343 
394.000000	 54.922604 
393.000000	 54.259181 
392.000000	 54.038047 
391.000000	 54.271459 
390.000000	 54.906415 
389.000000	 55.832266 
388.000000	 56.886506 
387.000000	 57.886481 
386.000000	 58.660316 
385.000000	 59.079432 
384.000000	 59.091615 
383.000000	 58.716177 
382.000000	 58.020401 
381.000000	 57.098770 
380.000000	 56.059575 
379.000000	 54.983329 
378.000000	 53.947091 
377.000000	 52.962398 
376.000000	 52.010345 
375.000000	 51.012086 
374.000000	 49.840235 
373.000000	 48.395657 
372.000000	 46.591258 
371.000000	 44.515180 
370.000000	 42.430615 

