PE IR       SPECTRUM    SPECTRUM    ASCII       PEDS        1.60        
  -1
BZ6CA1~1.ASC
17/04/07
14:21:08.00
17/04/07
14:21:08.00
tln
$BZ1503107-1_t0014$<tbV0>[7.8,-10.4,8.0,0.0,27,1,0]
370.000000
64









2002,4.07    
MIRTGS : RIGHTBACK : INTERNAL 2
MIR : ON : INTERNAL 2
OPTKBR

0.200000
8
8.000000
FILLER
RATIO
SPECTRUM
UNLOCKED 256

DOUBLE
64
COMBINED
1
0
0


1.000000
RATIO


1
0
TRUE
51149
0
LEFT NOT FITTED RIGHT NOT FITTED 0
NONE
NONE
15600
12.000000
4.427000
51148
TRUE
1 0 8 72 0 0 0 0 

15798.010000






#HDR
-1
-1
#GR
CM-1
%T
0.00002384185791015625
0.0
5000.000000
-1.000000
4631
8
98.343729
52.198863
#DATA
5000.000000	64.052343 
4999.000000	64.100360 
4998.000000	64.192771 
4997.000000	64.321255 
4996.000000	64.464879 
4995.000000	64.594292 
4994.000000	64.676690 
4993.000000	64.680194 
4992.000000	64.588165 
4991.000000	64.402627 
4990.000000	64.151191 
4989.000000	63.880968 
4988.000000	63.652348 
4987.000000	63.525104 
4986.000000	63.543415 
4985.000000	63.724851 
4984.000000	64.051985 
4983.000000	64.475560 
4982.000000	64.926123 
4981.000000	65.330410 
4980.000000	65.628099 
4979.000000	65.784454 
4978.000000	65.799164 
4977.000000	65.700221 
4976.000000	65.531039 
4975.000000	65.335202 
4974.000000	65.144801 
4973.000000	64.971470 
4972.000000	64.809274 
4971.000000	64.638185 
4970.000000	64.441561 
4969.000000	64.208912 
4968.000000	63.945555 
4967.000000	63.670182 
4966.000000	63.410353 
4965.000000	63.195466 
4964.000000	63.044881 
4963.000000	62.967181 
4962.000000	62.954425 
4961.000000	62.991642 
4960.000000	63.060808 
4959.000000	63.148427 
4958.000000	63.248705 
4957.000000	63.363814 
4956.000000	63.501214 
4955.000000	63.667345 
4954.000000	63.863754 
4953.000000	64.087295 
4952.000000	64.329504 
4951.000000	64.578700 
4950.000000	64.821553 
4949.000000	65.048241 
4948.000000	65.251350 
4947.000000	65.424513 
4946.000000	65.563273 
4945.000000	65.664124 
4944.000000	65.726876 
4943.000000	65.756416 
4942.000000	65.762686 
4941.000000	65.760707 
4940.000000	65.767312 
4939.000000	65.802907 
4938.000000	65.879940 
4937.000000	66.001272 
4936.000000	66.155076 
4935.000000	66.318702 
4934.000000	66.460824 
4933.000000	66.549801 
4932.000000	66.561412 
4931.000000	66.486048 
4930.000000	66.329026 
4929.000000	66.109395 
4928.000000	65.853357 
4927.000000	65.587401 
4926.000000	65.332078 
4925.000000	65.098023 
4924.000000	64.884996 
4923.000000	64.685559 
4922.000000	64.491128 
4921.000000	64.298129 
4920.000000	64.109110 
4919.000000	63.937044 
4918.000000	63.800883 
4917.000000	63.723778 
4916.000000	63.721036 
4915.000000	63.800859 
4914.000000	63.959550 
4913.000000	64.182400 
4912.000000	64.444589 
4911.000000	64.716267 
4910.000000	64.967226 
4909.000000	65.171718 
4908.000000	65.311670 
4907.000000	65.379905 
4906.000000	65.379667 
4905.000000	65.324068 
4904.000000	65.232443 
4903.000000	65.126633 
4902.000000	65.026593 
4901.000000	64.947772 
4900.000000	64.898777 
4899.000000	64.880251 
4898.000000	64.886069 
4897.000000	64.906954 
4896.000000	64.932632 
4895.000000	64.953422 
4894.000000	64.962506 
4893.000000	64.957642 
4892.000000	64.939975 
4891.000000	64.911127 
4890.000000	64.873027 
4889.000000	64.826250 
4888.000000	64.771056 
4887.000000	64.707803 
4886.000000	64.637994 
4885.000000	64.565658 
4884.000000	64.496517 
4883.000000	64.437675 
4882.000000	64.395546 
4881.000000	64.373350 
4880.000000	64.371538 
4879.000000	64.387392 
4878.000000	64.415836 
4877.000000	64.450550 
4876.000000	64.486575 
4875.000000	64.521670 
4874.000000	64.556455 
4873.000000	64.594078 
4872.000000	64.638209 
4871.000000	64.691662 
4870.000000	64.755201 
4869.000000	64.826917 
4868.000000	64.903044 
4867.000000	64.978122 
4866.000000	65.047860 
4865.000000	65.107917 
4864.000000	65.155601 
4863.000000	65.188097 
4862.000000	65.202975 
4861.000000	65.197372 
4860.000000	65.168714 
4859.000000	65.115714 
4858.000000	65.039515 
4857.000000	64.944887 
4856.000000	64.839720 
4855.000000	64.735770 
4854.000000	64.646673 
4853.000000	64.586257 
4852.000000	64.565849 
4851.000000	64.592051 
4850.000000	64.665055 
4849.000000	64.777541 
4848.000000	64.915752 
4847.000000	65.061783 
4846.000000	65.196704 
4845.000000	65.303635 
4844.000000	65.370726 
4843.000000	65.392780 
4842.000000	65.371561 
4841.000000	65.315914 
4840.000000	65.238690 
4839.000000	65.153813 
4838.000000	65.073132 
4837.000000	65.005016 
4836.000000	64.952945 
4835.000000	64.916682 
4834.000000	64.893221 
4833.000000	64.879345 
4832.000000	64.872598 
4831.000000	64.872717 
4830.000000	64.880585 
4829.000000	64.896512 
4828.000000	64.919948 
4827.000000	64.947462 
4826.000000	64.975118 
4825.000000	64.998650 
4824.000000	65.016865 
4823.000000	65.031981 
4822.000000	65.050601 
4821.000000	65.081477 
4820.000000	65.133237 
4819.000000	65.210294 
4818.000000	65.309643 
4817.000000	65.419411 
4816.000000	65.519738 
4815.000000	65.587282 
4814.000000	65.601491 
4813.000000	65.551018 
4812.000000	65.437030 
4811.000000	65.275645 
4810.000000	65.095162 
4809.000000	64.930558 
4808.000000	64.815640 
4807.000000	64.774966 
4806.000000	64.818811 
4805.000000	64.940047 
4804.000000	65.117573 
4803.000000	65.319752 
4802.000000	65.512514 
4801.000000	65.666198 
4800.000000	65.760898 
4799.000000	65.791034 
4798.000000	65.764355 
4797.000000	65.698909 
4796.000000	65.616703 
4795.000000	65.539073 
4794.000000	65.481066 
4793.000000	65.449929 
4792.000000	65.444183 
4791.000000	65.455913 
4790.000000	65.473222 
4789.000000	65.484523 
4788.000000	65.480828 
4787.000000	65.456247 
4786.000000	65.409708 
4785.000000	65.342426 
4784.000000	65.259718 
4783.000000	65.169382 
4782.000000	65.081524 
4781.000000	65.007567 
4780.000000	64.957427 
4779.000000	64.938735 
4778.000000	64.953041 
4777.000000	64.996576 
4776.000000	65.057849 
4775.000000	65.119910 
4774.000000	65.163135 
4773.000000	65.169191 
4772.000000	65.126299 
4771.000000	65.032100 
4770.000000	64.895486 
4769.000000	64.734625 
4768.000000	64.575314 
4767.000000	64.445447 
4766.000000	64.369392 
4765.000000	64.362359 
4764.000000	64.427566 
4763.000000	64.555406 
4762.000000	64.726090 
4761.000000	64.913749 
4760.000000	65.091180 
4759.000000	65.235733 
4758.000000	65.331983 
4757.000000	65.375065 
4756.000000	65.369606 
4755.000000	65.328407 
4754.000000	65.268015 
4753.000000	65.204834 
4752.000000	65.152192 
4751.000000	65.117216 
4750.000000	65.102005 
4749.000000	65.102720 
4748.000000	65.113329 
4747.000000	65.126323 
4746.000000	65.136146 
4745.000000	65.138673 
4744.000000	65.131831 
4743.000000	65.115261 
4742.000000	65.089416 
4741.000000	65.056467 
4740.000000	65.019440 
4739.000000	64.982581 
4738.000000	64.950394 
4737.000000	64.926815 
4736.000000	64.914035 
4735.000000	64.912390 
4734.000000	64.919734 
4733.000000	64.931726 
4732.000000	64.942359 
4731.000000	64.945864 
4730.000000	64.937019 
4729.000000	64.913129 
4728.000000	64.873409 
4727.000000	64.818716 
4726.000000	64.751386 
4725.000000	64.674615 
4724.000000	64.592647 
4723.000000	64.509630 
4722.000000	64.430761 
4721.000000	64.361715 
4720.000000	64.308691 
4719.000000	64.277839 
4718.000000	64.272975 
4717.000000	64.294171 
4716.000000	64.336800 
4715.000000	64.392018 
4714.000000	64.448547 
4713.000000	64.495086 
4712.000000	64.523196 
4711.000000	64.529323 
4710.000000	64.515066 
4709.000000	64.486980 
4708.000000	64.454603 
4707.000000	64.428257 
4706.000000	64.416265 
4705.000000	64.423012 
4704.000000	64.448928 
4703.000000	64.489960 
4702.000000	64.539194 
4701.000000	64.588117 
4700.000000	64.628934 
4699.000000	64.656090 
4698.000000	64.666986 
4697.000000	64.662909 
4696.000000	64.647698 
4695.000000	64.627790 
4694.000000	64.610433 
4693.000000	64.602541 
4692.000000	64.609622 
4691.000000	64.634060 
4690.000000	64.674782 
4689.000000	64.727616 
4688.000000	64.786434 
4687.000000	64.844703 
4686.000000	64.897108 
4685.000000	64.940977 
4684.000000	64.976692 
4683.000000	65.007495 
4682.000000	65.038275 
4681.000000	65.073633 
4680.000000	65.116095 
4679.000000	65.165662 
4678.000000	65.218830 
4677.000000	65.270376 
4676.000000	65.313482 
4675.000000	65.342307 
4674.000000	65.352249 
4673.000000	65.342116 
4672.000000	65.312981 
4671.000000	65.268754 
4670.000000	65.214633 
4669.000000	65.155744 
4668.000000	65.096807 
4667.000000	65.042138 
4666.000000	64.995026 
4665.000000	64.958071 
4664.000000	64.932966 
4663.000000	64.920735 
4662.000000	64.920973 
4661.000000	64.931797 
4660.000000	64.949727 
4659.000000	64.970111 
4658.000000	64.987349 
4657.000000	64.995980 
4656.000000	64.992427 
4655.000000	64.975810 
4654.000000	64.948344 
4653.000000	64.914870 
4652.000000	64.882230 
4651.000000	64.857387 
4650.000000	64.845848 
4649.000000	64.849615 
4648.000000	64.866876 
4647.000000	64.891505 
4646.000000	64.915108 
4645.000000	64.928483 
4644.000000	64.923572 
4643.000000	64.895653 
4642.000000	64.844655 
4641.000000	64.775347 
4640.000000	64.696025 
4639.000000	64.616990 
4638.000000	64.548301 
4637.000000	64.497208 
4636.000000	64.466500 
4635.000000	64.454293 
4634.000000	64.454984 
4633.000000	64.460802 
4632.000000	64.463925 
4631.000000	64.458513 
4630.000000	64.442181 
4629.000000	64.416289 
4628.000000	64.385509 
4627.000000	64.355754 
4626.000000	64.332985 
4625.000000	64.321494 
4624.000000	64.323663 
4623.000000	64.339470 
4622.000000	64.367556 
4621.000000	64.406156 
4620.000000	64.453887 
4619.000000	64.510440 
4618.000000	64.575815 
4617.000000	64.649772 
4616.000000	64.730882 
4615.000000	64.815711 
4614.000000	64.899063 
4613.000000	64.974403 
4612.000000	65.035653 
4611.000000	65.078520 
4610.000000	65.101528 
4609.000000	65.106487 
4608.000000	65.097880 
4607.000000	65.082192 
4606.000000	65.064835 
4605.000000	65.049195 
4604.000000	65.035438 
4603.000000	65.020990 
4602.000000	65.001726 
4601.000000	64.973831 
4600.000000	64.935445 
4599.000000	64.888000 
4598.000000	64.836525 
4597.000000	64.788317 
4596.000000	64.751029 
4595.000000	64.730525 
4594.000000	64.728951 
4593.000000	64.744305 
4592.000000	64.770388 
4591.000000	64.799237 
4590.000000	64.822912 
4589.000000	64.836049 
4588.000000	64.836692 
4587.000000	64.827132 
4586.000000	64.812898 
4585.000000	64.801049 
4584.000000	64.797210 
4583.000000	64.804983 
4582.000000	64.824891 
4581.000000	64.854168 
4580.000000	64.887475 
4579.000000	64.918494 
4578.000000	64.941358 
4577.000000	64.951658 
4576.000000	64.947152 
4575.000000	64.928030 
4574.000000	64.896535 
4573.000000	64.856648 
4572.000000	64.813041 
4571.000000	64.770054 
4570.000000	64.731001 
4569.000000	64.698505 
4568.000000	64.673781 
4567.000000	64.657115 
4566.000000	64.647650 
4565.000000	64.644074 
4564.000000	64.644789 
4563.000000	64.647698 
4562.000000	64.650678 
4561.000000	64.651513 
4560.000000	64.648175 
4559.000000	64.639377 
4558.000000	64.624166 
4557.000000	64.602208 
4556.000000	64.573454 
4555.000000	64.538025 
4554.000000	64.496088 
4553.000000	64.448165 
4552.000000	64.395546 
4551.000000	64.340615 
4550.000000	64.286851 
4549.000000	64.238786 
4548.000000	64.201259 
4547.000000	64.178824 
4546.000000	64.174652 
4545.000000	64.190363 
4544.000000	64.225625 
4543.000000	64.278340 
4542.000000	64.344954 
4541.000000	64.420342 
4540.000000	64.497828 
4539.000000	64.570188 
4538.000000	64.630198 
4537.000000	64.671945 
4536.000000	64.691066 
4535.000000	64.686369 
4534.000000	64.660382 
4533.000000	64.618992 
4532.000000	64.570546 
4531.000000	64.524054 
4530.000000	64.488458 
4529.000000	64.469122 
4528.000000	64.466881 
4527.000000	64.478445 
4526.000000	64.497733 
4525.000000	64.517068 
4524.000000	64.528918 
4523.000000	64.529752 
4522.000000	64.520883 
4521.000000	64.505505 
4520.000000	64.487862 
4519.000000	64.471864 
4518.000000	64.460515 
4517.000000	64.455008 
4516.000000	64.455342 
4515.000000	64.462780 
4514.000000	64.478683 
4513.000000	64.501667 
4512.000000	64.530205 
4511.000000	64.561843 
4510.000000	64.595198 
4509.000000	64.630603 
4508.000000	64.669585 
4507.000000	64.713382 
4506.000000	64.763045 
4505.000000	64.818668 
4504.000000	64.879083 
4503.000000	64.939117 
4502.000000	64.997649 
4501.000000	65.058374 
4500.000000	65.131735 
4499.000000	65.231776 
4498.000000	65.377235 
4497.000000	65.585875 
4496.000000	65.865182 
4495.000000	66.208291 
4494.000000	66.591119 
4493.000000	66.978502 
4492.000000	67.327976 
4491.000000	67.605042 
4490.000000	67.796921 
4489.000000	67.916297 
4488.000000	68.002581 
4487.000000	68.104958 
4486.000000	68.271613 
4485.000000	68.525552 
4484.000000	68.857598 
4483.000000	69.220662 
4482.000000	69.545149 
4481.000000	69.750785 
4480.000000	69.779729 
4479.000000	69.598531 
4478.000000	69.211602 
4477.000000	68.654680 
4476.000000	67.989635 
4475.000000	67.284202 
4474.000000	66.598391 
4473.000000	65.971207 
4472.000000	65.418624 
4471.000000	64.931225 
4470.000000	64.484381 
4469.000000	64.055824 
4468.000000	63.637113 
4467.000000	63.235187 
4466.000000	62.871360 
4465.000000	62.571239 
4464.000000	62.354946 
4463.000000	62.226700 
4462.000000	62.171816 
4461.000000	62.146234 
4460.000000	62.099623 
4459.000000	61.981678 
4458.000000	61.774158 
4457.000000	61.484479 
4456.000000	61.170125 
4455.000000	60.929536 
4454.000000	60.876250 
4453.000000	61.110544 
4452.000000	61.678624 
4451.000000	62.548851 
4450.000000	63.614869 
4449.000000	64.706730 
4448.000000	65.655112 
4447.000000	66.331315 
4446.000000	66.699814 
4445.000000	66.827464 
4444.000000	66.867709 
4443.000000	67.011499 
4442.000000	67.431235 
4441.000000	68.221187 
4440.000000	69.359946 
4439.000000	70.703792 
4438.000000	72.030544 
4437.000000	73.086476 
4436.000000	73.660898 
4435.000000	73.628306 
4434.000000	72.990894 
4433.000000	71.860313 
4432.000000	70.420408 
4431.000000	68.880963 
4430.000000	67.421174 
4429.000000	66.164493 
4428.000000	65.172147 
4427.000000	64.443850 
4426.000000	63.955950 
4425.000000	63.663959 
4424.000000	63.530373 
4423.000000	63.523387 
4422.000000	63.610196 
4421.000000	63.766360 
4420.000000	63.962125 
4419.000000	64.171671 
4418.000000	64.364576 
4417.000000	64.523792 
4416.000000	64.644670 
4415.000000	64.734315 
4414.000000	64.806628 
4413.000000	64.878606 
4412.000000	64.963173 
4411.000000	65.061426 
4410.000000	65.162825 
4409.000000	65.251040 
4408.000000	65.308117 
4407.000000	65.324950 
4406.000000	65.300154 
4405.000000	65.244317 
4404.000000	65.171885 
4403.000000	65.093827 
4402.000000	65.016889 
4401.000000	64.940142 
4400.000000	64.859890 
4399.000000	64.778876 
4398.000000	64.700651 
4397.000000	64.628005 
4396.000000	64.565944 
4395.000000	64.521551 
4394.000000	64.500212 
4393.000000	64.503073 
4392.000000	64.528155 
4391.000000	64.570188 
4390.000000	64.622497 
4389.000000	64.678406 
4388.000000	64.732670 
4387.000000	64.781856 
4386.000000	64.825797 
4385.000000	64.866209 
4384.000000	64.904308 
4383.000000	64.939618 
4382.000000	64.969778 
4381.000000	64.990520 
4380.000000	64.997148 
4379.000000	64.985537 
4378.000000	64.954233 
4377.000000	64.904928 
4376.000000	64.843010 
4375.000000	64.776659 
4374.000000	64.715480 
4373.000000	64.668440 
4372.000000	64.642500 
4371.000000	64.640307 
4370.000000	64.659786 
4369.000000	64.694499 
4368.000000	64.735746 
4367.000000	64.774560 
4366.000000	64.803767 
4365.000000	64.819693 
4364.000000	64.822506 
4363.000000	64.815425 
4362.000000	64.803123 
4361.000000	64.789676 
4360.000000	64.777255 
4359.000000	64.765691 
4358.000000	64.752745 
4357.000000	64.735150 
4356.000000	64.710116 
4355.000000	64.676928 
4354.000000	64.637804 
4353.000000	64.597344 
4352.000000	64.562129 
4351.000000	64.539122 
4350.000000	64.534115 
4349.000000	64.550065 
4348.000000	64.586329 
4347.000000	64.638471 
4346.000000	64.699101 
4345.000000	64.759826 
4344.000000	64.812374 
4343.000000	64.850330 
4342.000000	64.870095 
4341.000000	64.871716 
4340.000000	64.857721 
4339.000000	64.832139 
4338.000000	64.799404 
4337.000000	64.763569 
4336.000000	64.727497 
4335.000000	64.692711 
4334.000000	64.660024 
4333.000000	64.629673 
4332.000000	64.601850 
4331.000000	64.577031 
4330.000000	64.555668 
4329.000000	64.538502 
4328.000000	64.525675 
4327.000000	64.517259 
4326.000000	64.512538 
4325.000000	64.511084 
4324.000000	64.512372 
4323.000000	64.516973 
4322.000000	64.525747 
4321.000000	64.540719 
4320.000000	64.563798 
4319.000000	64.597058 
4318.000000	64.641261 
4317.000000	64.695954 
4316.000000	64.759087 
4315.000000	64.827203 
4314.000000	64.895868 
4313.000000	64.960741 
4312.000000	65.018391 
4311.000000	65.066766 
4310.000000	65.105271 
4309.000000	65.134644 
4308.000000	65.156364 
4307.000000	65.172410 
4306.000000	65.184497 
4305.000000	65.193581 
4304.000000	65.199518 
4303.000000	65.202021 
4302.000000	65.200376 
4301.000000	65.194225 
4300.000000	65.183377 
4299.000000	65.168404 
4298.000000	65.150427 
4297.000000	65.131115 
4296.000000	65.112090 
4295.000000	65.094947 
4294.000000	65.080833 
4293.000000	65.070676 
4292.000000	65.064573 
4291.000000	65.061974 
4290.000000	65.061402 
4289.000000	65.060925 
4288.000000	65.058183 
4287.000000	65.050816 
4286.000000	65.037417 
4285.000000	65.017771 
4284.000000	64.993619 
4283.000000	64.968109 
4282.000000	64.945578 
4281.000000	64.930486 
4280.000000	64.926290 
4279.000000	64.934468 
4278.000000	64.953994 
4277.000000	64.981269 
4276.000000	65.011048 
4275.000000	65.037155 
4274.000000	65.054178 
4273.000000	65.058517 
4272.000000	65.049242 
4271.000000	65.027904 
4270.000000	64.998149 
4269.000000	64.964652 
4268.000000	64.931917 
4267.000000	64.903569 
4266.000000	64.881420 
4265.000000	64.866018 
4264.000000	64.856648 
4263.000000	64.852476 
4262.000000	64.853000 
4261.000000	64.858627 
4260.000000	64.870285 
4259.000000	64.889526 
4258.000000	64.917564 
4257.000000	64.955019 
4256.000000	65.001034 
4255.000000	65.053462 
4254.000000	65.109086 
4253.000000	65.164208 
4252.000000	65.215182 
4251.000000	65.259003 
4250.000000	65.293478 
4249.000000	65.317726 
4248.000000	65.331888 
4247.000000	65.336942 
4246.000000	65.334320 
4245.000000	65.326189 
4244.000000	65.314936 
4243.000000	65.303707 
4242.000000	65.295147 
4241.000000	65.292263 
4240.000000	65.296459 
4239.000000	65.307855 
4238.000000	65.324401 
4237.000000	65.342640 
4236.000000	65.357899 
4235.000000	65.365481 
4234.000000	65.362095 
4233.000000	65.346622 
4232.000000	65.320301 
4231.000000	65.286660 
4230.000000	65.250444 
4229.000000	65.216517 
4228.000000	65.188980 
4227.000000	65.170407 
4226.000000	65.161371 
4225.000000	65.160489 
4224.000000	65.165638 
4223.000000	65.174579 
4222.000000	65.185427 
4221.000000	65.197110 
4220.000000	65.209269 
4219.000000	65.222334 
4218.000000	65.236449 
4217.000000	65.251636 
4216.000000	65.267586 
4215.000000	65.283584 
4214.000000	65.299105 
4213.000000	65.313434 
4212.000000	65.326380 
4211.000000	65.338039 
4210.000000	65.348434 
4209.000000	65.358018 
4208.000000	65.367627 
4207.000000	65.377783 
4206.000000	65.388870 
4205.000000	65.400123 
4204.000000	65.410161 
4203.000000	65.416264 
4202.000000	65.415453 
4201.000000	65.404629 
4200.000000	65.381669 
4199.000000	65.345954 
4198.000000	65.299272 
4197.000000	65.245294 
4196.000000	65.189409 
4195.000000	65.137839 
4194.000000	65.096831 
4193.000000	65.071535 
4192.000000	65.065073 
4191.000000	65.078234 
4190.000000	65.108752 
4189.000000	65.151953 
4188.000000	65.200591 
4187.000000	65.246510 
4186.000000	65.281152 
4185.000000	65.296912 
4184.000000	65.288472 
4183.000000	65.253281 
4182.000000	65.193128 
4181.000000	65.113687 
4180.000000	65.023994 
4179.000000	64.935183 
4178.000000	64.858365 
4177.000000	64.803004 
4176.000000	64.774751 
4175.000000	64.774799 
4174.000000	64.799594 
4173.000000	64.841890 
4172.000000	64.892387 
4171.000000	64.941883 
4170.000000	64.982843 
4169.000000	65.011191 
4168.000000	65.026450 
4167.000000	65.031766 
4166.000000	65.032529 
4165.000000	65.035104 
4164.000000	65.045332 
4163.000000	65.066814 
4162.000000	65.100431 
4161.000000	65.143632 
4160.000000	65.191984 
4159.000000	65.239238 
4158.000000	65.279364 
4157.000000	65.307092 
4156.000000	65.319204 
4155.000000	65.314650 
4154.000000	65.294742 
4153.000000	65.262699 
4152.000000	65.222764 
4151.000000	65.179610 
4150.000000	65.137529 
4149.000000	65.100002 
4148.000000	65.069866 
4147.000000	65.048503 
4146.000000	65.036082 
4145.000000	65.032052 
4144.000000	65.035462 
4143.000000	65.044903 
4142.000000	65.058755 
4141.000000	65.075278 
4140.000000	65.092825 
4139.000000	65.109634 
4138.000000	65.124154 
4137.000000	65.134906 
4136.000000	65.140843 
4135.000000	65.141439 
4134.000000	65.136885 
4133.000000	65.128159 
4132.000000	65.116763 
4131.000000	65.104651 
4130.000000	65.093731 
4129.000000	65.085196 
4128.000000	65.079641 
4127.000000	65.077185 
4126.000000	65.077424 
4125.000000	65.079545 
4124.000000	65.083456 
4123.000000	65.090012 
4122.000000	65.101218 
4121.000000	65.119552 
4120.000000	65.147471 
4119.000000	65.186429 
4118.000000	65.236306 
4117.000000	65.295171 
4116.000000	65.359401 
4115.000000	65.424466 
4114.000000	65.485930 
4113.000000	65.539956 
4112.000000	65.584421 
4111.000000	65.618753 
4110.000000	65.643978 
4109.000000	65.661692 
4108.000000	65.674018 
4107.000000	65.682220 
4106.000000	65.686845 
4105.000000	65.687012 
4104.000000	65.681266 
4103.000000	65.667414 
4102.000000	65.643930 
4101.000000	65.609788 
4100.000000	65.565276 
4099.000000	65.511989 
4098.000000	65.453004 
4097.000000	65.392708 
4096.000000	65.336275 
4095.000000	65.288853 
4094.000000	65.254783 
4093.000000	65.236425 
4092.000000	65.233588 
4091.000000	65.243172 
4090.000000	65.260004 
4089.000000	65.277910 
4088.000000	65.291094 
4087.000000	65.295481 
4086.000000	65.289330 
4085.000000	65.273404 
4084.000000	65.250778 
4083.000000	65.225195 
4082.000000	65.200591 
4081.000000	65.180206 
4080.000000	65.166139 
4079.000000	65.158557 
4078.000000	65.156698 
4077.000000	65.159273 
4076.000000	65.165066 
4075.000000	65.172910 
4074.000000	65.182304 
4073.000000	65.193033 
4072.000000	65.205335 
4071.000000	65.219449 
4070.000000	65.235424 
4069.000000	65.252852 
4068.000000	65.271234 
4067.000000	65.290164 
4066.000000	65.309071 
4065.000000	65.327239 
4064.000000	65.344214 
4063.000000	65.359973 
4062.000000	65.374684 
4061.000000	65.388631 
4060.000000	65.402650 
4059.000000	65.417194 
4058.000000	65.432453 
4057.000000	65.447378 
4056.000000	65.460276 
4055.000000	65.467643 
4054.000000	65.465593 
4053.000000	65.449881 
4052.000000	65.417242 
4051.000000	65.366411 
4050.000000	65.298604 
4049.000000	65.218424 
4048.000000	65.133023 
4047.000000	65.051651 
4046.000000	64.984083 
4045.000000	64.938950 
4044.000000	64.921760 
4043.000000	64.934301 
4042.000000	64.974236 
4041.000000	65.035438 
4040.000000	65.109205 
4039.000000	65.185976 
4038.000000	65.257239 
4037.000000	65.316414 
4036.000000	65.359711 
4035.000000	65.386271 
4034.000000	65.397405 
4033.000000	65.395784 
4032.000000	65.384435 
4031.000000	65.366053 
4030.000000	65.342307 
4029.000000	65.314817 
4028.000000	65.284419 
4027.000000	65.252399 
4026.000000	65.219879 
4025.000000	65.188765 
4024.000000	65.160655 
4023.000000	65.136671 
4022.000000	65.117073 
4021.000000	65.101027 
4020.000000	65.087199 
4019.000000	65.073418 
4018.000000	65.058231 
4017.000000	65.040946 
4016.000000	65.022110 
4015.000000	65.003228 
4014.000000	64.986538 
4013.000000	64.974260 
4012.000000	64.968228 
4011.000000	64.969086 
4010.000000	64.976263 
4009.000000	64.988064 
4008.000000	65.002632 
4007.000000	65.018463 
4006.000000	65.034484 
4005.000000	65.050387 
4004.000000	65.066838 
4003.000000	65.085172 
4002.000000	65.106439 
4001.000000	65.131449 
4000.000000	65.160083 
3999.000000	65.191483 
3998.000000	65.224337 
3997.000000	65.256762 
3996.000000	65.286827 
3995.000000	65.312480 
3994.000000	65.332317 
3993.000000	65.345168 
3992.000000	65.350341 
3991.000000	65.347671 
3990.000000	65.337848 
3989.000000	65.321922 
3988.000000	65.301513 
3987.000000	65.278530 
3986.000000	65.255188 
3985.000000	65.232992 
3984.000000	65.212678 
3983.000000	65.194082 
3982.000000	65.176248 
3981.000000	65.157532 
3980.000000	65.136265 
3979.000000	65.111327 
3978.000000	65.082859 
3977.000000	65.052247 
3976.000000	65.022230 
3975.000000	64.996242 
3974.000000	64.977765 
3973.000000	64.969420 
3972.000000	64.972639 
3971.000000	64.986729 
3970.000000	65.009284 
3969.000000	65.036511 
3968.000000	65.064191 
3967.000000	65.087914 
3966.000000	65.104627 
3965.000000	65.113186 
3964.000000	65.114378 
3963.000000	65.110445 
3962.000000	65.105032 
3961.000000	65.102362 
3960.000000	65.106368 
3959.000000	65.119957 
3958.000000	65.144562 
3957.000000	65.179872 
3956.000000	65.224170 
3955.000000	65.274572 
3954.000000	65.327572 
3953.000000	65.379691 
3952.000000	65.427684 
3951.000000	65.469002 
3950.000000	65.501928 
3949.000000	65.525579 
3948.000000	65.539884 
3947.000000	65.545296 
3946.000000	65.543055 
3945.000000	65.534210 
3944.000000	65.520668 
3943.000000	65.503311 
3942.000000	65.483045 
3941.000000	65.459299 
3940.000000	65.431547 
3939.000000	65.398478 
3938.000000	65.359044 
3937.000000	65.312743 
3936.000000	65.260219 
3935.000000	65.203714 
3934.000000	65.146875 
3933.000000	65.094113 
3932.000000	65.049886 
3931.000000	65.017342 
3930.000000	64.997577 
3929.000000	64.989256 
3928.000000	64.988756 
3927.000000	64.990901 
3926.000000	64.990282 
3925.000000	64.982223 
3924.000000	64.963984 
3923.000000	64.935350 
3922.000000	64.898943 
3921.000000	64.858627 
3920.000000	64.819693 
3919.000000	64.787364 
3918.000000	64.766383 
3917.000000	64.759826 
3916.000000	64.769005 
3915.000000	64.793610 
3914.000000	64.831590 
3913.000000	64.879560 
3912.000000	64.933204 
3911.000000	64.987564 
3910.000000	65.038084 
3909.000000	65.080642 
3908.000000	65.112972 
3907.000000	65.134596 
3906.000000	65.147304 
3905.000000	65.154600 
3904.000000	65.160822 
3903.000000	65.170168 
3902.000000	65.185475 
3901.000000	65.207672 
3900.000000	65.234994 
3899.000000	65.263462 
3898.000000	65.288233 
3897.000000	65.304946 
3896.000000	65.310788 
3895.000000	65.305233 
3894.000000	65.290546 
3893.000000	65.270876 
3892.000000	65.251374 
3891.000000	65.236496 
3890.000000	65.229225 
3889.000000	65.230178 
3888.000000	65.237641 
3887.000000	65.248346 
3886.000000	65.258741 
3885.000000	65.265798 
3884.000000	65.267753 
3883.000000	65.264225 
3882.000000	65.255784 
3881.000000	65.243530 
3880.000000	65.228390 
3879.000000	65.210843 
3878.000000	65.190482 
3877.000000	65.167498 
3876.000000	65.143013 
3875.000000	65.119528 
3874.000000	65.100741 
3873.000000	65.091013 
3872.000000	65.094065 
3871.000000	65.111684 
3870.000000	65.142774 
3869.000000	65.182924 
3868.000000	65.225434 
3867.000000	65.262341 
3866.000000	65.287208 
3865.000000	65.295958 
3864.000000	65.288710 
3863.000000	65.269565 
3862.000000	65.245676 
3861.000000	65.225291 
3860.000000	65.215587 
3859.000000	65.221095 
3858.000000	65.242123 
3857.000000	65.275239 
3856.000000	65.313839 
3855.000000	65.350317 
3854.000000	65.377378 
3853.000000	65.390062 
3852.000000	65.386438 
3851.000000	65.367555 
3850.000000	65.336871 
3849.000000	65.299081 
3848.000000	65.259122 
3847.000000	65.221428 
3846.000000	65.189361 
3845.000000	65.165328 
3844.000000	65.150928 
3843.000000	65.147280 
3842.000000	65.154957 
3841.000000	65.173983 
3840.000000	65.203356 
3839.000000	65.241312 
3838.000000	65.284943 
3837.000000	65.330672 
3836.000000	65.374588 
3835.000000	65.412521 
3834.000000	65.440773 
3833.000000	65.456342 
3832.000000	65.457463 
3831.000000	65.443778 
3830.000000	65.416669 
3829.000000	65.379071 
3828.000000	65.335249 
3827.000000	65.290236 
3826.000000	65.249204 
3825.000000	65.216684 
3824.000000	65.195870 
3823.000000	65.188145 
3822.000000	65.193200 
3821.000000	65.208506 
3820.000000	65.230321 
3819.000000	65.253853 
3818.000000	65.274262 
3817.000000	65.287446 
3816.000000	65.290784 
3815.000000	65.283083 
3814.000000	65.265250 
3813.000000	65.239810 
3812.000000	65.210962 
3811.000000	65.183854 
3810.000000	65.163826 
3809.000000	65.155625 
3808.000000	65.161895 
3807.000000	65.183091 
3806.000000	65.216469 
3805.000000	65.256905 
3804.000000	65.297436 
3803.000000	65.330958 
3802.000000	65.351390 
3801.000000	65.355086 
3800.000000	65.341377 
3799.000000	65.312361 
3798.000000	65.272498 
3797.000000	65.227460 
3796.000000	65.183162 
3795.000000	65.144324 
3794.000000	65.114283 
3793.000000	65.094661 
3792.000000	65.085577 
3791.000000	65.085744 
3790.000000	65.093421 
3789.000000	65.106511 
3788.000000	65.122842 
3787.000000	65.140438 
3786.000000	65.157246 
3785.000000	65.171599 
3784.000000	65.181922 
3783.000000	65.187358 
3782.000000	65.187811 
3781.000000	65.184068 
3780.000000	65.177631 
3779.000000	65.170621 
3778.000000	65.165400 
3777.000000	65.164041 
3776.000000	65.167999 
3775.000000	65.177559 
3774.000000	65.192055 
3773.000000	65.209698 
3772.000000	65.228247 
3771.000000	65.245151 
3770.000000	65.258049 
3769.000000	65.265202 
3768.000000	65.266108 
3767.000000	65.261197 
3766.000000	65.251994 
3765.000000	65.241003 
3764.000000	65.231108 
3763.000000	65.225243 
3762.000000	65.225839 
3761.000000	65.234661 
3760.000000	65.252447 
3759.000000	65.278649 
3758.000000	65.311670 
3757.000000	65.348958 
3756.000000	65.387630 
3755.000000	65.424561 
3754.000000	65.457057 
3753.000000	65.483307 
3752.000000	65.502262 
3751.000000	65.513849 
3750.000000	65.518546 
3749.000000	65.517187 
3748.000000	65.510702 
3747.000000	65.499997 
3746.000000	65.485763 
3745.000000	65.468621 
3744.000000	65.449047 
3743.000000	65.427827 
3742.000000	65.405511 
3741.000000	65.382456 
3740.000000	65.358448 
3739.000000	65.332984 
3738.000000	65.304994 
3737.000000	65.273618 
3736.000000	65.238237 
3735.000000	65.199184 
3734.000000	65.157961 
3733.000000	65.117263 
3732.000000	65.080499 
3731.000000	65.051126 
3730.000000	65.031933 
3729.000000	65.024256 
3728.000000	65.027379 
3727.000000	65.039086 
3726.000000	65.055775 
3725.000000	65.073657 
3724.000000	65.089201 
3723.000000	65.100550 
3722.000000	65.107393 
3721.000000	65.111255 
3720.000000	65.114450 
3719.000000	65.119695 
3718.000000	65.128993 
3717.000000	65.143346 
3716.000000	65.162420 
3715.000000	65.184664 
3714.000000	65.207791 
3713.000000	65.229535 
3712.000000	65.248131 
3711.000000	65.262532 
3710.000000	65.272307 
3709.000000	65.277767 
3708.000000	65.279603 
3707.000000	65.278267 
3706.000000	65.274238 
3705.000000	65.268111 
3704.000000	65.260744 
3703.000000	65.253663 
3702.000000	65.248799 
3701.000000	65.248537 
3700.000000	65.255022 
3699.000000	65.269589 
3698.000000	65.292310 
3697.000000	65.321493 
3696.000000	65.354180 
3695.000000	65.386795 
3694.000000	65.415763 
3693.000000	65.438413 
3692.000000	65.453171 
3691.000000	65.460109 
3690.000000	65.460181 
3689.000000	65.454983 
3688.000000	65.446186 
3687.000000	65.435171 
3686.000000	65.422964 
3685.000000	65.410327 
3684.000000	65.398216 
3683.000000	65.388035 
3682.000000	65.381622 
3681.000000	65.380883 
3680.000000	65.387558 
3679.000000	65.402221 
3678.000000	65.424084 
3677.000000	65.450477 
3676.000000	65.477156 
3675.000000	65.499019 
3674.000000	65.511226 
3673.000000	65.510106 
3672.000000	65.493798 
3671.000000	65.462803 
3670.000000	65.419840 
3669.000000	65.369582 
3668.000000	65.317559 
3667.000000	65.269279 
3666.000000	65.229296 
3665.000000	65.200448 
3664.000000	65.183830 
3663.000000	65.178370 
3662.000000	65.181636 
3661.000000	65.190076 
3660.000000	65.200066 
3659.000000	65.208244 
3658.000000	65.212130 
3657.000000	65.210342 
3656.000000	65.203118 
3655.000000	65.191841 
3654.000000	65.179109 
3653.000000	65.168023 
3652.000000	65.161943 
3651.000000	65.163898 
3650.000000	65.175819 
3649.000000	65.198397 
3648.000000	65.230560 
3647.000000	65.269875 
3646.000000	65.312337 
3645.000000	65.353155 
3644.000000	65.387392 
3643.000000	65.410947 
3642.000000	65.421390 
3641.000000	65.418481 
3640.000000	65.404582 
3639.000000	65.384030 
3638.000000	65.362167 
3637.000000	65.344285 
3636.000000	65.334320 
3635.000000	65.334391 
3634.000000	65.344190 
3633.000000	65.361022 
3632.000000	65.380883 
3631.000000	65.399408 
3630.000000	65.412592 
3629.000000	65.418004 
3628.000000	65.414571 
3627.000000	65.402889 
3626.000000	65.385055 
3625.000000	65.364074 
3624.000000	65.343022 
3623.000000	65.324616 
3622.000000	65.311098 
3621.000000	65.303635 
3620.000000	65.302705 
3619.000000	65.307760 
3618.000000	65.317559 
3617.000000	65.330481 
3616.000000	65.344405 
3615.000000	65.357542 
3614.000000	65.368366 
3613.000000	65.376210 
3612.000000	65.381026 
3611.000000	65.383768 
3610.000000	65.385890 
3609.000000	65.389060 
3608.000000	65.394687 
3607.000000	65.403294 
3606.000000	65.414309 
3605.000000	65.425872 
3604.000000	65.435266 
3603.000000	65.439343 
3602.000000	65.435075 
3601.000000	65.420269 
3600.000000	65.394139 
3599.000000	65.357804 
3598.000000	65.313982 
3597.000000	65.266656 
3596.000000	65.220236 
3595.000000	65.179085 
3594.000000	65.146684 
3593.000000	65.124893 
3592.000000	65.114426 
3591.000000	65.114283 
3590.000000	65.122842 
3589.000000	65.137743 
3588.000000	65.156841 
3587.000000	65.178132 
3586.000000	65.200400 
3585.000000	65.222692 
3584.000000	65.244555 
3583.000000	65.265583 
3582.000000	65.285325 
3581.000000	65.303063 
3580.000000	65.317797 
3579.000000	65.328359 
3578.000000	65.333771 
3577.000000	65.333247 
3576.000000	65.326404 
3575.000000	65.313291 
3574.000000	65.294599 
3573.000000	65.271353 
3572.000000	65.245151 
3571.000000	65.217566 
3570.000000	65.190267 
3569.000000	65.164351 
3568.000000	65.140366 
3567.000000	65.118169 
3566.000000	65.097379 
3565.000000	65.077638 
3564.000000	65.058732 
3563.000000	65.041327 
3562.000000	65.026688 
3561.000000	65.016746 
3560.000000	65.013337 
3559.000000	65.017724 
3558.000000	65.029883 
3557.000000	65.048408 
3556.000000	65.070843 
3555.000000	65.093946 
3554.000000	65.114426 
3553.000000	65.129995 
3552.000000	65.139818 
3551.000000	65.144681 
3550.000000	65.146684 
3549.000000	65.148305 
3548.000000	65.151739 
3547.000000	65.157961 
3546.000000	65.166616 
3545.000000	65.176415 
3544.000000	65.185308 
3543.000000	65.191817 
3542.000000	65.195035 
3541.000000	65.194988 
3540.000000	65.192389 
3539.000000	65.188384 
3538.000000	65.184092 
3537.000000	65.180158 
3536.000000	65.176558 
3535.000000	65.172743 
3534.000000	65.167927 
3533.000000	65.161275 
3532.000000	65.152478 
3531.000000	65.141916 
3530.000000	65.130972 
3529.000000	65.121769 
3528.000000	65.116763 
3527.000000	65.118169 
3526.000000	65.127348 
3525.000000	65.144491 
3524.000000	65.168190 
3523.000000	65.195655 
3522.000000	65.223240 
3521.000000	65.247321 
3520.000000	65.264940 
3519.000000	65.274333 
3518.000000	65.275001 
3517.000000	65.267944 
3516.000000	65.255141 
3515.000000	65.239095 
3514.000000	65.222120 
3513.000000	65.205812 
3512.000000	65.191078 
3511.000000	65.177869 
3510.000000	65.166068 
3509.000000	65.155267 
3508.000000	65.145587 
3507.000000	65.137457 
3506.000000	65.131616 
3505.000000	65.128707 
3504.000000	65.129065 
3503.000000	65.132164 
3502.000000	65.136694 
3501.000000	65.140533 
3500.000000	65.141153 
3499.000000	65.136218 
3498.000000	65.124177 
3497.000000	65.104985 
3496.000000	65.080189 
3495.000000	65.053367 
3494.000000	65.029454 
3493.000000	65.013933 
3492.000000	65.011477 
3491.000000	65.024948 
3490.000000	65.054273 
3489.000000	65.096449 
3488.000000	65.145611 
3487.000000	65.194344 
3486.000000	65.235137 
3485.000000	65.262103 
3484.000000	65.272068 
3483.000000	65.265130 
3482.000000	65.244412 
3481.000000	65.215349 
3480.000000	65.184092 
3479.000000	65.155982 
3478.000000	65.134453 
3477.000000	65.120673 
3476.000000	65.113425 
3475.000000	65.110182 
3474.000000	65.107989 
3473.000000	65.104675 
3472.000000	65.099191 
3471.000000	65.091848 
3470.000000	65.083837 
3469.000000	65.076923 
3468.000000	65.072584 
3467.000000	65.071654 
3466.000000	65.074181 
3465.000000	65.079665 
3464.000000	65.087199 
3463.000000	65.096187 
3462.000000	65.106320 
3461.000000	65.117764 
3460.000000	65.131068 
3459.000000	65.146636 
3458.000000	65.164446 
3457.000000	65.183782 
3456.000000	65.203309 
3455.000000	65.221095 
3454.000000	65.235018 
3453.000000	65.243315 
3452.000000	65.245175 
3451.000000	65.240979 
3450.000000	65.232253 
3449.000000	65.221762 
3448.000000	65.212583 
3447.000000	65.207862 
3446.000000	65.210080 
3445.000000	65.220642 
3444.000000	65.239381 
3443.000000	65.264606 
3442.000000	65.293335 
3441.000000	65.321707 
3440.000000	65.345764 
3439.000000	65.361928 
3438.000000	65.367865 
3437.000000	65.362811 
3436.000000	65.347552 
3435.000000	65.324568 
3434.000000	65.297174 
3433.000000	65.269255 
3432.000000	65.244245 
3431.000000	65.224695 
3430.000000	65.211915 
3429.000000	65.206146 
3428.000000	65.206718 
3427.000000	65.212440 
3426.000000	65.222001 
3425.000000	65.234327 
3424.000000	65.248775 
3423.000000	65.264749 
3422.000000	65.281677 
3421.000000	65.298914 
3420.000000	65.315365 
3419.000000	65.329456 
3418.000000	65.339660 
3417.000000	65.344691 
3416.000000	65.343976 
3415.000000	65.337824 
3414.000000	65.327334 
3413.000000	65.314197 
3412.000000	65.300273 
3411.000000	65.287113 
3410.000000	65.275692 
3409.000000	65.266060 
3408.000000	65.257573 
3407.000000	65.248847 
3406.000000	65.238308 
3405.000000	65.224719 
3404.000000	65.207529 
3403.000000	65.187549 
3402.000000	65.166282 
3401.000000	65.146255 
3400.000000	65.130233 
3399.000000	65.120649 
3398.000000	65.118718 
3397.000000	65.124011 
3396.000000	65.134382 
3395.000000	65.146350 
3394.000000	65.155959 
3393.000000	65.159416 
3392.000000	65.154194 
3391.000000	65.139937 
3390.000000	65.118479 
3389.000000	65.093493 
3388.000000	65.069580 
3387.000000	65.051245 
3386.000000	65.041708 
3385.000000	65.042114 
3384.000000	65.051531 
3383.000000	65.067481 
3382.000000	65.086746 
3381.000000	65.106272 
3380.000000	65.124225 
3379.000000	65.140295 
3378.000000	65.155696 
3377.000000	65.172219 
3376.000000	65.191626 
3375.000000	65.214967 
3374.000000	65.241646 
3373.000000	65.269780 
3372.000000	65.296053 
3371.000000	65.316653 
3370.000000	65.327906 
3369.000000	65.327692 
3368.000000	65.315198 
3367.000000	65.291285 
3366.000000	65.258264 
3365.000000	65.219616 
3364.000000	65.179276 
3363.000000	65.141010 
3362.000000	65.108013 
3361.000000	65.082406 
3360.000000	65.065050 
3359.000000	65.055537 
3358.000000	65.052247 
3357.000000	65.052771 
3356.000000	65.054225 
3355.000000	65.053915 
3354.000000	65.049552 
3353.000000	65.040159 
3352.000000	65.025472 
3351.000000	65.006637 
3350.000000	64.985084 
3349.000000	64.963150 
3348.000000	64.943027 
3347.000000	64.926958 
3346.000000	64.916586 
3345.000000	64.913392 
3344.000000	64.918565 
3343.000000	64.933180 
3342.000000	64.957594 
3341.000000	64.991593 
3340.000000	65.033888 
3339.000000	65.081882 
3338.000000	65.131807 
3337.000000	65.178966 
3336.000000	65.218377 
3335.000000	65.245699 
3334.000000	65.258216 
3333.000000	65.255236 
3332.000000	65.238261 
3331.000000	65.211081 
3330.000000	65.179014 
3329.000000	65.148019 
3328.000000	65.123462 
3327.000000	65.109586 
3326.000000	65.108561 
3325.000000	65.120506 
3324.000000	65.143299 
3323.000000	65.173506 
3322.000000	65.206599 
3321.000000	65.237760 
3320.000000	65.262579 
3319.000000	65.277671 
3318.000000	65.281033 
3317.000000	65.272164 
3316.000000	65.252161 
3315.000000	65.223693 
3314.000000	65.190243 
3313.000000	65.155911 
3312.000000	65.124654 
3311.000000	65.099835 
3310.000000	65.083885 
3309.000000	65.078139 
3308.000000	65.082383 
3307.000000	65.095138 
3306.000000	65.113902 
3305.000000	65.135741 
3304.000000	65.157365 
3303.000000	65.175938 
3302.000000	65.189242 
3301.000000	65.196514 
3300.000000	65.198063 
3299.000000	65.195512 
3298.000000	65.191364 
3297.000000	65.188527 
3296.000000	65.189933 
3295.000000	65.197706 
3294.000000	65.212702 
3293.000000	65.234518 
3292.000000	65.261530 
3291.000000	65.291261 
3290.000000	65.321207 
3289.000000	65.349149 
3288.000000	65.373563 
3287.000000	65.393590 
3286.000000	65.408825 
3285.000000	65.418982 
3284.000000	65.423822 
3283.000000	65.422391 
3282.000000	65.413665 
3281.000000	65.396666 
3280.000000	65.371108 
3279.000000	65.337896 
3278.000000	65.299248 
3277.000000	65.258574 
3276.000000	65.220093 
3275.000000	65.187907 
3274.000000	65.165328 
3273.000000	65.153765 
3272.000000	65.153026 
3271.000000	65.161180 
3270.000000	65.175461 
3269.000000	65.192413 
3268.000000	65.208911 
3267.000000	65.222287 
3266.000000	65.231132 
3265.000000	65.234637 
3264.000000	65.233230 
3263.000000	65.228033 
3262.000000	65.220689 
3261.000000	65.213060 
3260.000000	65.206694 
3259.000000	65.202879 
3258.000000	65.201950 
3257.000000	65.203619 
3256.000000	65.206718 
3255.000000	65.209746 
3254.000000	65.210986 
3253.000000	65.209245 
3252.000000	65.203928 
3251.000000	65.195274 
3250.000000	65.184259 
3249.000000	65.172338 
3248.000000	65.160632 
3247.000000	65.149903 
3246.000000	65.140175 
3245.000000	65.130972 
3244.000000	65.121674 
3243.000000	65.111851 
3242.000000	65.101933 
3241.000000	65.092921 
3240.000000	65.086364 
3239.000000	65.083765 
3238.000000	65.085911 
3237.000000	65.093159 
3236.000000	65.104818 
3235.000000	65.119910 
3234.000000	65.136981 
3233.000000	65.154981 
3232.000000	65.173602 
3231.000000	65.193128 
3230.000000	65.214228 
3229.000000	65.237522 
3228.000000	65.263032 
3227.000000	65.289950 
3226.000000	65.316390 
3225.000000	65.339970 
3224.000000	65.358209 
3223.000000	65.369224 
3222.000000	65.372204 
3221.000000	65.367627 
3220.000000	65.357184 
3219.000000	65.343236 
3218.000000	65.328288 
3217.000000	65.314841 
3216.000000	65.304327 
3215.000000	65.297651 
3214.000000	65.294647 
3213.000000	65.294480 
3212.000000	65.295863 
3211.000000	65.297412 
3210.000000	65.298080 
3209.000000	65.297055 
3208.000000	65.293955 
3207.000000	65.288901 
3206.000000	65.282249 
3205.000000	65.274381 
3204.000000	65.265822 
3203.000000	65.257072 
3202.000000	65.248680 
3201.000000	65.241146 
3200.000000	65.234923 
3199.000000	65.230274 
3198.000000	65.227341 
3197.000000	65.225744 
3196.000000	65.224647 
3195.000000	65.222620 
3194.000000	65.218162 
3193.000000	65.209722 
3192.000000	65.196061 
3191.000000	65.176725 
3190.000000	65.152359 
3189.000000	65.124845 
3188.000000	65.096926 
3187.000000	65.071773 
3186.000000	65.052366 
3185.000000	65.041160 
3184.000000	65.039300 
3183.000000	65.046906 
3182.000000	65.062832 
3181.000000	65.085387 
3180.000000	65.112590 
3179.000000	65.142774 
3178.000000	65.174460 
3177.000000	65.206766 
3176.000000	65.239071 
3175.000000	65.270829 
3174.000000	65.301251 
3173.000000	65.329289 
3172.000000	65.353512 
3171.000000	65.372419 
3170.000000	65.384483 
3169.000000	65.388798 
3168.000000	65.385222 
3167.000000	65.374398 
3166.000000	65.357661 
3165.000000	65.336871 
3164.000000	65.314149 
3163.000000	65.291452 
3162.000000	65.270471 
3161.000000	65.252399 
3160.000000	65.237808 
3159.000000	65.226984 
3158.000000	65.219974 
3157.000000	65.216684 
3156.000000	65.217256 
3155.000000	65.221858 
3154.000000	65.230584 
3153.000000	65.243363 
3152.000000	65.259671 
3151.000000	65.278172 
3150.000000	65.296769 
3149.000000	65.312933 
3148.000000	65.324044 
3147.000000	65.328073 
3146.000000	65.323996 
3145.000000	65.311813 
3144.000000	65.293073 
3143.000000	65.270042 
3142.000000	65.245437 
3141.000000	65.221691 
3140.000000	65.200448 
3139.000000	65.182280 
3138.000000	65.166783 
3137.000000	65.152764 
3136.000000	65.138673 
3135.000000	65.123510 
3134.000000	65.106844 
3133.000000	65.089654 
3132.000000	65.073561 
3131.000000	65.061116 
3130.000000	65.054988 
3129.000000	65.057492 
3128.000000	65.069699 
3127.000000	65.091419 
3126.000000	65.121102 
3125.000000	65.155959 
3124.000000	65.192532 
3123.000000	65.226984 
3122.000000	65.255951 
3121.000000	65.276575 
3120.000000	65.287017 
3119.000000	65.286469 
3118.000000	65.275287 
3117.000000	65.254878 
3116.000000	65.227651 
3115.000000	65.196633 
3114.000000	65.165185 
3113.000000	65.136551 
3112.000000	65.113306 
3111.000000	65.097284 
3110.000000	65.089249 
3109.000000	65.089011 
3108.000000	65.095758 
3107.000000	65.108036 
3106.000000	65.124607 
3105.000000	65.144181 
3104.000000	65.165901 
3103.000000	65.189170 
3102.000000	65.213418 
3101.000000	65.238022 
3100.000000	65.262079 
3099.000000	65.284609 
3098.000000	65.304613 
3097.000000	65.321135 
3096.000000	65.333580 
3095.000000	65.341949 
3094.000000	65.346360 
3093.000000	65.347313 
3092.000000	65.345191 
3091.000000	65.340137 
3090.000000	65.332317 
3089.000000	65.322017 
3088.000000	65.309596 
3087.000000	65.295505 
3086.000000	65.280342 
3085.000000	65.264701 
3084.000000	65.249109 
3083.000000	65.233922 
3082.000000	65.219306 
3081.000000	65.205597 
3080.000000	65.192890 
3079.000000	65.181756 
3078.000000	65.172886 
3077.000000	65.167284 
3076.000000	65.165829 
3075.000000	65.169024 
3074.000000	65.176820 
3073.000000	65.188574 
3072.000000	65.202951 
3071.000000	65.218424 
3070.000000	65.233492 
3069.000000	65.246987 
3068.000000	65.258288 
3067.000000	65.266942 
3066.000000	65.272569 
3065.000000	65.274572 
3064.000000	65.272092 
3063.000000	65.264511 
3062.000000	65.251612 
3061.000000	65.233969 
3060.000000	65.212798 
3059.000000	65.190339 
3058.000000	65.168762 
3057.000000	65.150141 
3056.000000	65.135550 
3055.000000	65.124893 
3054.000000	65.117049 
3053.000000	65.109992 
3052.000000	65.101814 
3051.000000	65.091013 
3050.000000	65.077567 
3049.000000	65.062808 
3048.000000	65.049672 
3047.000000	65.041399 
3046.000000	65.041351 
3045.000000	65.051817 
3044.000000	65.073513 
3043.000000	65.105223 
3042.000000	65.143990 
3041.000000	65.185618 
3040.000000	65.225243 
3039.000000	65.258145 
3038.000000	65.280389 
3037.000000	65.289568 
3036.000000	65.284943 
3035.000000	65.267372 
3034.000000	65.239334 
3033.000000	65.204238 
3032.000000	65.165781 
3031.000000	65.127348 
3030.000000	65.091753 
3029.000000	65.060830 
3028.000000	65.035557 
3027.000000	65.016317 
3026.000000	65.003108 
3025.000000	64.996218 
3024.000000	64.996004 
3023.000000	65.003395 
3022.000000	65.018939 
3021.000000	65.043139 
3020.000000	65.075325 
3019.000000	65.113973 
3018.000000	65.156054 
3017.000000	65.198087 
3016.000000	65.236425 
3015.000000	65.268182 
3014.000000	65.291762 
3013.000000	65.307354 
3012.000000	65.316724 
3011.000000	65.322637 
3010.000000	65.328216 
3009.000000	65.336227 
3008.000000	65.348052 
3007.000000	65.363526 
3006.000000	65.380764 
3005.000000	65.396785 
3004.000000	65.407919 
3003.000000	65.411067 
3002.000000	65.404033 
3001.000000	65.386247 
3000.000000	65.358877 
2999.000000	65.324568 
2998.000000	65.287137 
2997.000000	65.250539 
2996.000000	65.218329 
2995.000000	65.193104 
2994.000000	65.176248 
2993.000000	65.167760 
2992.000000	65.166759 
2991.000000	65.171599 
2990.000000	65.180516 
2989.000000	65.191936 
2988.000000	65.204668 
2987.000000	65.217661 
2986.000000	65.230131 
2985.000000	65.241384 
2984.000000	65.250420 
2983.000000	65.256118 
2982.000000	65.257501 
2981.000000	65.254092 
2980.000000	65.246033 
2979.000000	65.234184 
2978.000000	65.220165 
2977.000000	65.205979 
2976.000000	65.193605 
2975.000000	65.184497 
2974.000000	65.179109 
2973.000000	65.177011 
2972.000000	65.176701 
2971.000000	65.176630 
2970.000000	65.175437 
2969.000000	65.172624 
2968.000000	65.168642 
2967.000000	65.164780 
2966.000000	65.162801 
2965.000000	65.164351 
2964.000000	65.170383 
2963.000000	65.180730 
2962.000000	65.194201 
2961.000000	65.208625 
2960.000000	65.221595 
2959.000000	65.230822 
2958.000000	65.234613 
2957.000000	65.232205 
2956.000000	65.223884 
2955.000000	65.210652 
2954.000000	65.194129 
2953.000000	65.176081 
2952.000000	65.158081 
2951.000000	65.141630 
2950.000000	65.127658 
2949.000000	65.116906 
2948.000000	65.109395 
2947.000000	65.104842 
2946.000000	65.102410 
2945.000000	65.100789 
2944.000000	65.098667 
2943.000000	65.094637 
2942.000000	65.087842 
2941.000000	65.077805 
2940.000000	65.064978 
2939.000000	65.050339 
2938.000000	65.035414 
2937.000000	65.021872 
2936.000000	65.011596 
2935.000000	65.006136 
2934.000000	65.006542 
2933.000000	65.013051 
2932.000000	65.025067 
2931.000000	65.041112 
2930.000000	65.058898 
2929.000000	65.075659 
2928.000000	65.088701 
2927.000000	65.095901 
2926.000000	65.095973 
2925.000000	65.089011 
2924.000000	65.076184 
2923.000000	65.059709 
2922.000000	65.042328 
2921.000000	65.026855 
2920.000000	65.015363 
2919.000000	65.008974 
2918.000000	65.007758 
2917.000000	65.011048 
2916.000000	65.017747 
2915.000000	65.026760 
2914.000000	65.037417 
2913.000000	65.049147 
2912.000000	65.061664 
2911.000000	65.074372 
2910.000000	65.086364 
2909.000000	65.096211 
2908.000000	65.102171 
2907.000000	65.102529 
2906.000000	65.096116 
2905.000000	65.082454 
2904.000000	65.061902 
2903.000000	65.035891 
2902.000000	65.006828 
2901.000000	64.977598 
2900.000000	64.951515 
2899.000000	64.931511 
2898.000000	64.920091 
2897.000000	64.918828 
2896.000000	64.928197 
2895.000000	64.947175 
2894.000000	64.973473 
2893.000000	65.003633 
2892.000000	65.033578 
2891.000000	65.058827 
2890.000000	65.075683 
2889.000000	65.081453 
2888.000000	65.075540 
2887.000000	65.058922 
2886.000000	65.034532 
2885.000000	65.006518 
2884.000000	64.979696 
2883.000000	64.958333 
2882.000000	64.945888 
2881.000000	64.944481 
2880.000000	64.954638 
2879.000000	64.975523 
2878.000000	65.005493 
2877.000000	65.042376 
2876.000000	65.083861 
2875.000000	65.127563 
2874.000000	65.171241 
2873.000000	65.212583 
2872.000000	65.249371 
2871.000000	65.279269 
2870.000000	65.300297 
2869.000000	65.310835 
2868.000000	65.310406 
2867.000000	65.299391 
2866.000000	65.279412 
2865.000000	65.252614 
2864.000000	65.222072 
2863.000000	65.190649 
2862.000000	65.160846 
2861.000000	65.134477 
2860.000000	65.112638 
2859.000000	65.095639 
2858.000000	65.083384 
2857.000000	65.075445 
2856.000000	65.071344 
2855.000000	65.070605 
2854.000000	65.072631 
2853.000000	65.076804 
2852.000000	65.082287 
2851.000000	65.088176 
2850.000000	65.093469 
2849.000000	65.097308 
2848.000000	65.099000 
2847.000000	65.098261 
2846.000000	65.095329 
2845.000000	65.090584 
2844.000000	65.084695 
2843.000000	65.078639 
2842.000000	65.073394 
2841.000000	65.069890 
2840.000000	65.069055 
2839.000000	65.071678 
2838.000000	65.078473 
2837.000000	65.089917 
2836.000000	65.105915 
2835.000000	65.125989 
2834.000000	65.148973 
2833.000000	65.173339 
2832.000000	65.197038 
2831.000000	65.217828 
2830.000000	65.233707 
2829.000000	65.243315 
2828.000000	65.246009 
2827.000000	65.241932 
2826.000000	65.231943 
2825.000000	65.217423 
2824.000000	65.199947 
2823.000000	65.181064 
2822.000000	65.161895 
2821.000000	65.143251 
2820.000000	65.125632 
2819.000000	65.109395 
2818.000000	65.094852 
2817.000000	65.082383 
2816.000000	65.072250 
2815.000000	65.064787 
2814.000000	65.060043 
2813.000000	65.057873 
2812.000000	65.057849 
2811.000000	65.059614 
2810.000000	65.062618 
2809.000000	65.066385 
2808.000000	65.070605 
2807.000000	65.075087 
2806.000000	65.079665 
2805.000000	65.084218 
2804.000000	65.088701 
2803.000000	65.093064 
2802.000000	65.096974 
2801.000000	65.100169 
2800.000000	65.102291 
2799.000000	65.102863 
2798.000000	65.101408 
2797.000000	65.097522 
2796.000000	65.090775 
2795.000000	65.081167 
2794.000000	65.069007 
2793.000000	65.055251 
2792.000000	65.041327 
2791.000000	65.029096 
2790.000000	65.020585 
2789.000000	65.017294 
2788.000000	65.020012 
2787.000000	65.028572 
2786.000000	65.041685 
2785.000000	65.057516 
2784.000000	65.073728 
2783.000000	65.088272 
2782.000000	65.099358 
2781.000000	65.105795 
2780.000000	65.107035 
2779.000000	65.103125 
2778.000000	65.094470 
2777.000000	65.081810 
2776.000000	65.066313 
2775.000000	65.049457 
2774.000000	65.033030 
2773.000000	65.019035 
2772.000000	65.009307 
2771.000000	65.005397 
2770.000000	65.008020 
2769.000000	65.016722 
2768.000000	65.030097 
2767.000000	65.045833 
2766.000000	65.061306 
2765.000000	65.074181 
2764.000000	65.082812 
2763.000000	65.086698 
2762.000000	65.086078 
2761.000000	65.081977 
2760.000000	65.075588 
2759.000000	65.067863 
2758.000000	65.059518 
2757.000000	65.050816 
2756.000000	65.041923 
2755.000000	65.032935 
2754.000000	65.024328 
2753.000000	65.016770 
2752.000000	65.011191 
2751.000000	65.008568 
2750.000000	65.009617 
2749.000000	65.014982 
2748.000000	65.024495 
2747.000000	65.037822 
2746.000000	65.054297 
2745.000000	65.073418 
2744.000000	65.094709 
2743.000000	65.117788 
2742.000000	65.142250 
2741.000000	65.167474 
2740.000000	65.192532 
2739.000000	65.216112 
2738.000000	65.236663 
2737.000000	65.252804 
2736.000000	65.263438 
2735.000000	65.268015 
2734.000000	65.266704 
2733.000000	65.260505 
2732.000000	65.250682 
2731.000000	65.239048 
2730.000000	65.227079 
2729.000000	65.216088 
2728.000000	65.206837 
2727.000000	65.199422 
2726.000000	65.193557 
2725.000000	65.188670 
2724.000000	65.184235 
2723.000000	65.179991 
2722.000000	65.175962 
2721.000000	65.172243 
2720.000000	65.169072 
2719.000000	65.166592 
2718.000000	65.164637 
2717.000000	65.162730 
2716.000000	65.160226 
2715.000000	65.156626 
2714.000000	65.151548 
2713.000000	65.145182 
2712.000000	65.138339 
2711.000000	65.132308 
2710.000000	65.128540 
2709.000000	65.128254 
2708.000000	65.132045 
2707.000000	65.139961 
2706.000000	65.151023 
2705.000000	65.163612 
2704.000000	65.176081 
2703.000000	65.186500 
2702.000000	65.193605 
2701.000000	65.196609 
2700.000000	65.195178 
2699.000000	65.189313 
2698.000000	65.179395 
2697.000000	65.165638 
2696.000000	65.148448 
2695.000000	65.128302 
2694.000000	65.105938 
2693.000000	65.082454 
2692.000000	65.059351 
2691.000000	65.038394 
2690.000000	65.021443 
2689.000000	65.009927 
2688.000000	65.004730 
2687.000000	65.005946 
2686.000000	65.012764 
2685.000000	65.023756 
2684.000000	65.037155 
2683.000000	65.051221 
2682.000000	65.064382 
2681.000000	65.075445 
2680.000000	65.083670 
2679.000000	65.088653 
2678.000000	65.090274 
2677.000000	65.088534 
2676.000000	65.083622 
2675.000000	65.076041 
2674.000000	65.066456 
2673.000000	65.055918 
2672.000000	65.045690 
2671.000000	65.037083 
2670.000000	65.031242 
2669.000000	65.028786 
2668.000000	65.029954 
2667.000000	65.034270 
2666.000000	65.040969 
2665.000000	65.049099 
2664.000000	65.057921 
2663.000000	65.066814 
2662.000000	65.075302 
2661.000000	65.083003 
2660.000000	65.089464 
2659.000000	65.094208 
2658.000000	65.096592 
2657.000000	65.096139 
2656.000000	65.092658 
2655.000000	65.086531 
2654.000000	65.078616 
2653.000000	65.070199 
2652.000000	65.062689 
2651.000000	65.057277 
2650.000000	65.054798 
2649.000000	65.055346 
2648.000000	65.058350 
2647.000000	65.062952 
2646.000000	65.068221 
2645.000000	65.073323 
2644.000000	65.078043 
2643.000000	65.082049 
2642.000000	65.084981 
2641.000000	65.086221 
2640.000000	65.084743 
2639.000000	65.079379 
2638.000000	65.069079 
2637.000000	65.053558 
2636.000000	65.033531 
2635.000000	65.011096 
2634.000000	64.989328 
2633.000000	64.971828 
2632.000000	64.961957 
2631.000000	64.961981 
2630.000000	64.972543 
2629.000000	64.992427 
2628.000000	65.018701 
2627.000000	65.047121 
2626.000000	65.073084 
2625.000000	65.092658 
2624.000000	65.103054 
2623.000000	65.103054 
2622.000000	65.093111 
2621.000000	65.075135 
2620.000000	65.051841 
2619.000000	65.026545 
2618.000000	65.002369 
2617.000000	64.981961 
2616.000000	64.966964 
2615.000000	64.958119 
2614.000000	64.954853 
2613.000000	64.955997 
2612.000000	64.959573 
2611.000000	64.963603 
2610.000000	64.966297 
2609.000000	64.966416 
2608.000000	64.963579 
2607.000000	64.958333 
2606.000000	64.951968 
2605.000000	64.946293 
2604.000000	64.943432 
2603.000000	64.945316 
2602.000000	64.953494 
2601.000000	64.968705 
2600.000000	64.990901 
2599.000000	65.019130 
2598.000000	65.051674 
2597.000000	65.086174 
2596.000000	65.119791 
2595.000000	65.149641 
2594.000000	65.173006 
2593.000000	65.187859 
2592.000000	65.193247 
2591.000000	65.189433 
2590.000000	65.178084 
2589.000000	65.161871 
2588.000000	65.144133 
2587.000000	65.128397 
2586.000000	65.117788 
2585.000000	65.114283 
2584.000000	65.118455 
2583.000000	65.129327 
2582.000000	65.144848 
2581.000000	65.162014 
2580.000000	65.177774 
2579.000000	65.189433 
2578.000000	65.195059 
2577.000000	65.193939 
2576.000000	65.186524 
2575.000000	65.174078 
2574.000000	65.158462 
2573.000000	65.141701 
2572.000000	65.125417 
2571.000000	65.110826 
2570.000000	65.098476 
2569.000000	65.088391 
2568.000000	65.080332 
2567.000000	65.073728 
2566.000000	65.068197 
2565.000000	65.063381 
2564.000000	65.059590 
2563.000000	65.057110 
2562.000000	65.056610 
2561.000000	65.058875 
2560.000000	65.064692 
2559.000000	65.074419 
2558.000000	65.087795 
2557.000000	65.103721 
2556.000000	65.120410 
2555.000000	65.135836 
2554.000000	65.147852 
2553.000000	65.154957 
2552.000000	65.156555 
2551.000000	65.153121 
2550.000000	65.146017 
2549.000000	65.136885 
2548.000000	65.127515 
2547.000000	65.119004 
2546.000000	65.111756 
2545.000000	65.105223 
2544.000000	65.098643 
2543.000000	65.091109 
2542.000000	65.081858 
2541.000000	65.070748 
2540.000000	65.058398 
2539.000000	65.046072 
2538.000000	65.035295 
2537.000000	65.027594 
2536.000000	65.023779 
2535.000000	65.024113 
2534.000000	65.028119 
2533.000000	65.034675 
2532.000000	65.042352 
2531.000000	65.049695 
2530.000000	65.055656 
2529.000000	65.059733 
2528.000000	65.061902 
2527.000000	65.062737 
2526.000000	65.062975 
2525.000000	65.063524 
2524.000000	65.064954 
2523.000000	65.067529 
2522.000000	65.071153 
2521.000000	65.075564 
2520.000000	65.080690 
2519.000000	65.086460 
2518.000000	65.093326 
2517.000000	65.102076 
2516.000000	65.113592 
2515.000000	65.128707 
2514.000000	65.147376 
2513.000000	65.168976 
2512.000000	65.191817 
2511.000000	65.213441 
2510.000000	65.230917 
2509.000000	65.241551 
2508.000000	65.243268 
2507.000000	65.235543 
2506.000000	65.218949 
2505.000000	65.195655 
2504.000000	65.168523 
2503.000000	65.140557 
2502.000000	65.114355 
2501.000000	65.091609 
2500.000000	65.073251 
2499.000000	65.059494 
2498.000000	65.050220 
2497.000000	65.045237 
2496.000000	65.044689 
2495.000000	65.049028 
2494.000000	65.058517 
2493.000000	65.073227 
2492.000000	65.092635 
2491.000000	65.115356 
2490.000000	65.139365 
2489.000000	65.161967 
2488.000000	65.180611 
2487.000000	65.193080 
2486.000000	65.198016 
2485.000000	65.194916 
2484.000000	65.184426 
2483.000000	65.167903 
2482.000000	65.147233 
2481.000000	65.124654 
2480.000000	65.102338 
2479.000000	65.082144 
2478.000000	65.065574 
2477.000000	65.053343 
2476.000000	65.045642 
2475.000000	65.041780 
2474.000000	65.040540 
2473.000000	65.040445 
2472.000000	65.039992 
2471.000000	65.038084 
2470.000000	65.034198 
2469.000000	65.028548 
2468.000000	65.021944 
2467.000000	65.015435 
2466.000000	65.010309 
2465.000000	65.007376 
2464.000000	65.006995 
2463.000000	65.008807 
2462.000000	65.011978 
2461.000000	65.015435 
2460.000000	65.018296 
2459.000000	65.019845 
2458.000000	65.020036 
2457.000000	65.019154 
2456.000000	65.017819 
2455.000000	65.016674 
2454.000000	65.016245 
2453.000000	65.016818 
2452.000000	65.018224 
2451.000000	65.020275 
2450.000000	65.022468 
2449.000000	65.024065 
2448.000000	65.024256 
2447.000000	65.022492 
2446.000000	65.018367 
2445.000000	65.011715 
2444.000000	65.002727 
2443.000000	64.991903 
2442.000000	64.980101 
2441.000000	64.968276 
2440.000000	64.957380 
2439.000000	64.948010 
2438.000000	64.940333 
2437.000000	64.934039 
2436.000000	64.928364 
2435.000000	64.922451 
2434.000000	64.915466 
2433.000000	64.907336 
2432.000000	64.898419 
2431.000000	64.889883 
2430.000000	64.883112 
2429.000000	64.879679 
2428.000000	64.880633 
2427.000000	64.886426 
2426.000000	64.896774 
2425.000000	64.910697 
2424.000000	64.926815 
2423.000000	64.943671 
2422.000000	64.959859 
2421.000000	64.974379 
2420.000000	64.986610 
2419.000000	64.996314 
2418.000000	65.003442 
2417.000000	65.007972 
2416.000000	65.009808 
2415.000000	65.008807 
2414.000000	65.004897 
2413.000000	64.998292 
2412.000000	64.989495 
2411.000000	64.979362 
2410.000000	64.968991 
2409.000000	64.959716 
2408.000000	64.952707 
2407.000000	64.948892 
2406.000000	64.948701 
2405.000000	64.951968 
2404.000000	64.958071 
2403.000000	64.965987 
2402.000000	64.974641 
2401.000000	64.982867 
2400.000000	64.990186 
2399.000000	64.996480 
2398.000000	65.002322 
2397.000000	65.008711 
2396.000000	65.016627 
2395.000000	65.026879 
2394.000000	65.039658 
2393.000000	65.054321 
2392.000000	65.069484 
2391.000000	65.083217 
2390.000000	65.093398 
2389.000000	65.098381 
2388.000000	65.097570 
2387.000000	65.091657 
2386.000000	65.082502 
2385.000000	65.072703 
2384.000000	65.065217 
2383.000000	65.062332 
2382.000000	65.065383 
2381.000000	65.073919 
2380.000000	65.086245 
2379.000000	65.099406 
2378.000000	65.110254 
2377.000000	65.116047 
2376.000000	65.115141 
2375.000000	65.107321 
2374.000000	65.093851 
2373.000000	65.077280 
2372.000000	65.060496 
2371.000000	65.046453 
2370.000000	65.037202 
2369.000000	65.033841 
2368.000000	65.036487 
2367.000000	65.044355 
2366.000000	65.056037 
2365.000000	65.069580 
2364.000000	65.082979 
2363.000000	65.094256 
2362.000000	65.101504 
2361.000000	65.103387 
2360.000000	65.099310 
2359.000000	65.089368 
2358.000000	65.074658 
2357.000000	65.057086 
2356.000000	65.039157 
2355.000000	65.023684 
2354.000000	65.013051 
2353.000000	65.008902 
2352.000000	65.011596 
2351.000000	65.020322 
2350.000000	65.033054 
2349.000000	65.046906 
2348.000000	65.058898 
2347.000000	65.066480 
2346.000000	65.068030 
2345.000000	65.063190 
2344.000000	65.052628 
2343.000000	65.038180 
2342.000000	65.022087 
2341.000000	65.006470 
2340.000000	64.992928 
2339.000000	64.982295 
2338.000000	64.974451 
2337.000000	64.968466 
2336.000000	64.962911 
2335.000000	64.956378 
2334.000000	64.947938 
2333.000000	64.937424 
2332.000000	64.925336 
2331.000000	64.912891 
2330.000000	64.901542 
2329.000000	64.892625 
2328.000000	64.886927 
2327.000000	64.884877 
2326.000000	64.886069 
2325.000000	64.890027 
2324.000000	64.896202 
2323.000000	64.904642 
2322.000000	64.915561 
2321.000000	64.929938 
2320.000000	64.948654 
2319.000000	64.972496 
2318.000000	65.001392 
2317.000000	65.034461 
2316.000000	65.069556 
2315.000000	65.103626 
2314.000000	65.133237 
2313.000000	65.155053 
2312.000000	65.166687 
2311.000000	65.166783 
2310.000000	65.155386 
2309.000000	65.133905 
2308.000000	65.104961 
2307.000000	65.071821 
2306.000000	65.037941 
2305.000000	65.006756 
2304.000000	64.981031 
2303.000000	64.962935 
2302.000000	64.953565 
2301.000000	64.953136 
2300.000000	64.960885 
2299.000000	64.975166 
2298.000000	64.993572 
2297.000000	65.013146 
2296.000000	65.031027 
2295.000000	65.044569 
2294.000000	65.051960 
2293.000000	65.052223 
2292.000000	65.045666 
2291.000000	65.033483 
2290.000000	65.017724 
2289.000000	65.000677 
2288.000000	64.984631 
2287.000000	64.971494 
2286.000000	64.962458 
2285.000000	64.957976 
2284.000000	64.957594 
2283.000000	64.960598 
2282.000000	64.965677 
2281.000000	64.971446 
2280.000000	64.976668 
2279.000000	64.980387 
2278.000000	64.982104 
2277.000000	64.981818 
2276.000000	64.980077 
2275.000000	64.977836 
2274.000000	64.976501 
2273.000000	64.977383 
2272.000000	64.981460 
2271.000000	64.989161 
2270.000000	64.999961 
2269.000000	65.012836 
2268.000000	65.026187 
2267.000000	65.038394 
2266.000000	65.047883 
2265.000000	65.053725 
2264.000000	65.055942 
2263.000000	65.055227 
2262.000000	65.052795 
2261.000000	65.049934 
2260.000000	65.047812 
2259.000000	65.047049 
2258.000000	65.047669 
2257.000000	65.049004 
2256.000000	65.050172 
2255.000000	65.050196 
2254.000000	65.048384 
2253.000000	65.044450 
2252.000000	65.038490 
2251.000000	65.030956 
2250.000000	65.022492 
2249.000000	65.013670 
2248.000000	65.004968 
2247.000000	64.996767 
2246.000000	64.989066 
2245.000000	64.981985 
2244.000000	64.975261 
2243.000000	64.968633 
2242.000000	64.961719 
2241.000000	64.954209 
2240.000000	64.945697 
2239.000000	64.935946 
2238.000000	64.924907 
2237.000000	64.912700 
2236.000000	64.899969 
2235.000000	64.887523 
2234.000000	64.876580 
2233.000000	64.868330 
2232.000000	64.863681 
2231.000000	64.863204 
2230.000000	64.866828 
2229.000000	64.873981 
2228.000000	64.883589 
2227.000000	64.894366 
2226.000000	64.905118 
2225.000000	64.914870 
2224.000000	64.923095 
2223.000000	64.929389 
2222.000000	64.933562 
2221.000000	64.935278 
2220.000000	64.933967 
2219.000000	64.929032 
2218.000000	64.919853 
2217.000000	64.906167 
2216.000000	64.888477 
2215.000000	64.868259 
2214.000000	64.847755 
2213.000000	64.829921 
2212.000000	64.817690 
2211.000000	64.813494 
2210.000000	64.818525 
2209.000000	64.832520 
2208.000000	64.853739 
2207.000000	64.879226 
2206.000000	64.905619 
2205.000000	64.929676 
2204.000000	64.949178 
2203.000000	64.962959 
2202.000000	64.971160 
2201.000000	64.974784 
2200.000000	64.975285 
2199.000000	64.973998 
2198.000000	64.971852 
2197.000000	64.969158 
2196.000000	64.965724 
2195.000000	64.961123 
2194.000000	64.955067 
2193.000000	64.947533 
2192.000000	64.939069 
2191.000000	64.930820 
2190.000000	64.924287 
2189.000000	64.920663 
2188.000000	64.920806 
2187.000000	64.924883 
2186.000000	64.932632 
2185.000000	64.943122 
2184.000000	64.955258 
2183.000000	64.968085 
2182.000000	64.981007 
2181.000000	64.993619 
2180.000000	65.005731 
2179.000000	65.017127 
2178.000000	65.027379 
2177.000000	65.035676 
2176.000000	65.041112 
2175.000000	65.042853 
2174.000000	65.040731 
2173.000000	65.035295 
2172.000000	65.028214 
2171.000000	65.021777 
2170.000000	65.018486 
2169.000000	65.020060 
2168.000000	65.026688 
2167.000000	65.036439 
2166.000000	65.045809 
2165.000000	65.049886 
2164.000000	65.044116 
2163.000000	65.025067 
2162.000000	64.992046 
2161.000000	64.946985 
2160.000000	64.894175 
2159.000000	64.839649 
2158.000000	64.789390 
2157.000000	64.748477 
2156.000000	64.719629 
2155.000000	64.703154 
2154.000000	64.697289 
2153.000000	64.699029 
2152.000000	64.705157 
2151.000000	64.713191 
2150.000000	64.721703 
2149.000000	64.730477 
2148.000000	64.740037 
2147.000000	64.750957 
2146.000000	64.763116 
2145.000000	64.775896 
2144.000000	64.788246 
2143.000000	64.799022 
2142.000000	64.807319 
2141.000000	64.812874 
2140.000000	64.815974 
2139.000000	64.817571 
2138.000000	64.818930 
2137.000000	64.821052 
2136.000000	64.824748 
2135.000000	64.830493 
2134.000000	64.838409 
2133.000000	64.848446 
2132.000000	64.860653 
2131.000000	64.875221 
2130.000000	64.892268 
2129.000000	64.911723 
2128.000000	64.933061 
2127.000000	64.955163 
2126.000000	64.976024 
2125.000000	64.993023 
2124.000000	65.003347 
2123.000000	65.004611 
2122.000000	64.995360 
2121.000000	64.975476 
2120.000000	64.946556 
2119.000000	64.911699 
2118.000000	64.875340 
2117.000000	64.842367 
2116.000000	64.817380 
2115.000000	64.803886 
2114.000000	64.803600 
2113.000000	64.816141 
2112.000000	64.838957 
2111.000000	64.868140 
2110.000000	64.898800 
2109.000000	64.926600 
2108.000000	64.947748 
2107.000000	64.960217 
2106.000000	64.963531 
2105.000000	64.958834 
2104.000000	64.948177 
2103.000000	64.934206 
2102.000000	64.919257 
2101.000000	64.905190 
2100.000000	64.893007 
2099.000000	64.882993 
2098.000000	64.875078 
2097.000000	64.868831 
2096.000000	64.863967 
2095.000000	64.860510 
2094.000000	64.858818 
2093.000000	64.859318 
2092.000000	64.862275 
2091.000000	64.867591 
2090.000000	64.874744 
2089.000000	64.882707 
2088.000000	64.890193 
2087.000000	64.895844 
2086.000000	64.898729 
2085.000000	64.898633 
2084.000000	64.896106 
2083.000000	64.892148 
2082.000000	64.888381 
2081.000000	64.886474 
2080.000000	64.887714 
2079.000000	64.893174 
2078.000000	64.903092 
2077.000000	64.916968 
2076.000000	64.933514 
2075.000000	64.950919 
2074.000000	64.966893 
2073.000000	64.979100 
2072.000000	64.985656 
2071.000000	64.985680 
2070.000000	64.979410 
2069.000000	64.968252 
2068.000000	64.954400 
2067.000000	64.940500 
2066.000000	64.929008 
2065.000000	64.921593 
2064.000000	64.918613 
2063.000000	64.919233 
2062.000000	64.921617 
2061.000000	64.923667 
2060.000000	64.923453 
2059.000000	64.920020 
2058.000000	64.913678 
2057.000000	64.905953 
2056.000000	64.899158 
2055.000000	64.895796 
2054.000000	64.897704 
2053.000000	64.905571 
2052.000000	64.918661 
2051.000000	64.934682 
2050.000000	64.950656 
2049.000000	64.963197 
2048.000000	64.969396 
2047.000000	64.967226 
2046.000000	64.956140 
2045.000000	64.937019 
2044.000000	64.911651 
2043.000000	64.882612 
2042.000000	64.852643 
2041.000000	64.824390 
2040.000000	64.800167 
2039.000000	64.781761 
2038.000000	64.770364 
2037.000000	64.766764 
2036.000000	64.771199 
2035.000000	64.783263 
2034.000000	64.801955 
2033.000000	64.825820 
2032.000000	64.853000 
2031.000000	64.881253 
2030.000000	64.908242 
2029.000000	64.931941 
2028.000000	64.950680 
2027.000000	64.963245 
2026.000000	64.969253 
2025.000000	64.968872 
2024.000000	64.963006 
2023.000000	64.953136 
2022.000000	64.941167 
2021.000000	64.929246 
2020.000000	64.919471 
2019.000000	64.913702 
2018.000000	64.913082 
2017.000000	64.917922 
2016.000000	64.927554 
2015.000000	64.940452 
2014.000000	64.954280 
2013.000000	64.966416 
2012.000000	64.974498 
2011.000000	64.976882 
2010.000000	64.972877 
2009.000000	64.962601 
2008.000000	64.947319 
2007.000000	64.928913 
2006.000000	64.909410 
2005.000000	64.890599 
2004.000000	64.873647 
2003.000000	64.859151 
2002.000000	64.847016 
2001.000000	64.836931 
2000.000000	64.828205 
1999.000000	64.820456 
1998.000000	64.813590 
1997.000000	64.808034 
1996.000000	64.804315 
1995.000000	64.803099 
1994.000000	64.804935 
1993.000000	64.810204 
1992.000000	64.818811 
1991.000000	64.830350 
1990.000000	64.844131 
1989.000000	64.859271 
1988.000000	64.874887 
1987.000000	64.890217 
1986.000000	64.904594 
1985.000000	64.917612 
1984.000000	64.929056 
1983.000000	64.938855 
1982.000000	64.947056 
1981.000000	64.953827 
1980.000000	64.959359 
1979.000000	64.963889 
1978.000000	64.967536 
1977.000000	64.970541 
1976.000000	64.973020 
1975.000000	64.974856 
1974.000000	64.975738 
1973.000000	64.975452 
1972.000000	64.973664 
1971.000000	64.970207 
1970.000000	64.964890 
1969.000000	64.957857 
1968.000000	64.949440 
1967.000000	64.940142 
1966.000000	64.930415 
1965.000000	64.920711 
1964.000000	64.911341 
1963.000000	64.902567 
1962.000000	64.894485 
1961.000000	64.886999 
1960.000000	64.880228 
1959.000000	64.874434 
1958.000000	64.869856 
1957.000000	64.866685 
1956.000000	64.865040 
1955.000000	64.864897 
1954.000000	64.866018 
1953.000000	64.867925 
1952.000000	64.870119 
1951.000000	64.872241 
1950.000000	64.874124 
1949.000000	64.875817 
1948.000000	64.877414 
1947.000000	64.879012 
1946.000000	64.880776 
1945.000000	64.882659 
1944.000000	64.884424 
1943.000000	64.885878 
1942.000000	64.886975 
1941.000000	64.887857 
1940.000000	64.888739 
1939.000000	64.889931 
1938.000000	64.891672 
1937.000000	64.893770 
1936.000000	64.895701 
1935.000000	64.896368 
1934.000000	64.894461 
1933.000000	64.888763 
1932.000000	64.878416 
1931.000000	64.863491 
1930.000000	64.845037 
1929.000000	64.825081 
1928.000000	64.806294 
1927.000000	64.791560 
1926.000000	64.783287 
1925.000000	64.783024 
1924.000000	64.791059 
1923.000000	64.806389 
1922.000000	64.827156 
1921.000000	64.850711 
1920.000000	64.874601 
1919.000000	64.896655 
1918.000000	64.915394 
1917.000000	64.930224 
1916.000000	64.941072 
1915.000000	64.948296 
1914.000000	64.952301 
1913.000000	64.953398 
1912.000000	64.951562 
1911.000000	64.946746 
1910.000000	64.938855 
1909.000000	64.927959 
1908.000000	64.914345 
1907.000000	64.898681 
1906.000000	64.881992 
1905.000000	64.865469 
1904.000000	64.850091 
1903.000000	64.836764 
1902.000000	64.826035 
1901.000000	64.818167 
1900.000000	64.813303 
1899.000000	64.811491 
1898.000000	64.812779 
1897.000000	64.817333 
1896.000000	64.825153 
1895.000000	64.836168 
1894.000000	64.849829 
1893.000000	64.865255 
1892.000000	64.880919 
1891.000000	64.895009 
1890.000000	64.905810 
1889.000000	64.911794 
1888.000000	64.912080 
1887.000000	64.906644 
1886.000000	64.896559 
1885.000000	64.883589 
1884.000000	64.869976 
1883.000000	64.857983 
1882.000000	64.849305 
1881.000000	64.844965 
1880.000000	64.845156 
1879.000000	64.849138 
1878.000000	64.855313 
1877.000000	64.861893 
1876.000000	64.867401 
1875.000000	64.870786 
1874.000000	64.871692 
1873.000000	64.870524 
1872.000000	64.867997 
1871.000000	64.864993 
1870.000000	64.861869 
1869.000000	64.858531 
1868.000000	64.854168 
1867.000000	64.847564 
1866.000000	64.837384 
1865.000000	64.822697 
1864.000000	64.803290 
1863.000000	64.779925 
1862.000000	64.754223 
1861.000000	64.728355 
1860.000000	64.704966 
1859.000000	64.686560 
1858.000000	64.675378 
1857.000000	64.672732 
1856.000000	64.679360 
1855.000000	64.695262 
1854.000000	64.719724 
1853.000000	64.751458 
1852.000000	64.788508 
1851.000000	64.828348 
1850.000000	64.867925 
1849.000000	64.904117 
1848.000000	64.933800 
1847.000000	64.954543 
1846.000000	64.964962 
1845.000000	64.965200 
1844.000000	64.956808 
1843.000000	64.942598 
1842.000000	64.926314 
1841.000000	64.911603 
1840.000000	64.901614 
1839.000000	64.897990 
1838.000000	64.900970 
1837.000000	64.909076 
1836.000000	64.919519 
1835.000000	64.928817 
1834.000000	64.933729 
1833.000000	64.931797 
1832.000000	64.921998 
1831.000000	64.904952 
1830.000000	64.882588 
1829.000000	64.858007 
1828.000000	64.834475 
1827.000000	64.815020 
1826.000000	64.801740 
1825.000000	64.795589 
1824.000000	64.796352 
1823.000000	64.802837 
1822.000000	64.813208 
1821.000000	64.825534 
1820.000000	64.838218 
1819.000000	64.849972 
1818.000000	64.860153 
1817.000000	64.868640 
1816.000000	64.875745 
1815.000000	64.881873 
1814.000000	64.887285 
1813.000000	64.892125 
1812.000000	64.896273 
1811.000000	64.899587 
1810.000000	64.901757 
1809.000000	64.902544 
1808.000000	64.901709 
1807.000000	64.899468 
1806.000000	64.895963 
1805.000000	64.891529 
1804.000000	64.886355 
1803.000000	64.880728 
1802.000000	64.874696 
1801.000000	64.868187 
1800.000000	64.861130 
1799.000000	64.853501 
1798.000000	64.845490 
1797.000000	64.837527 
1796.000000	64.830231 
1795.000000	64.824390 
1794.000000	64.820671 
1793.000000	64.819455 
1792.000000	64.820599 
1791.000000	64.823555 
1790.000000	64.827632 
1789.000000	64.831995 
1788.000000	64.835882 
1787.000000	64.838862 
1786.000000	64.840793 
1785.000000	64.842104 
1784.000000	64.843082 
1783.000000	64.844250 
1782.000000	64.845967 
1781.000000	64.848661 
1780.000000	64.852428 
1779.000000	64.857339 
1778.000000	64.863395 
1777.000000	64.870500 
1776.000000	64.878439 
1775.000000	64.886760 
1774.000000	64.894700 
1773.000000	64.901161 
1772.000000	64.905071 
1771.000000	64.905405 
1770.000000	64.901375 
1769.000000	64.892840 
1768.000000	64.880537 
1767.000000	64.865684 
1766.000000	64.849925 
1765.000000	64.835000 
1764.000000	64.822506 
1763.000000	64.813446 
1762.000000	64.808177 
1761.000000	64.806365 
1760.000000	64.806962 
1759.000000	64.808487 
1758.000000	64.809274 
1757.000000	64.807653 
1756.000000	64.802575 
1755.000000	64.793419 
1754.000000	64.780521 
1753.000000	64.764785 
1752.000000	64.747643 
1751.000000	64.730691 
1750.000000	64.715361 
1749.000000	64.702796 
1748.000000	64.693951 
1747.000000	64.689111 
1746.000000	64.688467 
1745.000000	64.691996 
1744.000000	64.699745 
1743.000000	64.711666 
1742.000000	64.727544 
1741.000000	64.746737 
1740.000000	64.767909 
1739.000000	64.788961 
1738.000000	64.807271 
1737.000000	64.819908 
1736.000000	64.824247 
1735.000000	64.818668 
1734.000000	64.803099 
1733.000000	64.778900 
1732.000000	64.748644 
1731.000000	64.715695 
1730.000000	64.683508 
1729.000000	64.655590 
1728.000000	64.634537 
1727.000000	64.622306 
1726.000000	64.619898 
1725.000000	64.627480 
1724.000000	64.644432 
1723.000000	64.669489 
1722.000000	64.700579 
1721.000000	64.735174 
1720.000000	64.770317 
1719.000000	64.803099 
1718.000000	64.830756 
1717.000000	64.851236 
1716.000000	64.863276 
1715.000000	64.866685 
1714.000000	64.862227 
1713.000000	64.851284 
1712.000000	64.835739 
1711.000000	64.817452 
1710.000000	64.798331 
1709.000000	64.780306 
1708.000000	64.765286 
1707.000000	64.755129 
1706.000000	64.751386 
1705.000000	64.755177 
1704.000000	64.766669 
1703.000000	64.784812 
1702.000000	64.807295 
1701.000000	64.830756 
1700.000000	64.851498 
1699.000000	64.866018 
1698.000000	64.871692 
1697.000000	64.867258 
1696.000000	64.853000 
1695.000000	64.830899 
1694.000000	64.803886 
1693.000000	64.775300 
1692.000000	64.748263 
1691.000000	64.725089 
1690.000000	64.706897 
1689.000000	64.693832 
1688.000000	64.685273 
1687.000000	64.680242 
1686.000000	64.677762 
1685.000000	64.677143 
1684.000000	64.678120 
1683.000000	64.680719 
1682.000000	64.685034 
1681.000000	64.691233 
1680.000000	64.698958 
1679.000000	64.707565 
1678.000000	64.715838 
1677.000000	64.722371 
1676.000000	64.725756 
1675.000000	64.725112 
1674.000000	64.720368 
1673.000000	64.712333 
1672.000000	64.702558 
1671.000000	64.692926 
1670.000000	64.685416 
1669.000000	64.681601 
1668.000000	64.682006 
1667.000000	64.686512 
1666.000000	64.694166 
1665.000000	64.703750 
1664.000000	64.714169 
1663.000000	64.724636 
1662.000000	64.734935 
1661.000000	64.745378 
1660.000000	64.756560 
1659.000000	64.768862 
1658.000000	64.782142 
1657.000000	64.795660 
1656.000000	64.808177 
1655.000000	64.818382 
1654.000000	64.824914 
1653.000000	64.827179 
1652.000000	64.825153 
1651.000000	64.819431 
1650.000000	64.810824 
1649.000000	64.800190 
1648.000000	64.788198 
1647.000000	64.775180 
1646.000000	64.761161 
1645.000000	64.746141 
1644.000000	64.730167 
1643.000000	64.713835 
1642.000000	64.698219 
1641.000000	64.684629 
1640.000000	64.674496 
1639.000000	64.668774 
1638.000000	64.667677 
1637.000000	64.670729 
1636.000000	64.676833 
1635.000000	64.684534 
1634.000000	64.692330 
1633.000000	64.699053 
1632.000000	64.703965 
1631.000000	64.706850 
1630.000000	64.707803 
1629.000000	64.707159 
1628.000000	64.705657 
1627.000000	64.704179 
1626.000000	64.703702 
1625.000000	64.705085 
1624.000000	64.709091 
1623.000000	64.715743 
1622.000000	64.724588 
1621.000000	64.734363 
1620.000000	64.743185 
1619.000000	64.748954 
1618.000000	64.749860 
1617.000000	64.744830 
1616.000000	64.733958 
1615.000000	64.718675 
1614.000000	64.701509 
1613.000000	64.685440 
1612.000000	64.673042 
1611.000000	64.665889 
1610.000000	64.664196 
1609.000000	64.666819 
1608.000000	64.671564 
1607.000000	64.675974 
1606.000000	64.677929 
1605.000000	64.676189 
1604.000000	64.670777 
1603.000000	64.662718 
1602.000000	64.653730 
1601.000000	64.645886 
1600.000000	64.641046 
1599.000000	64.640474 
1598.000000	64.644336 
1597.000000	64.651823 
1596.000000	64.661455 
1595.000000	64.671182 
1594.000000	64.679336 
1593.000000	64.684605 
1592.000000	64.686727 
1591.000000	64.686322 
1590.000000	64.684891 
1589.000000	64.684200 
1588.000000	64.686036 
1587.000000	64.691734 
1586.000000	64.701914 
1585.000000	64.716553 
1584.000000	64.734959 
1583.000000	64.755964 
1582.000000	64.777898 
1581.000000	64.799070 
1580.000000	64.817738 
1579.000000	64.832472 
1578.000000	64.842104 
1577.000000	64.845967 
1576.000000	64.843916 
1575.000000	64.836239 
1574.000000	64.823675 
1573.000000	64.807200 
1572.000000	64.788055 
1571.000000	64.767765 
1570.000000	64.748167 
1569.000000	64.731454 
1568.000000	64.719772 
1567.000000	64.715051 
1566.000000	64.718914 
1565.000000	64.731740 
1564.000000	64.752697 
1563.000000	64.779496 
1562.000000	64.808750 
1561.000000	64.836192 
1560.000000	64.857578 
1559.000000	64.869308 
1558.000000	64.869356 
1557.000000	64.857554 
1556.000000	64.835739 
1555.000000	64.807391 
1554.000000	64.776873 
1553.000000	64.748764 
1552.000000	64.726853 
1551.000000	64.713716 
1550.000000	64.710354 
1549.000000	64.716243 
1548.000000	64.729523 
1547.000000	64.747333 
1546.000000	64.766454 
1545.000000	64.783525 
1544.000000	64.795660 
1543.000000	64.800882 
1542.000000	64.798092 
1541.000000	64.787411 
1540.000000	64.769840 
1539.000000	64.746952 
1538.000000	64.720749 
1537.000000	64.693331 
1536.000000	64.666604 
1535.000000	64.642167 
1534.000000	64.621257 
1533.000000	64.604592 
1532.000000	64.592552 
1531.000000	64.585471 
1530.000000	64.583563 
1529.000000	64.586925 
1528.000000	64.595580 
1527.000000	64.609360 
1526.000000	64.627838 
1525.000000	64.650177 
1524.000000	64.675259 
1523.000000	64.701533 
1522.000000	64.727258 
1521.000000	64.750647 
1520.000000	64.769887 
1519.000000	64.783501 
1518.000000	64.790630 
1517.000000	64.791154 
1516.000000	64.786005 
1515.000000	64.776754 
1514.000000	64.765691 
1513.000000	64.754939 
1512.000000	64.746522 
1511.000000	64.741373 
1510.000000	64.739513 
1509.000000	64.739799 
1508.000000	64.740419 
1507.000000	64.739418 
1506.000000	64.735388 
1505.000000	64.728116 
1504.000000	64.718580 
1503.000000	64.708828 
1502.000000	64.701437 
1501.000000	64.698505 
1500.000000	64.700913 
1499.000000	64.707851 
1498.000000	64.717006 
1497.000000	64.725470 
1496.000000	64.730548 
1495.000000	64.730763 
1494.000000	64.726400 
1493.000000	64.718985 
1492.000000	64.711165 
1491.000000	64.705538 
1490.000000	64.703774 
1489.000000	64.706063 
1488.000000	64.711236 
1487.000000	64.717030 
1486.000000	64.721012 
1485.000000	64.721274 
1484.000000	64.717078 
1483.000000	64.708995 
1482.000000	64.698743 
1481.000000	64.688634 
1480.000000	64.680838 
1479.000000	64.676642 
1478.000000	64.676308 
1477.000000	64.679098 
1476.000000	64.683485 
1475.000000	64.687776 
1474.000000	64.690423 
1473.000000	64.690446 
1472.000000	64.687418 
1471.000000	64.681625 
1470.000000	64.673662 
1469.000000	64.664578 
1468.000000	64.655661 
1467.000000	64.648604 
1466.000000	64.645338 
1465.000000	64.647746 
1464.000000	64.657521 
1463.000000	64.675283 
1462.000000	64.700698 
1461.000000	64.731574 
1460.000000	64.764189 
1459.000000	64.793586 
1458.000000	64.814591 
1457.000000	64.822649 
1456.000000	64.815115 
1455.000000	64.791917 
1454.000000	64.755749 
1453.000000	64.711594 
1452.000000	64.665699 
1451.000000	64.624047 
1450.000000	64.591121 
1449.000000	64.568948 
1448.000000	64.557123 
1447.000000	64.553260 
1446.000000	64.554286 
1445.000000	64.557337 
1444.000000	64.560699 
1443.000000	64.564037 
1442.000000	64.568257 
1441.000000	64.574503 
1440.000000	64.583635 
1439.000000	64.595460 
1438.000000	64.608573 
1437.000000	64.620661 
1436.000000	64.629006 
1435.000000	64.631223 
1434.000000	64.625740 
1433.000000	64.612412 
1432.000000	64.592695 
1431.000000	64.569020 
1430.000000	64.544463 
1429.000000	64.522075 
1428.000000	64.504170 
1427.000000	64.492249 
1426.000000	64.486384 
1425.000000	64.485764 
1424.000000	64.488554 
1423.000000	64.492607 
1422.000000	64.495754 
1421.000000	64.496254 
1420.000000	64.492940 
1419.000000	64.485239 
1418.000000	64.473462 
1417.000000	64.458703 
1416.000000	64.442849 
1415.000000	64.427971 
1414.000000	64.416241 
1413.000000	64.409422 
1412.000000	64.408612 
1411.000000	64.413952 
1410.000000	64.424681 
1409.000000	64.439249 
1408.000000	64.455747 
1407.000000	64.472150 
1406.000000	64.486813 
1405.000000	64.498662 
1404.000000	64.507246 
1403.000000	64.512515 
1402.000000	64.514708 
1401.000000	64.514040 
1400.000000	64.510583 
1399.000000	64.504313 
1398.000000	64.495587 
1397.000000	64.484930 
1396.000000	64.473366 
1395.000000	64.462351 
1394.000000	64.453792 
1393.000000	64.449000 
1392.000000	64.448642 
1391.000000	64.452147 
1390.000000	64.458036 
1389.000000	64.464187 
1388.000000	64.468526 
1387.000000	64.469552 
1386.000000	64.466834 
1385.000000	64.461016 
1384.000000	64.453411 
1383.000000	64.445614 
1382.000000	64.438891 
1381.000000	64.433693 
1380.000000	64.429354 
1379.000000	64.424777 
1378.000000	64.418458 
1377.000000	64.409279 
1376.000000	64.397168 
1375.000000	64.383101 
1374.000000	64.369153 
1373.000000	64.357900 
1372.000000	64.352035 
1371.000000	64.353370 
1370.000000	64.362978 
1369.000000	64.380693 
1368.000000	64.405322 
1367.000000	64.434933 
1366.000000	64.467191 
1365.000000	64.499497 
1364.000000	64.529514 
1363.000000	64.555144 
1362.000000	64.574766 
1361.000000	64.587450 
1360.000000	64.592909 
1359.000000	64.591598 
1358.000000	64.584612 
1357.000000	64.573431 
1356.000000	64.560127 
1355.000000	64.546608 
1354.000000	64.534759 
1353.000000	64.526057 
1352.000000	64.521574 
1351.000000	64.521598 
1350.000000	64.526081 
1349.000000	64.534020 
1348.000000	64.544367 
1347.000000	64.555335 
1346.000000	64.565062 
1345.000000	64.571452 
1344.000000	64.572691 
1343.000000	64.567494 
1342.000000	64.555311 
1341.000000	64.536714 
1340.000000	64.513278 
1339.000000	64.487481 
1338.000000	64.462089 
1337.000000	64.439749 
1336.000000	64.422583 
1335.000000	64.411783 
1334.000000	64.407777 
1333.000000	64.410018 
1332.000000	64.417195 
1331.000000	64.427828 
1330.000000	64.440321 
1329.000000	64.453387 
1328.000000	64.466047 
1327.000000	64.477682 
1326.000000	64.488029 
1325.000000	64.497017 
1324.000000	64.504575 
1323.000000	64.510393 
1322.000000	64.514088 
1321.000000	64.515352 
1320.000000	64.514088 
1319.000000	64.510464 
1318.000000	64.504885 
1317.000000	64.498329 
1316.000000	64.491796 
1315.000000	64.486145 
1314.000000	64.481902 
1313.000000	64.478969 
1312.000000	64.476704 
1311.000000	64.474225 
1310.000000	64.470505 
1309.000000	64.464926 
1308.000000	64.457464 
1307.000000	64.448809 
1306.000000	64.440250 
1305.000000	64.433383 
1304.000000	64.429712 
1303.000000	64.430260 
1302.000000	64.435195 
1301.000000	64.443969 
1300.000000	64.455294 
1299.000000	64.467763 
1298.000000	64.479875 
1297.000000	64.490604 
1296.000000	64.499378 
1295.000000	64.506292 
1294.000000	64.511680 
1293.000000	64.516043 
1292.000000	64.519619 
1291.000000	64.522361 
1290.000000	64.523935 
1289.000000	64.523577 
1288.000000	64.520573 
1287.000000	64.514279 
1286.000000	64.504408 
1285.000000	64.490962 
1284.000000	64.474320 
1283.000000	64.455127 
1282.000000	64.434289 
1281.000000	64.412808 
1280.000000	64.391732 
1279.000000	64.372086 
1278.000000	64.354920 
1277.000000	64.341163 
1276.000000	64.331698 
1275.000000	64.327001 
1274.000000	64.327073 
1273.000000	64.331531 
1272.000000	64.339542 
1271.000000	64.349865 
1270.000000	64.361262 
1269.000000	64.372682 
1268.000000	64.383316 
1267.000000	64.392638 
1266.000000	64.400434 
1265.000000	64.406752 
1264.000000	64.411664 
1263.000000	64.414954 
1262.000000	64.416289 
1261.000000	64.415287 
1260.000000	64.411640 
1259.000000	64.405536 
1258.000000	64.397621 
1257.000000	64.388847 
1256.000000	64.380693 
1255.000000	64.374566 
1254.000000	64.371204 
1253.000000	64.370608 
1252.000000	64.371728 
1251.000000	64.372944 
1250.000000	64.372301 
1249.000000	64.368247 
1248.000000	64.360165 
1247.000000	64.348602 
1246.000000	64.335036 
1245.000000	64.321470 
1244.000000	64.309883 
1243.000000	64.301419 
1242.000000	64.296221 
1241.000000	64.293169 
1240.000000	64.290022 
1239.000000	64.284563 
1238.000000	64.274883 
1237.000000	64.260411 
1236.000000	64.241933 
1235.000000	64.221978 
1234.000000	64.204120 
1233.000000	64.192295 
1232.000000	64.189791 
1231.000000	64.198637 
1230.000000	64.219021 
1229.000000	64.249300 
1228.000000	64.286279 
1227.000000	64.325904 
1226.000000	64.363980 
1225.000000	64.396977 
1224.000000	64.422655 
1223.000000	64.440298 
1222.000000	64.450478 
1221.000000	64.454960 
1220.000000	64.455819 
1219.000000	64.454865 
1218.000000	64.453125 
1217.000000	64.450907 
1216.000000	64.447569 
1215.000000	64.442086 
1214.000000	64.433240 
1213.000000	64.420413 
1212.000000	64.403653 
1211.000000	64.383888 
1210.000000	64.362812 
1209.000000	64.342331 
1208.000000	64.324522 
1207.000000	64.311075 
1206.000000	64.303112 
1205.000000	64.300847 
1204.000000	64.303755 
1203.000000	64.310860 
1202.000000	64.320874 
1201.000000	64.332365 
1200.000000	64.344024 
1199.000000	64.354920 
1198.000000	64.364290 
1197.000000	64.371752 
1196.000000	64.377546 
1195.000000	64.382433 
1194.000000	64.387464 
1193.000000	64.393591 
1192.000000	64.401936 
1191.000000	64.412951 
1190.000000	64.426445 
1189.000000	64.441537 
1188.000000	64.456748 
1187.000000	64.469933 
1186.000000	64.479207 
1185.000000	64.482474 
1184.000000	64.478325 
1183.000000	64.465856 
1182.000000	64.445185 
1181.000000	64.417290 
1180.000000	64.384055 
1179.000000	64.348292 
1178.000000	64.313268 
1177.000000	64.282155 
1176.000000	64.257693 
1175.000000	64.241719 
1174.000000	64.234662 
1173.000000	64.235424 
1172.000000	64.241671 
1171.000000	64.250159 
1170.000000	64.257574 
1169.000000	64.261102 
1168.000000	64.259243 
1167.000000	64.251732 
1166.000000	64.239811 
1165.000000	64.225697 
1164.000000	64.211726 
1163.000000	64.199876 
1162.000000	64.191007 
1161.000000	64.184689 
1160.000000	64.179301 
1159.000000	64.172720 
1158.000000	64.163017 
1157.000000	64.149045 
1156.000000	64.130926 
1155.000000	64.110255 
1154.000000	64.089536 
1153.000000	64.071559 
1152.000000	64.058828 
1151.000000	64.052796 
1150.000000	64.054012 
1149.000000	64.062047 
1148.000000	64.075946 
1147.000000	64.094471 
1146.000000	64.116549 
1145.000000	64.141225 
1144.000000	64.167618 
1143.000000	64.194750 
1142.000000	64.221167 
1141.000000	64.245200 
1140.000000	64.264845 
1139.000000	64.278244 
1138.000000	64.284515 
1137.000000	64.283728 
1136.000000	64.277505 
1135.000000	64.268541 
1134.000000	64.259934 
1133.000000	64.254784 
1132.000000	64.255547 
1131.000000	64.263558 
1130.000000	64.278674 
1129.000000	64.299273 
1128.000000	64.323210 
1127.000000	64.347600 
1126.000000	64.369320 
1125.000000	64.385843 
1124.000000	64.395284 
1123.000000	64.396643 
1122.000000	64.389920 
1121.000000	64.376020 
1120.000000	64.356684 
1119.000000	64.334011 
1118.000000	64.309930 
1117.000000	64.285993 
1116.000000	64.262962 
1115.000000	64.240765 
1114.000000	64.218783 
1113.000000	64.196109 
1112.000000	64.172339 
1111.000000	64.148163 
1110.000000	64.125633 
1109.000000	64.107847 
1108.000000	64.098381 
1107.000000	64.100384 
1106.000000	64.115834 
1105.000000	64.144253 
1104.000000	64.183187 
1103.000000	64.228129 
1102.000000	64.273858 
1101.000000	64.315199 
1100.000000	64.348769 
1099.000000	64.373469 
1098.000000	64.390659 
1097.000000	64.403247 
1096.000000	64.414668 
1095.000000	64.427828 
1094.000000	64.443802 
1093.000000	64.461636 
1092.000000	64.478969 
1091.000000	64.492750 
1090.000000	64.500570 
1089.000000	64.501428 
1088.000000	64.495921 
1087.000000	64.486098 
1086.000000	64.474797 
1085.000000	64.464855 
1084.000000	64.457917 
1083.000000	64.454245 
1082.000000	64.453005 
1081.000000	64.452409 
1080.000000	64.450907 
1079.000000	64.446973 
1078.000000	64.440321 
1077.000000	64.431023 
1076.000000	64.419555 
1075.000000	64.406085 
1074.000000	64.390087 
1073.000000	64.370703 
1072.000000	64.347124 
1071.000000	64.318943 
1070.000000	64.286613 
1069.000000	64.251565 
1068.000000	64.216423 
1067.000000	64.183926 
1066.000000	64.156579 
1065.000000	64.136242 
1064.000000	64.123964 
1063.000000	64.119935 
1062.000000	64.123654 
1061.000000	64.134359 
1060.000000	64.151310 
1059.000000	64.173722 
1058.000000	64.200830 
1057.000000	64.231419 
1056.000000	64.263820 
1055.000000	64.295601 
1054.000000	64.323735 
1053.000000	64.345049 
1052.000000	64.356756 
1051.000000	64.357542 
1050.000000	64.347076 
1049.000000	64.326763 
1048.000000	64.298772 
1047.000000	64.266228 
1046.000000	64.231920 
1045.000000	64.197945 
1044.000000	64.165639 
1043.000000	64.135360 
1042.000000	64.107012 
1041.000000	64.080381 
1040.000000	64.055681 
1039.000000	64.033746 
1038.000000	64.016127 
1037.000000	64.004659 
1036.000000	64.001059 
1035.000000	64.006257 
1034.000000	64.019680 
1033.000000	64.039468 
1032.000000	64.062476 
1031.000000	64.085054 
1030.000000	64.103841 
1029.000000	64.116692 
1028.000000	64.122915 
1027.000000	64.123773 
1026.000000	64.121699 
1025.000000	64.119935 
1024.000000	64.121508 
1023.000000	64.128446 
1022.000000	64.141392 
1021.000000	64.159369 
1020.000000	64.180159 
1019.000000	64.200639 
1018.000000	64.217758 
1017.000000	64.228940 
1016.000000	64.233040 
1015.000000	64.230132 
1014.000000	64.221429 
1013.000000	64.209103 
1012.000000	64.196062 
1011.000000	64.185190 
1010.000000	64.178609 
1009.000000	64.177918 
1008.000000	64.183306 
1007.000000	64.193844 
1006.000000	64.207386 
1005.000000	64.221096 
1004.000000	64.232230 
1003.000000	64.238762 
1002.000000	64.240074 
1001.000000	64.236950 
1000.000000	64.231371 
999.000000	 64.225959 
998.000000	 64.223027 
997.000000	 64.223980 
996.000000	 64.228796 
995.000000	 64.236044 
994.000000	 64.243435 
993.000000	 64.248561 
992.000000	 64.249849 
991.000000	 64.247131 
990.000000	 64.242076 
989.000000	 64.237737 
988.000000	 64.237713 
987.000000	 64.245200 
986.000000	 64.261913 
985.000000	 64.287328 
984.000000	 64.318895 
983.000000	 64.352297 
982.000000	 64.382481 
981.000000	 64.404630 
980.000000	 64.415144 
979.000000	 64.412260 
978.000000	 64.396476 
977.000000	 64.370536 
976.000000	 64.339017 
975.000000	 64.307379 
974.000000	 64.281177 
973.000000	 64.264917 
972.000000	 64.261293 
971.000000	 64.270472 
970.000000	 64.290380 
969.000000	 64.317011 
968.000000	 64.345502 
967.000000	 64.371299 
966.000000	 64.390707 
965.000000	 64.402079 
964.000000	 64.405584 
963.000000	 64.403033 
962.000000	 64.397096 
961.000000	 64.390444 
960.000000	 64.385128 
959.000000	 64.381933 
958.000000	 64.380407 
957.000000	 64.379334 
956.000000	 64.377164 
955.000000	 64.372777 
954.000000	 64.365816 
953.000000	 64.356708 
952.000000	 64.346623 
951.000000	 64.336800 
950.000000	 64.328527 
949.000000	 64.322376 
948.000000	 64.318299 
947.000000	 64.316034 
946.000000	 64.314699 
945.000000	 64.313292 
944.000000	 64.310646 
943.000000	 64.306044 
942.000000	 64.298915 
941.000000	 64.288949 
940.000000	 64.276099 
939.000000	 64.260411 
938.000000	 64.242482 
937.000000	 64.223289 
936.000000	 64.204216 
935.000000	 64.186716 
934.000000	 64.172196 
933.000000	 64.161968 
932.000000	 64.156746 
931.000000	 64.156699 
930.000000	 64.161133 
929.000000	 64.169025 
928.000000	 64.179253 
927.000000	 64.190983 
926.000000	 64.204049 
925.000000	 64.219236 
924.000000	 64.237713 
923.000000	 64.261078 
922.000000	 64.290738 
921.000000	 64.327049 
920.000000	 64.369344 
919.000000	 64.415192 
918.000000	 64.460825 
917.000000	 64.501118 
916.000000	 64.531302 
915.000000	 64.547014 
914.000000	 64.545512 
913.000000	 64.526009 
912.000000	 64.490199 
911.000000	 64.441823 
910.000000	 64.386200 
909.000000	 64.329218 
908.000000	 64.276695 
907.000000	 64.233207 
906.000000	 64.201664 
905.000000	 64.183092 
904.000000	 64.176559 
903.000000	 64.179611 
902.000000	 64.188814 
901.000000	 64.200305 
900.000000	 64.210414 
899.000000	 64.216208 
898.000000	 64.216184 
897.000000	 64.209794 
896.000000	 64.197874 
895.000000	 64.182448 
894.000000	 64.166522 
893.000000	 64.153170 
892.000000	 64.144992 
891.000000	 64.143896 
890.000000	 64.150214 
889.000000	 64.162969 
888.000000	 64.179754 
887.000000	 64.197397 
886.000000	 64.212727 
885.000000	 64.223074 
884.000000	 64.227008 
883.000000	 64.224433 
882.000000	 64.216780 
881.000000	 64.206361 
880.000000	 64.195728 
879.000000	 64.186978 
878.000000	 64.181375 
877.000000	 64.179205 
876.000000	 64.179444 
875.000000	 64.180231 
874.000000	 64.179372 
873.000000	 64.174962 
872.000000	 64.165782 
871.000000	 64.151597 
870.000000	 64.132976 
869.000000	 64.111447 
868.000000	 64.088797 
867.000000	 64.067029 
866.000000	 64.047884 
865.000000	 64.032530 
864.000000	 64.021706 
863.000000	 64.015698 
862.000000	 64.014196 
861.000000	 64.016938 
860.000000	 64.023518 
859.000000	 64.033985 
858.000000	 64.048075 
857.000000	 64.065909 
856.000000	 64.087414 
855.000000	 64.112424 
854.000000	 64.140462 
853.000000	 64.170694 
852.000000	 64.201951 
851.000000	 64.232611 
850.000000	 64.260792 
849.000000	 64.284157 
848.000000	 64.300322 
847.000000	 64.307260 
846.000000	 64.303708 
845.000000	 64.289689 
844.000000	 64.266657 
843.000000	 64.237666 
842.000000	 64.206814 
841.000000	 64.178752 
840.000000	 64.157342 
839.000000	 64.145278 
838.000000	 64.142799 
837.000000	 64.148068 
836.000000	 64.157414 
835.000000	 64.166116 
834.000000	 64.169955 
833.000000	 64.166307 
832.000000	 64.154934 
831.000000	 64.137864 
830.000000	 64.119148 
829.000000	 64.103460 
828.000000	 64.094853 
827.000000	 64.095640 
826.000000	 64.105844 
825.000000	 64.123153 
824.000000	 64.143896 
823.000000	 64.163923 
822.000000	 64.179992 
821.000000	 64.190387 
820.000000	 64.195275 
819.000000	 64.196276 
818.000000	 64.195656 
817.000000	 64.195275 
816.000000	 64.196109 
815.000000	 64.197659 
814.000000	 64.198517 
813.000000	 64.196348 
812.000000	 64.189386 
811.000000	 64.176249 
810.000000	 64.156532 
809.000000	 64.130759 
808.000000	 64.100146 
807.000000	 64.066624 
806.000000	 64.032340 
805.000000	 63.999819 
804.000000	 63.971614 
803.000000	 63.950586 
802.000000	 63.939309 
801.000000	 63.939929 
800.000000	 63.953471 
799.000000	 63.979649 
798.000000	 64.016652 
797.000000	 64.061212 
796.000000	 64.108824 
795.000000	 64.154958 
794.000000	 64.195442 
793.000000	 64.227461 
792.000000	 64.249897 
791.000000	 64.263343 
790.000000	 64.269638 
789.000000	 64.271235 
788.000000	 64.270210 
787.000000	 64.268016 
786.000000	 64.264798 
785.000000	 64.260411 
784.000000	 64.254140 
783.000000	 64.245700 
782.000000	 64.235305 
781.000000	 64.224290 
780.000000	 64.214515 
779.000000	 64.208102 
778.000000	 64.206600 
777.000000	 64.210534 
776.000000	 64.218807 
775.000000	 64.229130 
774.000000	 64.238476 
773.000000	 64.243817 
772.000000	 64.242935 
771.000000	 64.234852 
770.000000	 64.220118 
769.000000	 64.200472 
768.000000	 64.178299 
767.000000	 64.155983 
766.000000	 64.134955 
765.000000	 64.115834 
764.000000	 64.098668 
763.000000	 64.083600 
762.000000	 64.071011 
761.000000	 64.061880 
760.000000	 64.057874 
759.000000	 64.060831 
758.000000	 64.072060 
757.000000	 64.091563 
756.000000	 64.117550 
755.000000	 64.146733 
754.000000	 64.174318 
753.000000	 64.195466 
752.000000	 64.205813 
751.000000	 64.203047 
750.000000	 64.187240 
749.000000	 64.161062 
748.000000	 64.129376 
747.000000	 64.098048 
746.000000	 64.072608 
745.000000	 64.056658 
744.000000	 64.051222 
743.000000	 64.054179 
742.000000	 64.061045 
741.000000	 64.065837 
740.000000	 64.062809 
739.000000	 64.047765 
738.000000	 64.019513 
737.000000	 63.980054 
736.000000	 63.934683 
735.000000	 63.890266 
734.000000	 63.853979 
733.000000	 63.831448 
732.000000	 63.825440 
731.000000	 63.835287 
730.000000	 63.857388 
729.000000	 63.886094 
728.000000	 63.915228 
727.000000	 63.939452 
726.000000	 63.955354 
725.000000	 63.961982 
724.000000	 63.960719 
723.000000	 63.954091 
722.000000	 63.945460 
721.000000	 63.937592 
720.000000	 63.932561 
719.000000	 63.931274 
718.000000	 63.933682 
717.000000	 63.939285 
716.000000	 63.947224 
715.000000	 63.956832 
714.000000	 63.967394 
713.000000	 63.978123 
712.000000	 63.987946 
711.000000	 63.995742 
710.000000	 64.000344 
709.000000	 64.001059 
708.000000	 63.998031 
707.000000	 63.991999 
706.000000	 63.984680 
705.000000	 63.977694 
704.000000	 63.972854 
703.000000	 63.970828 
702.000000	 63.970851 
701.000000	 63.970923 
700.000000	 63.968372 
699.000000	 63.960790 
698.000000	 63.946986 
697.000000	 63.927531 
696.000000	 63.905048 
695.000000	 63.883376 
694.000000	 63.866758 
693.000000	 63.858413 
692.000000	 63.859534 
691.000000	 63.869023 
690.000000	 63.883662 
689.000000	 63.898897 
688.000000	 63.910079 
687.000000	 63.913249 
686.000000	 63.906097 
685.000000	 63.888049 
684.000000	 63.860678 
683.000000	 63.826775 
682.000000	 63.790321 
681.000000	 63.755464 
680.000000	 63.726186 
679.000000	 63.705682 
678.000000	 63.696122 
677.000000	 63.698530 
676.000000	 63.712525 
675.000000	 63.736557 
674.000000	 63.767957 
673.000000	 63.803124 
672.000000	 63.838124 
671.000000	 63.869071 
670.000000	 63.892984 
669.000000	 63.907861 
668.000000	 63.913226 
667.000000	 63.910102 
666.000000	 63.900661 
665.000000	 63.887691 
664.000000	 63.873934 
663.000000	 63.861560 
662.000000	 63.851857 
661.000000	 63.845348 
660.000000	 63.841867 
659.000000	 63.840985 
658.000000	 63.842296 
657.000000	 63.845705 
656.000000	 63.851451 
655.000000	 63.859891 
654.000000	 63.871049 
653.000000	 63.884353 
652.000000	 63.898563 
651.000000	 63.911747 
650.000000	 63.921856 
649.000000	 63.926839 
648.000000	 63.925170 
647.000000	 63.916110 
646.000000	 63.899993 
645.000000	 63.878369 
644.000000	 63.853406 
643.000000	 63.827776 
642.000000	 63.803958 
641.000000	 63.784289 
640.000000	 63.770198 
639.000000	 63.762474 
638.000000	 63.761186 
637.000000	 63.765621 
636.000000	 63.774609 
635.000000	 63.786458 
634.000000	 63.798999 
633.000000	 63.810038 
632.000000	 63.817429 
631.000000	 63.819289 
630.000000	 63.814091 
629.000000	 63.800835 
628.000000	 63.779163 
627.000000	 63.749933 
626.000000	 63.715314 
625.000000	 63.678526 
624.000000	 63.643574 
623.000000	 63.614439 
622.000000	 63.594436 
621.000000	 63.585400 
620.000000	 63.587546 
619.000000	 63.599085 
618.000000	 63.617420 
617.000000	 63.639736 
616.000000	 63.664007 
615.000000	 63.689708 
614.000000	 63.717222 
613.000000	 63.747239 
612.000000	 63.779711 
611.000000	 63.813376 
610.000000	 63.844323 
609.000000	 63.866162 
608.000000	 63.872075 
607.000000	 63.856768 
606.000000	 63.818883 
605.000000	 63.762140 
604.000000	 63.696098 
603.000000	 63.634228 
602.000000	 63.590407 
601.000000	 63.575696 
600.000000	 63.594365 
599.000000	 63.643074 
598.000000	 63.712358 
597.000000	 63.788390 
596.000000	 63.856744 
595.000000	 63.905596 
594.000000	 63.927435 
593.000000	 63.921451 
592.000000	 63.892436 
591.000000	 63.850545 
590.000000	 63.807439 
589.000000	 63.775181 
588.000000	 63.763046 
587.000000	 63.776850 
586.000000	 63.818454 
585.000000	 63.885712 
584.000000	 63.972997 
583.000000	 64.073562 
582.000000	 64.180970 
581.000000	 64.289879 
580.000000	 64.396023 
579.000000	 64.496636 
578.000000	 64.588904 
577.000000	 64.669513 
576.000000	 64.732813 
575.000000	 64.769601 
574.000000	 64.768791 
573.000000	 64.719724 
572.000000	 64.617061 
571.000000	 64.463233 
570.000000	 64.271616 
569.000000	 64.067244 
568.000000	 63.881969 
567.000000	 63.748621 
566.000000	 63.692283 
565.000000	 63.725733 
564.000000	 63.843083 
563.000000	 64.021468 
562.000000	 64.223694 
561.000000	 64.406967 
560.000000	 64.531111 
559.000000	 64.567327 
558.000000	 64.504098 
557.000000	 64.348316 
556.000000	 64.123845 
555.000000	 63.864874 
554.000000	 63.609004 
553.000000	 63.389039 
552.000000	 63.228917 
551.000000	 63.140606 
550.000000	 63.124227 
549.000000	 63.170671 
548.000000	 63.265919 
547.000000	 63.395714 
546.000000	 63.545370 
545.000000	 63.704848 
544.000000	 63.867759 
543.000000	 64.032530 
542.000000	 64.198279 
541.000000	 64.364981 
540.000000	 64.530420 
539.000000	 64.690327 
538.000000	 64.839911 
537.000000	 64.972496 
536.000000	 65.081763 
535.000000	 65.161943 
534.000000	 65.211486 
533.000000	 65.230107 
532.000000	 65.220046 
531.000000	 65.184855 
530.000000	 65.129733 
529.000000	 65.061020 
528.000000	 64.986181 
527.000000	 64.912509 
526.000000	 64.846348 
525.000000	 64.791584 
524.000000	 64.748430 
523.000000	 64.712786 
522.000000	 64.676666 
521.000000	 64.628171 
520.000000	 64.555573 
519.000000	 64.448666 
518.000000	 64.304757 
517.000000	 64.130473 
516.000000	 63.943338 
515.000000	 63.767242 
514.000000	 63.629722 
513.000000	 63.554763 
512.000000	 63.558673 
511.000000	 63.644790 
510.000000	 63.803935 
509.000000	 64.015340 
508.000000	 64.251828 
507.000000	 64.485406 
506.000000	 64.691901 
505.000000	 64.854812 
504.000000	 64.965844 
503.000000	 65.023612 
502.000000	 65.032005 
501.000000	 64.997696 
500.000000	 64.928007 
499.000000	 64.829564 
498.000000	 64.708757 
497.000000	 64.571094 
496.000000	 64.422845 
495.000000	 64.269828 
494.000000	 64.116072 
493.000000	 63.964200 
492.000000	 63.813853 
491.000000	 63.665699 
490.000000	 63.520598 
489.000000	 63.386106 
488.000000	 63.273000 
487.000000	 63.200044 
486.000000	 63.189101 
485.000000	 63.261508 
484.000000	 63.430571 
483.000000	 63.696336 
482.000000	 64.042210 
481.000000	 64.435076 
480.000000	 64.829730 
479.000000	 65.177202 
478.000000	 65.434789 
477.000000	 65.573692 
476.000000	 65.584683 
475.000000	 65.478587 
474.000000	 65.282988 
473.000000	 65.034270 
472.000000	 64.769935 
471.000000	 64.521527 
470.000000	 64.309883 
469.000000	 64.146089 
468.000000	 64.031481 
467.000000	 63.961100 
466.000000	 63.925528 
465.000000	 63.915443 
464.000000	 63.921332 
463.000000	 63.931655 
462.000000	 63.934659 
461.000000	 63.916707 
460.000000	 63.866567 
459.000000	 63.774967 
458.000000	 63.640213 
457.000000	 63.469076 
456.000000	 63.276815 
455.000000	 63.084578 
454.000000	 62.914681 
453.000000	 62.785196 
452.000000	 62.706375 
451.000000	 62.678956 
450.000000	 62.693691 
449.000000	 62.733459 
448.000000	 62.780141 
447.000000	 62.819647 
446.000000	 62.845015 
445.000000	 62.857723 
444.000000	 62.866282 
443.000000	 62.882971 
442.000000	 62.920689 
441.000000	 62.989044 
440.000000	 63.088941 
439.000000	 63.213467 
438.000000	 63.351917 
437.000000	 63.492012 
436.000000	 63.623833 
435.000000	 63.742113 
434.000000	 63.843727 
433.000000	 63.929796 
432.000000	 64.010047 
431.000000	 64.093255 
430.000000	 64.180874 
429.000000	 64.267444 
428.000000	 64.346241 
427.000000	 64.404177 
426.000000	 64.425897 
425.000000	 64.397978 
424.000000	 64.313435 
423.000000	 64.175963 
422.000000	 64.001798 
421.000000	 63.815331 
420.000000	 63.644576 
419.000000	 63.517546 
418.000000	 63.457369 
417.000000	 63.486146 
416.000000	 63.620328 
415.000000	 63.872432 
414.000000	 64.243531 
413.000000	 64.715862 
412.000000	 65.244960 
411.000000	 65.784120 
410.000000	 66.266274 
409.000000	 66.604900 
408.000000	 66.698384 
407.000000	 66.471338 
406.000000	 65.864682 
405.000000	 64.848303 
404.000000	 63.433098 
403.000000	 61.675095 
402.000000	 59.685325 
401.000000	 57.605099 
400.000000	 55.618429 
399.000000	 53.938531 
398.000000	 52.754402 
397.000000	 52.198863 
396.000000	 52.301645 
395.000000	 52.963495 
394.000000	 54.011535 
393.000000	 55.239462 
392.000000	 56.425690 
391.000000	 57.388138 
390.000000	 57.963991 
389.000000	 58.075928 
388.000000	 57.764983 
387.000000	 57.187843 
386.000000	 56.840562 
385.000000	 57.356572 
384.000000	 58.905029 
383.000000	 61.398577 
382.000000	 64.649438 
381.000000	 68.356323 
380.000000	 72.735428 
379.000000	 77.838182 
378.000000	 83.180189 
377.000000	 88.071918 
376.000000	 90.667605 
375.000000	 89.961290 
374.000000	 86.817407 
373.000000	 83.158755 
372.000000	 83.099436 
371.000000	 88.703632 
370.000000	 98.343729 

