PE IR       SPECTRUM    SPECTRUM    ASCII       PEDS        1.60        
  -1
BZ6EA1~1.ASC
17/04/07
14:30:22.00
17/04/07
14:30:22.00
tln
$BZ1503107-1_t0016$<tbV0>[2.6,-10.4,8.0,0.0,27,1,0]
370.000000
64









2002,4.07    
MIRTGS : RIGHTBACK : INTERNAL 2
MIR : ON : INTERNAL 2
OPTKBR

0.200000
8
8.000000
FILLER
RATIO
SPECTRUM
UNLOCKED 256

DOUBLE
64
COMBINED
1
0
0


1.000000
RATIO


1
0
TRUE
51149
0
LEFT NOT FITTED RIGHT NOT FITTED 0
NONE
NONE
15600
12.000000
4.427000
51148
TRUE
1 0 8 72 0 0 0 0 

15798.010000






#HDR
-1
-1
#GR
CM-1
%T
0.00002384185791015625
0.0
5000.000000
-1.000000
4631
8
75.354671
38.180375
#DATA
5000.000000	64.225554 
4999.000000	64.001202 
4998.000000	63.813614 
4997.000000	63.671565 
4996.000000	63.581252 
4995.000000	63.543939 
4994.000000	63.560581 
4993.000000	63.628983 
4992.000000	63.747644 
4991.000000	63.912034 
4990.000000	64.117074 
4989.000000	64.354920 
4988.000000	64.613437 
4987.000000	64.875411 
4986.000000	65.118741 
4985.000000	65.318918 
4984.000000	65.451526 
4983.000000	65.496993 
4982.000000	65.445041 
4981.000000	65.297698 
4980.000000	65.071129 
4979.000000	64.792728 
4978.000000	64.496326 
4977.000000	64.215707 
4976.000000	63.978886 
4975.000000	63.804745 
4974.000000	63.699197 
4973.000000	63.660526 
4972.000000	63.681960 
4971.000000	63.757848 
4970.000000	63.884329 
4969.000000	64.060926 
4968.000000	64.286589 
4967.000000	64.557313 
4966.000000	64.859223 
4965.000000	65.171861 
4964.000000	65.467762 
4963.000000	65.720367 
4962.000000	65.908098 
4961.000000	66.022944 
4960.000000	66.072845 
4959.000000	66.079235 
4958.000000	66.072130 
4957.000000	66.079068 
4956.000000	66.117262 
4955.000000	66.187787 
4954.000000	66.275262 
4953.000000	66.352820 
4952.000000	66.389679 
4951.000000	66.363406 
4950.000000	66.264557 
4949.000000	66.100072 
4948.000000	65.889453 
4947.000000	65.660619 
4946.000000	65.439844 
4945.000000	65.243840 
4944.000000	65.075898 
4943.000000	64.928555 
4942.000000	64.785385 
4941.000000	64.629650 
4940.000000	64.448428 
4939.000000	64.238047 
4938.000000	64.005303 
4937.000000	63.765072 
4936.000000	63.537621 
4935.000000	63.339376 
4934.000000	63.186383 
4933.000000	63.089895 
4932.000000	63.057971 
4931.000000	63.093495 
4930.000000	63.197517 
4929.000000	63.368105 
4928.000000	63.598513 
4927.000000	63.876318 
4926.000000	64.182400 
4925.000000	64.493417 
4924.000000	64.784336 
4923.000000	65.033483 
4922.000000	65.226697 
4921.000000	65.359473 
4920.000000	65.439510 
4919.000000	65.481090 
4918.000000	65.501570 
4917.000000	65.513920 
4916.000000	65.526294 
4915.000000	65.536832 
4914.000000	65.537428 
4913.000000	65.515303 
4912.000000	65.462636 
4911.000000	65.375590 
4910.000000	65.258026 
4909.000000	65.119600 
4908.000000	64.974141 
4907.000000	64.835810 
4906.000000	64.715623 
4905.000000	64.620471 
4904.000000	64.552259 
4903.000000	64.510369 
4902.000000	64.493203 
4901.000000	64.499950 
4900.000000	64.531183 
4899.000000	64.588189 
4898.000000	64.671993 
4897.000000	64.779591 
4896.000000	64.904451 
4895.000000	65.036988 
4894.000000	65.166544 
4893.000000	65.282797 
4892.000000	65.377902 
4891.000000	65.448951 
4890.000000	65.496873 
4889.000000	65.525579 
4888.000000	65.539813 
4887.000000	65.544915 
4886.000000	65.543413 
4885.000000	65.536832 
4884.000000	65.523099 
4883.000000	65.499353 
4882.000000	65.461421 
4881.000000	65.407323 
4880.000000	65.335798 
4879.000000	65.247488 
4878.000000	65.144705 
4877.000000	65.031743 
4876.000000	64.912962 
4875.000000	64.792585 
4874.000000	64.675378 
4873.000000	64.566993 
4872.000000	64.473628 
4871.000000	64.402294 
4870.000000	64.359617 
4869.000000	64.351296 
4868.000000	64.380717 
4867.000000	64.447855 
4866.000000	64.547562 
4865.000000	64.669895 
4864.000000	64.801287 
4863.000000	64.926481 
4862.000000	65.029644 
4861.000000	65.098237 
4860.000000	65.124940 
4859.000000	65.109324 
4858.000000	65.057420 
4857.000000	64.981317 
4856.000000	64.895844 
4855.000000	64.817237 
4854.000000	64.760184 
4853.000000	64.736080 
4852.000000	64.751648 
4851.000000	64.808201 
4850.000000	64.901947 
4849.000000	65.023779 
4848.000000	65.160822 
4847.000000	65.298032 
4846.000000	65.420770 
4845.000000	65.516614 
4844.000000	65.577125 
4843.000000	65.599703 
4842.000000	65.586781 
4841.000000	65.545344 
4840.000000	65.484428 
4839.000000	65.413284 
4838.000000	65.339422 
4837.000000	65.267968 
4836.000000	65.201783 
4835.000000	65.142869 
4834.000000	65.093612 
4833.000000	65.058135 
4832.000000	65.041565 
4831.000000	65.049767 
4830.000000	65.086030 
4829.000000	65.149378 
4828.000000	65.232753 
4827.000000	65.322828 
4826.000000	65.403509 
4825.000000	65.458822 
4824.000000	65.478229 
4823.000000	65.459084 
4822.000000	65.408110 
4821.000000	65.339517 
4820.000000	65.271329 
4819.000000	65.220046 
4818.000000	65.195703 
4817.000000	65.198969 
4816.000000	65.220141 
4815.000000	65.242648 
4814.000000	65.248608 
4813.000000	65.225005 
4812.000000	65.166735 
4811.000000	65.080785 
4810.000000	64.984035 
4809.000000	64.900541 
4808.000000	64.853930 
4807.000000	64.862513 
4806.000000	64.933729 
4805.000000	65.062403 
4804.000000	65.232515 
4803.000000	65.419554 
4802.000000	65.596914 
4801.000000	65.740656 
4800.000000	65.834212 
4799.000000	65.871429 
4798.000000	65.856599 
4797.000000	65.802550 
4796.000000	65.726256 
4795.000000	65.645313 
4794.000000	65.573668 
4793.000000	65.520381 
4792.000000	65.487837 
4791.000000	65.471982 
4790.000000	65.463376 
4789.000000	65.451073 
4788.000000	65.424585 
4787.000000	65.375304 
4786.000000	65.299725 
4785.000000	65.198493 
4784.000000	65.078902 
4783.000000	64.953064 
4782.000000	64.836645 
4781.000000	64.745926 
4780.000000	64.693808 
4779.000000	64.688086 
4778.000000	64.727592 
4777.000000	64.802622 
4776.000000	64.895081 
4775.000000	64.982080 
4774.000000	65.040469 
4773.000000	65.051174 
4772.000000	65.005159 
4771.000000	64.905023 
4770.000000	64.766192 
4769.000000	64.612889 
4768.000000	64.476299 
4767.000000	64.387416 
4766.000000	64.371442 
4765.000000	64.441251 
4764.000000	64.594578 
4763.000000	64.813113 
4762.000000	65.066790 
4761.000000	65.318942 
4760.000000	65.533041 
4759.000000	65.680074 
4758.000000	65.743541 
4757.000000	65.722155 
4756.000000	65.627765 
4755.000000	65.482449 
4754.000000	65.313100 
4753.000000	65.145421 
4752.000000	65.000152 
4751.000000	64.889073 
4750.000000	64.817023 
4749.000000	64.780473 
4748.000000	64.772462 
4747.000000	64.783143 
4746.000000	64.803528 
4745.000000	64.825463 
4744.000000	64.842224 
4743.000000	64.848613 
4742.000000	64.840030 
4741.000000	64.815187 
4740.000000	64.775753 
4739.000000	64.727234 
4738.000000	64.677762 
4737.000000	64.636683 
4736.000000	64.612531 
4735.000000	64.611315 
4734.000000	64.634943 
4733.000000	64.681196 
4732.000000	64.743900 
4731.000000	64.814877 
4730.000000	64.884805 
4729.000000	64.945697 
4728.000000	64.991068 
4727.000000	65.015983 
4726.000000	65.017795 
4725.000000	64.995622 
4724.000000	64.951133 
4723.000000	64.888405 
4722.000000	64.813685 
4721.000000	64.734554 
4720.000000	64.659142 
4719.000000	64.596462 
4718.000000	64.552021 
4717.000000	64.527082 
4716.000000	64.517688 
4715.000000	64.515709 
4714.000000	64.511227 
4713.000000	64.495563 
4712.000000	64.464020 
4711.000000	64.417934 
4710.000000	64.364528 
4709.000000	64.315581 
4708.000000	64.284181 
4707.000000	64.281368 
4706.000000	64.313101 
4705.000000	64.378499 
4704.000000	64.470267 
4703.000000	64.575982 
4702.000000	64.680981 
4701.000000	64.771914 
4700.000000	64.838910 
4699.000000	64.878606 
4698.000000	64.893531 
4697.000000	64.892077 
4696.000000	64.884972 
4695.000000	64.883255 
4694.000000	64.895558 
4693.000000	64.925909 
4692.000000	64.974045 
4691.000000	65.034198 
4690.000000	65.097641 
4689.000000	65.154027 
4688.000000	65.194606 
4687.000000	65.213465 
4686.000000	65.209150 
4685.000000	65.184688 
4684.000000	65.146827 
4683.000000	65.104675 
4682.000000	65.067648 
4681.000000	65.043497 
4680.000000	65.036630 
4679.000000	65.048074 
4678.000000	65.075016 
4677.000000	65.112209 
4676.000000	65.152597 
4675.000000	65.188932 
4674.000000	65.215015 
4673.000000	65.226316 
4672.000000	65.221238 
4671.000000	65.201044 
4670.000000	65.169858 
4669.000000	65.132975 
4668.000000	65.096473 
4667.000000	65.066385 
4666.000000	65.046930 
4665.000000	65.040278 
4664.000000	65.045452 
4663.000000	65.058946 
4662.000000	65.075039 
4661.000000	65.087223 
4660.000000	65.088963 
4659.000000	65.075111 
4658.000000	65.042757 
4657.000000	64.991879 
4656.000000	64.925551 
4655.000000	64.849662 
4654.000000	64.771509 
4653.000000	64.698791 
4652.000000	64.638566 
4651.000000	64.596009 
4650.000000	64.573788 
4649.000000	64.571547 
4648.000000	64.586234 
4647.000000	64.612555 
4646.000000	64.643931 
4645.000000	64.673876 
4644.000000	64.696693 
4643.000000	64.708781 
4642.000000	64.708328 
4641.000000	64.696645 
4640.000000	64.676880 
4639.000000	64.654254 
4638.000000	64.634394 
4637.000000	64.622974 
4636.000000	64.624381 
4635.000000	64.641332 
4634.000000	64.674329 
4633.000000	64.721250 
4632.000000	64.777612 
4631.000000	64.837241 
4630.000000	64.893007 
4629.000000	64.937782 
4628.000000	64.965391 
4627.000000	64.971661 
4626.000000	64.955163 
4625.000000	64.917111 
4624.000000	64.861655 
4623.000000	64.795613 
4622.000000	64.727044 
4621.000000	64.664340 
4620.000000	64.614439 
4619.000000	64.582681 
4618.000000	64.570736 
4617.000000	64.577341 
4616.000000	64.597630 
4615.000000	64.624714 
4614.000000	64.650702 
4613.000000	64.668297 
4612.000000	64.672660 
4611.000000	64.661526 
4610.000000	64.636516 
4609.000000	64.602255 
4608.000000	64.565491 
4607.000000	64.533376 
4606.000000	64.511609 
4605.000000	64.503097 
4604.000000	64.507603 
4603.000000	64.522194 
4602.000000	64.542555 
4601.000000	64.564347 
4600.000000	64.584159 
4599.000000	64.600419 
4598.000000	64.613485 
4597.000000	64.624929 
4596.000000	64.636158 
4595.000000	64.647769 
4594.000000	64.659118 
4593.000000	64.668369 
4592.000000	64.673399 
4591.000000	64.672565 
4590.000000	64.665460 
4589.000000	64.653325 
4588.000000	64.639139 
4587.000000	64.626431 
4586.000000	64.618134 
4585.000000	64.616036 
4584.000000	64.620113 
4583.000000	64.629554 
4582.000000	64.643430 
4581.000000	64.661216 
4580.000000	64.683055 
4579.000000	64.709019 
4578.000000	64.738726 
4577.000000	64.770174 
4576.000000	64.799571 
4575.000000	64.821600 
4574.000000	64.830708 
4573.000000	64.822721 
4572.000000	64.796090 
4571.000000	64.752578 
4570.000000	64.697384 
4569.000000	64.637994 
4568.000000	64.582681 
4567.000000	64.538717 
4566.000000	64.510560 
4565.000000	64.499568 
4564.000000	64.503502 
4563.000000	64.517927 
4562.000000	64.536833 
4561.000000	64.554595 
4560.000000	64.566469 
4559.000000	64.569115 
4558.000000	64.560842 
4557.000000	64.540982 
4556.000000	64.509916 
4555.000000	64.468669 
4554.000000	64.419126 
4553.000000	64.364027 
4552.000000	64.307022 
4551.000000	64.252424 
4550.000000	64.204668 
4549.000000	64.167857 
4548.000000	64.144635 
4547.000000	64.136195 
4546.000000	64.141464 
4545.000000	64.158248 
4544.000000	64.183831 
4543.000000	64.215946 
4542.000000	64.253163 
4541.000000	64.294934 
4540.000000	64.340376 
4539.000000	64.388132 
4538.000000	64.435815 
4537.000000	64.480280 
4536.000000	64.517593 
4535.000000	64.544248 
4534.000000	64.558529 
4533.000000	64.560317 
4532.000000	64.551258 
4531.000000	64.534449 
4530.000000	64.514136 
4529.000000	64.494180 
4528.000000	64.477324 
4527.000000	64.465522 
4526.000000	64.460182 
4525.000000	64.461469 
4524.000000	64.468073 
4523.000000	64.479351 
4522.000000	64.495015 
4521.000000	64.512753 
4520.000000	64.529085 
4519.000000	64.539480 
4518.000000	64.540743 
4517.000000	64.532136 
4516.000000	64.516830 
4515.000000	64.503574 
4514.000000	64.503097 
4513.000000	64.522624 
4512.000000	64.565396 
4511.000000	64.628744 
4510.000000	64.705729 
4509.000000	64.787650 
4508.000000	64.865660 
4507.000000	64.932680 
4506.000000	64.985179 
4505.000000	65.023279 
4504.000000	65.050911 
4503.000000	65.070605 
4502.000000	65.090751 
4501.000000	65.123581 
4500.000000	65.185451 
4499.000000	65.292763 
4498.000000	65.461254 
4497.000000	65.701007 
4496.000000	66.009092 
4495.000000	66.367769 
4494.000000	66.743421 
4493.000000	67.095279 
4492.000000	67.381048 
4491.000000	67.572689 
4490.000000	67.668485 
4489.000000	67.694997 
4488.000000	67.705726 
4487.000000	67.760848 
4486.000000	67.914247 
4485.000000	68.187952 
4484.000000	68.566322 
4483.000000	68.991136 
4482.000000	69.378900 
4481.000000	69.636201 
4480.000000	69.694852 
4479.000000	69.516682 
4478.000000	69.106435 
4477.000000	68.506407 
4476.000000	67.787861 
4475.000000	67.030811 
4474.000000	66.307282 
4473.000000	65.667414 
4472.000000	65.134787 
4471.000000	64.705014 
4470.000000	64.355301 
4469.000000	64.058160 
4468.000000	63.793301 
4467.000000	63.556075 
4466.000000	63.357567 
4465.000000	63.211703 
4464.000000	63.128805 
4463.000000	63.104319 
4462.000000	63.119363 
4461.000000	63.133192 
4460.000000	63.105368 
4459.000000	62.998914 
4458.000000	62.809586 
4457.000000	62.562513 
4456.000000	62.324452 
4455.000000	62.190675 
4454.000000	62.259936 
4453.000000	62.608814 
4452.000000	63.259887 
4451.000000	64.165210 
4450.000000	65.216231 
4449.000000	66.258955 
4448.000000	67.148375 
4447.000000	67.783904 
4446.000000	68.139815 
4445.000000	68.270492 
4444.000000	68.277812 
4443.000000	68.274426 
4442.000000	68.339514 
4441.000000	68.491554 
4440.000000	68.680310 
4439.000000	68.805956 
4438.000000	68.763518 
4437.000000	68.480587 
4436.000000	67.953419 
4435.000000	67.252326 
4434.000000	66.510796 
4433.000000	65.885877 
4432.000000	65.509223 
4431.000000	65.452671 
4430.000000	65.700697 
4429.000000	66.163635 
4428.000000	66.706585 
4427.000000	67.185902 
4426.000000	67.496681 
4425.000000	67.587971 
4424.000000	67.471885 
4423.000000	67.208147 
4422.000000	66.872334 
4421.000000	66.540169 
4420.000000	66.261816 
4419.000000	66.057395 
4418.000000	65.917277 
4417.000000	65.814328 
4416.000000	65.719962 
4415.000000	65.609812 
4414.000000	65.474057 
4413.000000	65.317130 
4412.000000	65.156745 
4411.000000	65.012431 
4410.000000	64.902067 
4409.000000	64.834809 
4408.000000	64.811515 
4407.000000	64.827132 
4406.000000	64.872431 
4405.000000	64.937329 
4404.000000	65.012264 
4403.000000	65.088343 
4402.000000	65.159225 
4401.000000	65.218591 
4400.000000	65.263319 
4399.000000	65.294408 
4398.000000	65.313911 
4397.000000	65.324211 
4396.000000	65.325665 
4395.000000	65.315413 
4394.000000	65.289783 
4393.000000	65.246868 
4392.000000	65.186595 
4391.000000	65.112543 
4390.000000	65.029883 
4389.000000	64.944863 
4388.000000	64.865016 
4387.000000	64.798140 
4386.000000	64.750504 
4385.000000	64.725875 
4384.000000	64.725947 
4383.000000	64.749789 
4382.000000	64.792990 
4381.000000	64.848613 
4380.000000	64.908289 
4379.000000	64.963674 
4378.000000	65.006446 
4377.000000	65.030694 
4376.000000	65.033912 
4375.000000	65.016531 
4374.000000	64.981555 
4373.000000	64.933109 
4372.000000	64.875650 
4371.000000	64.812684 
4370.000000	64.746665 
4369.000000	64.679145 
4368.000000	64.610981 
4367.000000	64.543986 
4366.000000	64.481616 
4365.000000	64.428853 
4364.000000	64.391517 
4363.000000	64.374852 
4362.000000	64.382243 
4361.000000	64.413619 
4360.000000	64.465379 
4359.000000	64.531254 
4358.000000	64.604067 
4357.000000	64.677405 
4356.000000	64.747405 
4355.000000	64.812803 
4354.000000	64.875221 
4353.000000	64.937543 
4352.000000	65.002918 
4351.000000	65.073275 
4350.000000	65.148210 
4349.000000	65.225219 
4348.000000	65.299177 
4347.000000	65.364503 
4346.000000	65.415072 
4345.000000	65.446996 
4344.000000	65.457892 
4343.000000	65.448331 
4342.000000	65.420651 
4341.000000	65.379452 
4340.000000	65.329289 
4339.000000	65.274238 
4338.000000	65.217351 
4337.000000	65.160965 
4336.000000	65.106368 
4335.000000	65.054368 
4334.000000	65.005898 
4333.000000	64.962601 
4332.000000	64.926338 
4331.000000	64.899086 
4330.000000	64.882063 
4329.000000	64.875316 
4328.000000	64.877557 
4327.000000	64.886522 
4326.000000	64.898228 
4325.000000	64.908599 
4324.000000	64.914202 
4323.000000	64.913415 
4322.000000	64.905691 
4321.000000	64.892935 
4320.000000	64.878582 
4319.000000	64.867329 
4318.000000	64.863324 
4317.000000	64.869642 
4316.000000	64.887404 
4315.000000	64.915823 
4314.000000	64.951944 
4313.000000	64.992189 
4312.000000	65.033149 
4311.000000	65.072393 
4310.000000	65.109014 
4309.000000	65.143036 
4308.000000	65.174818 
4307.000000	65.204548 
4306.000000	65.231609 
4305.000000	65.253853 
4304.000000	65.268015 
4303.000000	65.270972 
4302.000000	65.260505 
4301.000000	65.236353 
4300.000000	65.199995 
4299.000000	65.155506 
4298.000000	65.107870 
4297.000000	65.062165 
4296.000000	65.022230 
4295.000000	64.990139 
4294.000000	64.965987 
4293.000000	64.948797 
4292.000000	64.936900 
4291.000000	64.928865 
4290.000000	64.924073 
4289.000000	64.922595 
4288.000000	64.924979 
4287.000000	64.931249 
4286.000000	64.941024 
4285.000000	64.952921 
4284.000000	64.965200 
4283.000000	64.976072 
4282.000000	64.984703 
4281.000000	64.991188 
4280.000000	64.996838 
4279.000000	65.003752 
4278.000000	65.014100 
4277.000000	65.029406 
4276.000000	65.049386 
4275.000000	65.072083 
4274.000000	65.094375 
4273.000000	65.112662 
4272.000000	65.124034 
4271.000000	65.127015 
4270.000000	65.121889 
4269.000000	65.110421 
4268.000000	65.095615 
4267.000000	65.080571 
4266.000000	65.067458 
4265.000000	65.057206 
4264.000000	65.049552 
4263.000000	65.043234 
4262.000000	65.036749 
4261.000000	65.029287 
4260.000000	65.021133 
4259.000000	65.014147 
4258.000000	65.011525 
4257.000000	65.016651 
4256.000000	65.032005 
4255.000000	65.057945 
4254.000000	65.092134 
4253.000000	65.129590 
4252.000000	65.163493 
4251.000000	65.186452 
4250.000000	65.192317 
4249.000000	65.177750 
4248.000000	65.143322 
4247.000000	65.093421 
4246.000000	65.035843 
4245.000000	64.979910 
4244.000000	64.934659 
4243.000000	64.907169 
4242.000000	64.900970 
4241.000000	64.915895 
4240.000000	64.947962 
4239.000000	64.990711 
4238.000000	65.036511 
4237.000000	65.078234 
4236.000000	65.110254 
4235.000000	65.128970 
4234.000000	65.133357 
4233.000000	65.124487 
4232.000000	65.105128 
4231.000000	65.078830 
4230.000000	65.049839 
4229.000000	65.022253 
4228.000000	64.999914 
4227.000000	64.986133 
4226.000000	64.983177 
4225.000000	64.992022 
4224.000000	65.012168 
4223.000000	65.041708 
4222.000000	65.076875 
4221.000000	65.112876 
4220.000000	65.144491 
4219.000000	65.167260 
4218.000000	65.177750 
4217.000000	65.174865 
4216.000000	65.159964 
4215.000000	65.136885 
4214.000000	65.111136 
4213.000000	65.088629 
4212.000000	65.074610 
4211.000000	65.072536 
4210.000000	65.083670 
4209.000000	65.106773 
4208.000000	65.138864 
4207.000000	65.175485 
4206.000000	65.212154 
4205.000000	65.244340 
4204.000000	65.268158 
4203.000000	65.280556 
4202.000000	65.279746 
4201.000000	65.264701 
4200.000000	65.235328 
4199.000000	65.192723 
4198.000000	65.139150 
4197.000000	65.078115 
4196.000000	65.014076 
4195.000000	64.952015 
4194.000000	64.896607 
4193.000000	64.851808 
4192.000000	64.820075 
4191.000000	64.801788 
4190.000000	64.795780 
4189.000000	64.799499 
4188.000000	64.809751 
4187.000000	64.823007 
4186.000000	64.836335 
4185.000000	64.846992 
4184.000000	64.853906 
4183.000000	64.856433 
4182.000000	64.855885 
4181.000000	64.854383 
4180.000000	64.855742 
4179.000000	64.864087 
4178.000000	64.883804 
4177.000000	64.918422 
4176.000000	64.969253 
4175.000000	65.034651 
4174.000000	65.109300 
4173.000000	65.184926 
4172.000000	65.251445 
4171.000000	65.299129 
4170.000000	65.320611 
4169.000000	65.312719 
4168.000000	65.277886 
4167.000000	65.223193 
4166.000000	65.158390 
4165.000000	65.093660 
4164.000000	65.037798 
4163.000000	64.996433 
4162.000000	64.971542 
4161.000000	64.961671 
4160.000000	64.963984 
4159.000000	64.974570 
4158.000000	64.990353 
4157.000000	65.008640 
4156.000000	65.027403 
4155.000000	65.044760 
4154.000000	65.058588 
4153.000000	65.066432 
4152.000000	65.065264 
4151.000000	65.052843 
4150.000000	65.028238 
4149.000000	64.992904 
4148.000000	64.950990 
4147.000000	64.908623 
4146.000000	64.873099 
4145.000000	64.851284 
4144.000000	64.848327 
4143.000000	64.866614 
4142.000000	64.905357 
4141.000000	64.960741 
4140.000000	65.026831 
4139.000000	65.097045 
4138.000000	65.164923 
4137.000000	65.225338 
4136.000000	65.274667 
4135.000000	65.310907 
4134.000000	65.333342 
4133.000000	65.342330 
4132.000000	65.338540 
4131.000000	65.322756 
4130.000000	65.295457 
4129.000000	65.257859 
4128.000000	65.211629 
4127.000000	65.159893 
4126.000000	65.106701 
4125.000000	65.057110 
4124.000000	65.016484 
4123.000000	64.989829 
4122.000000	64.981031 
4121.000000	64.991879 
4120.000000	65.022158 
4119.000000	65.069317 
4118.000000	65.128898 
4117.000000	65.195178 
4116.000000	65.261864 
4115.000000	65.322995 
4114.000000	65.373349 
4113.000000	65.409374 
4112.000000	65.429067 
4111.000000	65.432476 
4110.000000	65.421414 
4109.000000	65.399098 
4108.000000	65.369963 
4107.000000	65.338253 
4106.000000	65.308284 
4105.000000	65.282726 
4104.000000	65.263152 
4103.000000	65.248966 
4102.000000	65.238356 
4101.000000	65.228509 
4100.000000	65.216803 
4099.000000	65.201473 
4098.000000	65.182232 
4097.000000	65.160393 
4096.000000	65.138387 
4095.000000	65.119314 
4094.000000	65.105891 
4093.000000	65.099549 
4092.000000	65.100073 
4091.000000	65.105438 
4090.000000	65.112495 
4089.000000	65.117597 
4088.000000	65.118050 
4087.000000	65.112400 
4086.000000	65.101313 
4085.000000	65.087509 
4084.000000	65.075182 
4083.000000	65.068817 
4082.000000	65.071964 
4081.000000	65.086698 
4080.000000	65.112566 
4079.000000	65.146899 
4078.000000	65.184950 
4077.000000	65.220952 
4076.000000	65.249252 
4075.000000	65.265512 
4074.000000	65.267705 
4073.000000	65.256381 
4072.000000	65.234541 
4071.000000	65.207028 
4070.000000	65.179085 
4069.000000	65.155363 
4068.000000	65.138745 
4067.000000	65.130138 
4066.000000	65.128397 
4065.000000	65.131044 
4064.000000	65.135169 
4063.000000	65.138387 
4062.000000	65.139436 
4061.000000	65.138578 
4060.000000	65.137100 
4059.000000	65.137147 
4058.000000	65.140914 
4057.000000	65.150046 
4056.000000	65.164995 
4055.000000	65.184879 
4054.000000	65.207648 
4053.000000	65.230250 
4052.000000	65.249681 
4051.000000	65.263175 
4050.000000	65.268778 
4049.000000	65.265798 
4048.000000	65.254855 
4047.000000	65.237736 
4046.000000	65.217113 
4045.000000	65.195870 
4044.000000	65.176749 
4043.000000	65.161728 
4042.000000	65.151929 
4041.000000	65.147352 
4040.000000	65.147113 
4039.000000	65.149569 
4038.000000	65.152883 
4037.000000	65.155386 
4036.000000	65.155982 
4035.000000	65.154099 
4034.000000	65.149974 
4033.000000	65.144252 
4032.000000	65.137815 
4031.000000	65.131402 
4030.000000	65.125679 
4029.000000	65.121030 
4028.000000	65.117692 
4027.000000	65.116024 
4026.000000	65.116643 
4025.000000	65.120172 
4024.000000	65.127325 
4023.000000	65.138721 
4022.000000	65.154218 
4021.000000	65.172791 
4020.000000	65.192580 
4019.000000	65.211129 
4018.000000	65.225744 
4017.000000	65.234041 
4016.000000	65.234589 
4015.000000	65.227270 
4014.000000	65.213322 
4013.000000	65.195322 
4012.000000	65.176200 
4011.000000	65.158891 
4010.000000	65.145540 
4009.000000	65.137505 
4008.000000	65.135240 
4007.000000	65.138554 
4006.000000	65.146756 
4005.000000	65.158987 
4004.000000	65.174174 
4003.000000	65.191125 
4002.000000	65.208339 
4001.000000	65.224146 
4000.000000	65.236592 
3999.000000	65.243959 
3998.000000	65.245032 
3997.000000	65.239024 
3996.000000	65.226387 
3995.000000	65.207958 
3994.000000	65.185523 
3993.000000	65.161132 
3992.000000	65.136766 
3991.000000	65.114188 
3990.000000	65.094661 
3989.000000	65.079402 
3988.000000	65.069484 
3987.000000	65.065717 
3986.000000	65.068459 
3985.000000	65.077280 
3984.000000	65.090799 
3983.000000	65.106558 
3982.000000	65.121579 
3981.000000	65.132856 
3980.000000	65.138316 
3979.000000	65.137577 
3978.000000	65.132117 
3977.000000	65.124821 
3976.000000	65.119051 
3975.000000	65.117859 
3974.000000	65.123105 
3973.000000	65.134549 
3972.000000	65.150308 
3971.000000	65.167260 
3970.000000	65.182375 
3969.000000	65.193605 
3968.000000	65.200424 
3967.000000	65.203905 
3966.000000	65.205669 
3965.000000	65.207505 
3964.000000	65.209817 
3963.000000	65.211200 
3962.000000	65.208864 
3961.000000	65.199685 
3960.000000	65.181446 
3959.000000	65.153837 
3958.000000	65.119218 
3957.000000	65.082526 
3956.000000	65.050148 
3955.000000	65.028595 
3954.000000	65.022850 
3953.000000	65.035462 
3952.000000	65.066099 
3951.000000	65.111923 
3950.000000	65.168619 
3949.000000	65.231418 
3948.000000	65.296268 
3947.000000	65.359878 
3946.000000	65.419816 
3945.000000	65.473771 
3944.000000	65.518951 
3943.000000	65.551733 
3942.000000	65.568327 
3941.000000	65.564656 
3940.000000	65.538549 
3939.000000	65.489459 
3938.000000	65.420031 
3937.000000	65.335059 
3936.000000	65.241694 
3935.000000	65.147376 
3934.000000	65.059232 
3933.000000	64.982676 
3932.000000	64.920806 
3931.000000	64.874768 
3930.000000	64.844107 
3929.000000	64.827704 
3928.000000	64.824390 
3927.000000	64.833235 
3926.000000	64.853668 
3925.000000	64.884805 
3924.000000	64.925360 
3923.000000	64.972662 
3922.000000	65.022969 
3921.000000	65.071535 
3920.000000	65.113401 
3919.000000	65.143990 
3918.000000	65.159964 
3917.000000	65.159821 
3916.000000	65.143895 
3915.000000	65.114402 
3914.000000	65.074682 
3913.000000	65.028691 
3912.000000	64.980053 
3911.000000	64.931941 
3910.000000	64.886522 
3909.000000	64.845204 
3908.000000	64.808821 
3907.000000	64.777970 
3906.000000	64.753365 
3905.000000	64.736104 
3904.000000	64.727544 
3903.000000	64.729022 
3902.000000	64.741683 
3901.000000	64.766144 
3900.000000	64.801812 
3899.000000	64.846968 
3898.000000	64.898824 
3897.000000	64.954090 
3896.000000	65.009188 
3895.000000	65.060901 
3894.000000	65.106797 
3893.000000	65.145254 
3892.000000	65.175890 
3891.000000	65.198993 
3890.000000	65.215492 
3889.000000	65.225791 
3888.000000	65.230178 
3887.000000	65.228104 
3886.000000	65.219402 
3885.000000	65.203523 
3884.000000	65.180444 
3883.000000	65.150761 
3882.000000	65.116405 
3881.000000	65.079593 
3880.000000	65.042877 
3879.000000	65.008664 
3878.000000	64.978909 
3877.000000	64.955019 
3876.000000	64.937996 
3875.000000	64.928603 
3874.000000	64.927482 
3873.000000	64.935159 
3872.000000	64.951729 
3871.000000	64.976453 
3870.000000	65.007400 
3869.000000	65.041184 
3868.000000	65.073585 
3867.000000	65.099501 
3866.000000	65.114855 
3865.000000	65.117669 
3864.000000	65.109372 
3863.000000	65.094089 
3862.000000	65.078806 
3861.000000	65.071892 
3860.000000	65.081095 
3859.000000	65.111589 
3858.000000	65.164136 
3857.000000	65.235018 
3856.000000	65.316176 
3855.000000	65.397047 
3854.000000	65.466570 
3853.000000	65.515804 
3852.000000	65.539741 
3851.000000	65.538263 
3850.000000	65.515565 
3849.000000	65.478801 
3848.000000	65.436625 
3847.000000	65.396952 
3846.000000	65.366244 
3845.000000	65.348076 
3844.000000	65.343594 
3843.000000	65.351223 
3842.000000	65.367889 
3841.000000	65.389156 
3840.000000	65.410304 
3839.000000	65.427088 
3838.000000	65.436267 
3837.000000	65.436506 
3836.000000	65.427613 
3835.000000	65.410876 
3834.000000	65.388369 
3833.000000	65.362644 
3832.000000	65.335917 
3831.000000	65.309906 
3830.000000	65.285944 
3829.000000	65.265035 
3828.000000	65.247964 
3827.000000	65.236091 
3826.000000	65.231132 
3825.000000	65.234899 
3824.000000	65.248489 
3823.000000	65.271639 
3822.000000	65.302109 
3821.000000	65.335416 
3820.000000	65.365529 
3819.000000	65.386223 
3818.000000	65.392565 
3817.000000	65.382337 
3816.000000	65.356540 
3815.000000	65.319275 
3814.000000	65.276432 
3813.000000	65.234684 
3812.000000	65.199613 
3811.000000	65.174841 
3810.000000	65.161132 
3809.000000	65.157032 
3808.000000	65.159106 
3807.000000	65.163421 
3806.000000	65.166330 
3805.000000	65.165257 
3804.000000	65.159296 
3803.000000	65.148663 
3802.000000	65.135169 
3801.000000	65.120744 
3800.000000	65.107727 
3799.000000	65.097784 
3798.000000	65.092277 
3797.000000	65.092015 
3796.000000	65.097236 
3795.000000	65.107440 
3794.000000	65.121507 
3793.000000	65.137863 
3792.000000	65.154576 
3791.000000	65.169644 
3790.000000	65.181350 
3789.000000	65.188455 
3788.000000	65.190362 
3787.000000	65.187096 
3786.000000	65.179586 
3785.000000	65.168738 
3784.000000	65.155410 
3783.000000	65.140056 
3782.000000	65.122890 
3781.000000	65.103840 
3780.000000	65.082502 
3779.000000	65.059232 
3778.000000	65.035033 
3777.000000	65.012216 
3776.000000	64.993977 
3775.000000	64.984154 
3774.000000	64.986228 
3773.000000	65.002751 
3772.000000	65.034461 
3771.000000	65.079712 
3770.000000	65.134596 
3769.000000	65.193486 
3768.000000	65.250015 
3767.000000	65.298199 
3766.000000	65.333557 
3765.000000	65.354037 
3764.000000	65.360426 
3763.000000	65.355873 
3762.000000	65.345215 
3761.000000	65.334272 
3760.000000	65.328311 
3759.000000	65.331363 
3758.000000	65.345001 
3757.000000	65.368938 
3756.000000	65.400624 
3755.000000	65.436339 
3754.000000	65.471720 
3753.000000	65.502882 
3752.000000	65.526866 
3751.000000	65.542340 
3750.000000	65.549230 
3749.000000	65.548396 
3748.000000	65.541338 
3747.000000	65.530014 
3746.000000	65.516114 
3745.000000	65.500926 
3744.000000	65.485382 
3743.000000	65.470051 
3742.000000	65.455174 
3741.000000	65.440678 
3740.000000	65.426135 
3739.000000	65.410923 
3738.000000	65.394091 
3737.000000	65.374851 
3736.000000	65.352272 
3735.000000	65.325880 
3734.000000	65.295910 
3733.000000	65.263390 
3732.000000	65.229868 
3731.000000	65.197443 
3730.000000	65.168261 
3729.000000	65.144443 
3728.000000	65.127038 
3727.000000	65.116906 
3726.000000	65.114212 
3725.000000	65.119028 
3724.000000	65.130972 
3723.000000	65.149617 
3722.000000	65.174412 
3721.000000	65.204286 
3720.000000	65.237522 
3719.000000	65.271687 
3718.000000	65.303802 
3717.000000	65.330743 
3716.000000	65.349841 
3715.000000	65.359377 
3714.000000	65.358829 
3713.000000	65.349316 
3712.000000	65.333628 
3711.000000	65.315270 
3710.000000	65.297746 
3709.000000	65.284323 
3708.000000	65.276837 
3707.000000	65.275359 
3706.000000	65.278148 
3705.000000	65.282583 
3704.000000	65.285301 
3703.000000	65.283131 
3702.000000	65.274024 
3701.000000	65.257334 
3700.000000	65.234255 
3699.000000	65.207409 
3698.000000	65.180611 
3697.000000	65.157580 
3696.000000	65.141892 
3695.000000	65.135955 
3694.000000	65.140962 
3693.000000	65.156435 
3692.000000	65.180730 
3691.000000	65.211558 
3690.000000	65.246319 
3689.000000	65.282535 
3688.000000	65.318202 
3687.000000	65.352249 
3686.000000	65.384054 
3685.000000	65.413427 
3684.000000	65.440511 
3683.000000	65.465450 
3682.000000	65.488433 
3681.000000	65.509629 
3680.000000	65.529084 
3679.000000	65.546536 
3678.000000	65.561890 
3677.000000	65.574550 
3676.000000	65.583777 
3675.000000	65.587973 
3674.000000	65.585637 
3673.000000	65.574908 
3672.000000	65.554547 
3671.000000	65.524029 
3670.000000	65.484237 
3669.000000	65.437436 
3668.000000	65.387153 
3667.000000	65.337824 
3666.000000	65.294075 
3665.000000	65.259742 
3664.000000	65.237259 
3663.000000	65.227174 
3662.000000	65.228080 
3661.000000	65.237045 
3660.000000	65.250158 
3659.000000	65.263652 
3658.000000	65.274477 
3657.000000	65.281248 
3656.000000	65.284442 
3655.000000	65.285801 
3654.000000	65.287685 
3653.000000	65.292310 
3652.000000	65.300846 
3651.000000	65.312838 
3650.000000	65.326285 
3649.000000	65.338563 
3648.000000	65.346717 
3647.000000	65.348696 
3646.000000	65.343546 
3645.000000	65.331983 
3644.000000	65.316104 
3643.000000	65.298748 
3642.000000	65.283012 
3641.000000	65.271425 
3640.000000	65.265750 
3639.000000	65.266680 
3638.000000	65.274167 
3637.000000	65.287446 
3636.000000	65.305685 
3635.000000	65.328049 
3634.000000	65.353870 
3633.000000	65.382432 
3632.000000	65.413069 
3631.000000	65.444731 
3630.000000	65.476179 
3629.000000	65.505647 
3628.000000	65.531396 
3627.000000	65.551161 
3626.000000	65.563154 
3625.000000	65.565443 
3624.000000	65.556859 
3623.000000	65.536856 
3622.000000	65.506005 
3621.000000	65.465831 
3620.000000	65.419316 
3619.000000	65.370154 
3618.000000	65.323019 
3617.000000	65.282392 
3616.000000	65.252137 
3615.000000	65.234565 
3614.000000	65.230107 
3613.000000	65.237236 
3612.000000	65.252661 
3611.000000	65.272378 
3610.000000	65.292215 
3609.000000	65.308880 
3608.000000	65.320324 
3607.000000	65.325927 
3606.000000	65.326261 
3605.000000	65.322422 
3604.000000	65.315532 
3603.000000	65.306305 
3602.000000	65.295052 
3601.000000	65.281796 
3600.000000	65.266728 
3599.000000	65.250706 
3598.000000	65.235304 
3597.000000	65.222549 
3596.000000	65.214443 
3595.000000	65.212225 
3594.000000	65.216135 
3593.000000	65.224552 
3592.000000	65.235042 
3591.000000	65.244603 
3590.000000	65.250802 
3589.000000	65.252399 
3588.000000	65.249681 
3587.000000	65.244317 
3586.000000	65.238976 
3585.000000	65.236330 
3584.000000	65.238356 
3583.000000	65.245556 
3582.000000	65.257143 
3581.000000	65.271282 
3580.000000	65.285897 
3579.000000	65.299296 
3578.000000	65.310621 
3577.000000	65.320110 
3576.000000	65.328836 
3575.000000	65.338087 
3574.000000	65.348839 
3573.000000	65.361142 
3572.000000	65.374374 
3571.000000	65.386915 
3570.000000	65.397191 
3569.000000	65.403270 
3568.000000	65.403747 
3567.000000	65.397405 
3566.000000	65.383672 
3565.000000	65.362405 
3564.000000	65.333986 
3563.000000	65.299463 
3562.000000	65.260457 
3561.000000	65.219306 
3560.000000	65.178847 
3559.000000	65.142250 
3558.000000	65.112495 
3557.000000	65.091657 
3556.000000	65.080618 
3555.000000	65.078783 
3554.000000	65.084075 
3553.000000	65.093398 
3552.000000	65.103292 
3551.000000	65.110874 
3550.000000	65.114355 
3549.000000	65.113401 
3548.000000	65.108990 
3547.000000	65.103197 
3546.000000	65.098357 
3545.000000	65.096497 
3544.000000	65.098786 
3543.000000	65.105295 
3542.000000	65.114736 
3541.000000	65.124869 
3540.000000	65.132761 
3539.000000	65.135788 
3538.000000	65.132212 
3537.000000	65.121531 
3536.000000	65.104699 
3535.000000	65.084052 
3534.000000	65.062618 
3533.000000	65.043449 
3532.000000	65.029120 
3531.000000	65.021252 
3530.000000	65.020275 
3529.000000	65.025615 
3528.000000	65.036058 
3527.000000	65.050292 
3526.000000	65.067100 
3525.000000	65.085673 
3524.000000	65.105509 
3523.000000	65.126323 
3522.000000	65.147709 
3521.000000	65.169119 
3520.000000	65.189599 
3519.000000	65.208172 
3518.000000	65.224003 
3517.000000	65.236568 
3516.000000	65.246272 
3515.000000	65.253829 
3514.000000	65.260481 
3513.000000	65.267038 
3512.000000	65.274286 
3511.000000	65.282082 
3510.000000	65.289807 
3509.000000	65.296196 
3508.000000	65.299963 
3507.000000	65.299797 
3506.000000	65.294909 
3505.000000	65.284800 
3504.000000	65.269637 
3503.000000	65.249943 
3502.000000	65.226888 
3501.000000	65.201830 
3500.000000	65.176081 
3499.000000	65.151095 
3498.000000	65.128231 
3497.000000	65.108752 
3496.000000	65.093660 
3495.000000	65.083765 
3494.000000	65.079760 
3493.000000	65.081858 
3492.000000	65.089917 
3491.000000	65.103387 
3490.000000	65.121531 
3489.000000	65.143203 
3488.000000	65.167164 
3487.000000	65.192270 
3486.000000	65.217351 
3485.000000	65.241646 
3484.000000	65.264153 
3483.000000	65.284180 
3482.000000	65.300536 
3481.000000	65.312194 
3480.000000	65.317511 
3479.000000	65.314674 
3478.000000	65.301823 
3477.000000	65.277862 
3476.000000	65.242576 
3475.000000	65.197277 
3474.000000	65.144801 
3473.000000	65.089511 
3472.000000	65.036320 
3471.000000	64.989876 
3470.000000	64.953827 
3469.000000	64.930200 
3468.000000	64.919018 
3467.000000	64.918661 
3466.000000	64.926171 
3465.000000	64.938378 
3464.000000	64.952301 
3463.000000	64.966130 
3462.000000	64.978957 
3461.000000	64.991116 
3460.000000	65.003180 
3459.000000	65.015912 
3458.000000	65.029406 
3457.000000	65.043234 
3456.000000	65.056395 
3455.000000	65.067768 
3454.000000	65.076446 
3453.000000	65.082025 
3452.000000	65.085077 
3451.000000	65.086889 
3450.000000	65.089344 
3449.000000	65.094470 
3448.000000	65.103983 
3447.000000	65.119051 
3446.000000	65.140032 
3445.000000	65.166115 
3444.000000	65.195536 
3443.000000	65.225839 
3442.000000	65.254449 
3441.000000	65.278887 
3440.000000	65.297222 
3439.000000	65.308570 
3438.000000	65.313220 
3437.000000	65.312528 
3436.000000	65.308499 
3435.000000	65.303659 
3434.000000	65.300011 
3433.000000	65.299201 
3432.000000	65.301680 
3431.000000	65.306901 
3430.000000	65.313315 
3429.000000	65.319442 
3428.000000	65.323781 
3427.000000	65.325522 
3426.000000	65.324783 
3425.000000	65.322661 
3424.000000	65.320777 
3423.000000	65.320706 
3422.000000	65.323686 
3421.000000	65.330147 
3420.000000	65.339493 
3419.000000	65.350174 
3418.000000	65.360093 
3417.000000	65.366983 
3416.000000	65.369009 
3415.000000	65.365242 
3414.000000	65.355706 
3413.000000	65.341567 
3412.000000	65.324687 
3411.000000	65.307211 
3410.000000	65.291357 
3409.000000	65.278840 
3408.000000	65.270662 
3407.000000	65.266728 
3406.000000	65.266108 
3405.000000	65.267205 
3404.000000	65.268349 
3403.000000	65.267610 
3402.000000	65.263557 
3401.000000	65.255355 
3400.000000	65.242934 
3399.000000	65.226817 
3398.000000	65.207958 
3397.000000	65.187478 
3396.000000	65.166401 
3395.000000	65.145707 
3394.000000	65.126276 
3393.000000	65.108919 
3392.000000	65.094494 
3391.000000	65.083909 
3390.000000	65.078210 
3389.000000	65.078210 
3388.000000	65.084338 
3387.000000	65.096187 
3386.000000	65.112543 
3385.000000	65.130996 
3384.000000	65.148615 
3383.000000	65.162158 
3382.000000	65.168809 
3381.000000	65.166664 
3380.000000	65.155506 
3379.000000	65.136623 
3378.000000	65.113091 
3377.000000	65.088868 
3376.000000	65.068387 
3375.000000	65.055489 
3374.000000	65.052604 
3373.000000	65.060639 
3372.000000	65.078330 
3371.000000	65.102624 
3370.000000	65.129399 
3369.000000	65.154170 
3368.000000	65.173149 
3367.000000	65.183782 
3366.000000	65.185403 
3365.000000	65.179347 
3364.000000	65.168285 
3363.000000	65.155339 
3362.000000	65.143823 
3361.000000	65.136265 
3360.000000	65.133905 
3359.000000	65.136456 
3358.000000	65.142416 
3357.000000	65.149497 
3356.000000	65.155005 
3355.000000	65.156459 
3354.000000	65.152049 
3353.000000	65.141201 
3352.000000	65.124559 
3351.000000	65.104007 
3350.000000	65.082263 
3349.000000	65.062499 
3348.000000	65.047788 
3347.000000	65.040493 
3346.000000	65.041899 
3345.000000	65.052008 
3344.000000	65.069556 
3343.000000	65.092682 
3342.000000	65.118908 
3341.000000	65.146517 
3340.000000	65.174698 
3339.000000	65.203785 
3338.000000	65.234780 
3337.000000	65.268993 
3336.000000	65.307307 
3335.000000	65.349411 
3334.000000	65.393400 
3333.000000	65.436029 
3332.000000	65.473246 
3331.000000	65.501260 
3330.000000	65.517210 
3329.000000	65.520000 
3328.000000	65.510463 
3327.000000	65.491485 
3326.000000	65.467047 
3325.000000	65.441417 
3324.000000	65.418052 
3323.000000	65.399360 
3322.000000	65.386128 
3321.000000	65.377759 
3320.000000	65.372586 
3319.000000	65.368914 
3318.000000	65.364837 
3317.000000	65.358829 
3316.000000	65.349769 
3315.000000	65.337085 
3314.000000	65.320563 
3313.000000	65.300416 
3312.000000	65.277290 
3311.000000	65.252089 
3310.000000	65.225934 
3309.000000	65.200042 
3308.000000	65.175485 
3307.000000	65.153050 
3306.000000	65.133357 
3305.000000	65.117239 
3304.000000	65.105104 
3303.000000	65.097546 
3302.000000	65.095138 
3301.000000	65.098762 
3300.000000	65.108919 
3299.000000	65.125775 
3298.000000	65.149044 
3297.000000	65.177798 
3296.000000	65.210318 
3295.000000	65.244364 
3294.000000	65.277004 
3293.000000	65.305662 
3292.000000	65.328145 
3291.000000	65.343356 
3290.000000	65.351271 
3289.000000	65.353226 
3288.000000	65.351605 
3287.000000	65.349125 
3286.000000	65.348386 
3285.000000	65.351104 
3284.000000	65.358018 
3283.000000	65.368413 
3282.000000	65.380311 
3281.000000	65.390896 
3280.000000	65.397334 
3279.000000	65.397143 
3278.000000	65.388870 
3277.000000	65.372323 
3276.000000	65.348720 
3275.000000	65.320181 
3274.000000	65.289664 
3273.000000	65.260171 
3272.000000	65.234255 
3271.000000	65.213918 
3270.000000	65.200114 
3269.000000	65.192818 
3268.000000	65.191054 
3267.000000	65.193033 
3266.000000	65.196728 
3265.000000	65.199971 
3264.000000	65.201354 
3263.000000	65.200471 
3262.000000	65.198016 
3261.000000	65.195393 
3260.000000	65.194463 
3259.000000	65.196752 
3258.000000	65.202832 
3257.000000	65.212011 
3256.000000	65.222096 
3255.000000	65.229964 
3254.000000	65.232300 
3253.000000	65.226435 
3252.000000	65.211105 
3251.000000	65.186643 
3250.000000	65.155148 
3249.000000	65.119862 
3248.000000	65.084195 
3247.000000	65.051364 
3246.000000	65.023398 
3245.000000	65.001511 
3244.000000	64.985847 
3243.000000	64.976453 
3242.000000	64.973402 
3241.000000	64.977145 
3240.000000	64.987802 
3239.000000	65.005373 
3238.000000	65.029048 
3237.000000	65.057086 
3236.000000	65.086698 
3235.000000	65.114569 
3234.000000	65.137529 
3233.000000	65.153241 
3232.000000	65.160727 
3231.000000	65.160465 
3230.000000	65.154361 
3229.000000	65.144944 
3228.000000	65.134620 
3227.000000	65.125226 
3226.000000	65.117549 
3225.000000	65.111494 
3224.000000	65.106177 
3223.000000	65.100765 
3222.000000	65.094590 
3221.000000	65.087389 
3220.000000	65.079474 
3219.000000	65.071320 
3218.000000	65.063834 
3217.000000	65.057802 
3216.000000	65.054392 
3215.000000	65.054702 
3214.000000	65.059971 
3213.000000	65.071320 
3212.000000	65.089583 
3211.000000	65.115046 
3210.000000	65.146970 
3209.000000	65.183591 
3208.000000	65.222048 
3207.000000	65.258932 
3206.000000	65.290665 
3205.000000	65.314412 
3204.000000	65.328502 
3203.000000	65.332865 
3202.000000	65.328884 
3201.000000	65.318989 
3200.000000	65.306138 
3199.000000	65.293025 
3198.000000	65.281796 
3197.000000	65.273284 
3196.000000	65.267515 
3195.000000	65.263485 
3194.000000	65.259480 
3193.000000	65.253376 
3192.000000	65.243268 
3191.000000	65.227890 
3190.000000	65.206813 
3189.000000	65.180897 
3188.000000	65.151929 
3187.000000	65.122866 
3186.000000	65.096998 
3185.000000	65.077757 
3184.000000	65.067815 
3183.000000	65.068817 
3182.000000	65.081095 
3181.000000	65.103530 
3180.000000	65.133714 
3179.000000	65.168523 
3178.000000	65.204691 
3177.000000	65.239119 
3176.000000	65.269231 
3175.000000	65.293002 
3174.000000	65.309238 
3173.000000	65.317130 
3172.000000	65.316343 
3171.000000	65.307283 
3170.000000	65.291118 
3169.000000	65.269970 
3168.000000	65.246677 
3167.000000	65.224504 
3166.000000	65.206360 
3165.000000	65.194773 
3164.000000	65.190815 
3163.000000	65.194225 
3162.000000	65.203189 
3161.000000	65.214824 
3160.000000	65.225934 
3159.000000	65.233349 
3158.000000	65.235018 
3157.000000	65.230059 
3156.000000	65.219092 
3155.000000	65.203857 
3154.000000	65.186667 
3153.000000	65.169930 
3152.000000	65.155315 
3151.000000	65.143513 
3150.000000	65.134096 
3149.000000	65.125632 
3148.000000	65.116310 
3147.000000	65.104460 
3146.000000	65.089011 
3145.000000	65.069746 
3144.000000	65.047597 
3143.000000	65.024590 
3142.000000	65.003156 
3141.000000	64.985728 
3140.000000	64.974212 
3139.000000	64.969658 
3138.000000	64.972114 
3137.000000	64.980792 
3136.000000	64.993977 
3135.000000	65.009784 
3134.000000	65.026283 
3133.000000	65.042042 
3132.000000	65.055751 
3131.000000	65.066719 
3130.000000	65.074515 
3129.000000	65.079236 
3128.000000	65.081191 
3127.000000	65.080881 
3126.000000	65.079092 
3125.000000	65.076494 
3124.000000	65.073823 
3123.000000	65.071582 
3122.000000	65.070056 
3121.000000	65.069007 
3120.000000	65.067863 
3119.000000	65.065813 
3118.000000	65.062117 
3117.000000	65.056490 
3116.000000	65.049433 
3115.000000	65.042138 
3114.000000	65.036368 
3113.000000	65.033984 
3112.000000	65.036511 
3111.000000	65.044689 
3110.000000	65.058493 
3109.000000	65.076994 
3108.000000	65.098905 
3107.000000	65.122723 
3106.000000	65.147089 
3105.000000	65.171051 
3104.000000	65.193843 
3103.000000	65.215015 
3102.000000	65.234231 
3101.000000	65.251159 
3100.000000	65.265369 
3099.000000	65.276670 
3098.000000	65.284585 
3097.000000	65.288949 
3096.000000	65.289473 
3095.000000	65.286159 
3094.000000	65.278887 
3093.000000	65.267491 
3092.000000	65.251779 
3091.000000	65.231919 
3090.000000	65.208530 
3089.000000	65.182781 
3088.000000	65.156507 
3087.000000	65.131759 
3086.000000	65.110683 
3085.000000	65.094876 
3084.000000	65.084981 
3083.000000	65.080833 
3082.000000	65.081334 
3081.000000	65.085053 
3080.000000	65.090560 
3079.000000	65.096974 
3078.000000	65.104222 
3077.000000	65.112757 
3076.000000	65.123224 
3075.000000	65.136218 
3074.000000	65.151739 
3073.000000	65.168976 
3072.000000	65.186381 
3071.000000	65.202021 
3070.000000	65.214085 
3069.000000	65.221452 
3068.000000	65.223956 
3067.000000	65.222144 
3066.000000	65.217208 
3065.000000	65.210342 
3064.000000	65.202403 
3063.000000	65.193724 
3062.000000	65.184164 
3061.000000	65.173435 
3060.000000	65.161466 
3059.000000	65.148782 
3058.000000	65.136313 
3057.000000	65.125656 
3056.000000	65.118336 
3055.000000	65.115427 
3054.000000	65.117192 
3053.000000	65.122747 
3052.000000	65.130400 
3051.000000	65.137910 
3050.000000	65.143322 
3049.000000	65.145444 
3048.000000	65.144276 
3047.000000	65.141105 
3046.000000	65.138173 
3045.000000	65.137767 
3044.000000	65.141677 
3043.000000	65.150713 
3042.000000	65.164184 
3041.000000	65.180253 
3040.000000	65.196394 
3039.000000	65.209984 
3038.000000	65.219044 
3037.000000	65.222811 
3036.000000	65.221738 
3035.000000	65.217471 
3034.000000	65.211939 
3033.000000	65.207076 
3032.000000	65.204095 
3031.000000	65.203428 
3030.000000	65.204524 
3029.000000	65.206265 
3028.000000	65.207457 
3027.000000	65.206980 
3026.000000	65.204644 
3025.000000	65.200734 
3024.000000	65.195870 
3023.000000	65.190839 
3022.000000	65.186095 
3021.000000	65.181922 
3020.000000	65.177965 
3019.000000	65.173840 
3018.000000	65.169048 
3017.000000	65.163803 
3016.000000	65.158891 
3015.000000	65.155673 
3014.000000	65.155601 
3013.000000	65.159916 
3012.000000	65.169024 
3011.000000	65.181970 
3010.000000	65.196585 
3009.000000	65.209841 
3008.000000	65.218210 
3007.000000	65.218710 
3006.000000	65.209698 
3005.000000	65.191245 
3004.000000	65.165519 
3003.000000	65.136313 
3002.000000	65.108561 
3001.000000	65.087151 
3000.000000	65.076017 
2999.000000	65.077424 
2998.000000	65.091347 
2997.000000	65.115833 
2996.000000	65.147089 
2995.000000	65.180444 
2994.000000	65.210914 
2993.000000	65.234327 
2992.000000	65.247869 
2991.000000	65.250301 
2990.000000	65.242099 
2989.000000	65.225005 
2988.000000	65.201735 
2987.000000	65.175199 
2986.000000	65.148305 
2985.000000	65.123486 
2984.000000	65.102672 
2983.000000	65.087151 
2982.000000	65.077924 
2981.000000	65.075850 
2980.000000	65.081501 
2979.000000	65.095067 
2978.000000	65.116381 
2977.000000	65.144443 
2976.000000	65.177059 
2975.000000	65.210938 
2974.000000	65.241813 
2973.000000	65.265178 
2972.000000	65.276908 
2971.000000	65.274405 
2970.000000	65.257072 
2969.000000	65.226650 
2968.000000	65.187382 
2967.000000	65.144753 
2966.000000	65.104675 
2965.000000	65.071702 
2964.000000	65.048527 
2963.000000	65.035176 
2962.000000	65.029621 
2961.000000	65.028047 
2960.000000	65.026402 
2959.000000	65.021276 
2958.000000	65.010952 
2957.000000	64.995598 
2956.000000	64.977049 
2955.000000	64.958143 
2954.000000	64.941692 
2953.000000	64.929556 
2952.000000	64.922428 
2951.000000	64.919543 
2950.000000	64.919447 
2949.000000	64.920592 
2948.000000	64.922213 
2947.000000	64.924407 
2946.000000	64.928555 
2945.000000	64.936399 
2944.000000	64.949846 
2943.000000	64.969801 
2942.000000	64.995932 
2941.000000	65.026211 
2940.000000	65.057468 
2939.000000	65.085959 
2938.000000	65.108251 
2937.000000	65.122365 
2936.000000	65.127754 
2935.000000	65.125560 
2934.000000	65.118026 
2933.000000	65.108108 
2932.000000	65.097999 
2931.000000	65.088701 
2930.000000	65.079975 
2929.000000	65.070652 
2928.000000	65.059399 
2927.000000	65.045404 
2926.000000	65.029144 
2925.000000	65.012454 
2924.000000	64.998078 
2923.000000	64.989018 
2922.000000	64.987421 
2921.000000	64.994192 
2920.000000	65.008282 
2919.000000	65.027141 
2918.000000	65.047335 
2917.000000	65.065217 
2916.000000	65.078139 
2915.000000	65.084910 
2914.000000	65.085673 
2913.000000	65.081906 
2912.000000	65.075731 
2911.000000	65.069198 
2910.000000	65.063691 
2909.000000	65.059781 
2908.000000	65.057158 
2907.000000	65.055108 
2906.000000	65.052843 
2905.000000	65.049719 
2904.000000	65.045499 
2903.000000	65.040230 
2902.000000	65.034413 
2901.000000	65.028476 
2900.000000	65.022802 
2899.000000	65.017795 
2898.000000	65.013957 
2897.000000	65.011882 
2896.000000	65.012145 
2895.000000	65.015435 
2894.000000	65.021967 
2893.000000	65.031552 
2892.000000	65.043020 
2891.000000	65.054416 
2890.000000	65.063285 
2889.000000	65.067195 
2888.000000	65.064263 
2887.000000	65.053629 
2886.000000	65.036010 
2885.000000	65.013647 
2884.000000	64.989948 
2883.000000	64.968776 
2882.000000	64.953684 
2881.000000	64.947199 
2880.000000	64.950466 
2879.000000	64.962959 
2878.000000	64.982938 
2877.000000	65.007662 
2876.000000	65.034222 
2875.000000	65.059971 
2874.000000	65.082883 
2873.000000	65.101718 
2872.000000	65.115857 
2871.000000	65.125298 
2870.000000	65.130376 
2869.000000	65.131521 
2868.000000	65.129470 
2867.000000	65.124726 
2866.000000	65.118026 
2865.000000	65.109658 
2864.000000	65.100264 
2863.000000	65.090060 
2862.000000	65.079164 
2861.000000	65.067672 
2860.000000	65.055584 
2859.000000	65.043139 
2858.000000	65.031051 
2857.000000	65.020275 
2856.000000	65.011858 
2855.000000	65.006780 
2854.000000	65.005564 
2853.000000	65.008091 
2852.000000	65.013456 
2851.000000	65.020346 
2850.000000	65.027260 
2849.000000	65.033054 
2848.000000	65.037274 
2847.000000	65.040230 
2846.000000	65.042901 
2845.000000	65.046477 
2844.000000	65.052032 
2843.000000	65.060162 
2842.000000	65.070843 
2841.000000	65.083265 
2840.000000	65.096044 
2839.000000	65.107989 
2838.000000	65.117907 
2837.000000	65.125441 
2836.000000	65.130496 
2835.000000	65.133237 
2834.000000	65.133762 
2833.000000	65.131998 
2832.000000	65.127468 
2831.000000	65.119314 
2830.000000	65.106749 
2829.000000	65.089488 
2828.000000	65.067934 
2827.000000	65.043377 
2826.000000	65.018010 
2825.000000	64.994621 
2824.000000	64.976191 
2823.000000	64.965224 
2822.000000	64.963269 
2821.000000	64.970564 
2820.000000	64.986014 
2819.000000	65.007233 
2818.000000	65.030884 
2817.000000	65.053462 
2816.000000	65.071773 
2815.000000	65.083575 
2814.000000	65.087938 
2813.000000	65.085411 
2812.000000	65.077757 
2811.000000	65.067720 
2810.000000	65.058350 
2809.000000	65.052175 
2808.000000	65.050911 
2807.000000	65.054821 
2806.000000	65.062975 
2805.000000	65.073513 
2804.000000	65.084314 
2803.000000	65.093541 
2802.000000	65.099930 
2801.000000	65.103363 
2800.000000	65.104222 
2799.000000	65.103435 
2798.000000	65.101909 
2797.000000	65.100264 
2796.000000	65.098690 
2795.000000	65.096902 
2794.000000	65.094470 
2793.000000	65.090942 
2792.000000	65.086102 
2791.000000	65.080261 
2790.000000	65.074229 
2789.000000	65.069174 
2788.000000	65.066456 
2787.000000	65.067315 
2786.000000	65.072441 
2785.000000	65.081930 
2784.000000	65.095114 
2783.000000	65.110683 
2782.000000	65.126872 
2781.000000	65.141940 
2780.000000	65.154242 
2779.000000	65.162682 
2778.000000	65.166759 
2777.000000	65.166592 
2776.000000	65.162754 
2775.000000	65.156173 
2774.000000	65.147829 
2773.000000	65.138554 
2772.000000	65.128946 
2771.000000	65.119433 
2770.000000	65.110087 
2769.000000	65.101051 
2768.000000	65.092468 
2767.000000	65.084528 
2766.000000	65.077543 
2765.000000	65.071797 
2764.000000	65.067577 
2763.000000	65.065026 
2762.000000	65.064144 
2761.000000	65.064883 
2760.000000	65.067076 
2759.000000	65.070700 
2758.000000	65.075659 
2757.000000	65.082073 
2756.000000	65.090107 
2755.000000	65.099811 
2754.000000	65.110921 
2753.000000	65.122747 
2752.000000	65.134263 
2751.000000	65.144085 
2750.000000	65.150713 
2749.000000	65.152812 
2748.000000	65.149402 
2747.000000	65.140175 
2746.000000	65.125513 
2745.000000	65.106654 
2744.000000	65.085363 
2743.000000	65.063881 
2742.000000	65.044426 
2741.000000	65.029001 
2740.000000	65.018916 
2739.000000	65.014576 
2738.000000	65.015482 
2737.000000	65.020203 
2736.000000	65.026950 
2735.000000	65.033984 
2734.000000	65.040183 
2733.000000	65.045166 
2732.000000	65.049552 
2731.000000	65.054726 
2730.000000	65.062141 
2729.000000	65.073013 
2728.000000	65.087461 
2727.000000	65.104603 
2726.000000	65.122389 
2725.000000	65.138030 
2724.000000	65.148901 
2723.000000	65.153098 
2722.000000	65.150260 
2721.000000	65.141701 
2720.000000	65.129971 
2719.000000	65.118360 
2718.000000	65.109944 
2717.000000	65.106749 
2716.000000	65.109276 
2715.000000	65.116429 
2714.000000	65.125918 
2713.000000	65.134954 
2712.000000	65.140938 
2711.000000	65.142250 
2710.000000	65.138673 
2709.000000	65.131402 
2708.000000	65.122509 
2707.000000	65.114331 
2706.000000	65.108871 
2705.000000	65.107250 
2704.000000	65.109467 
2703.000000	65.114402 
2702.000000	65.120387 
2701.000000	65.125703 
2700.000000	65.128850 
2699.000000	65.129280 
2698.000000	65.127134 
2697.000000	65.123414 
2696.000000	65.119576 
2695.000000	65.117073 
2694.000000	65.116858 
2693.000000	65.119099 
2692.000000	65.123152 
2691.000000	65.127611 
2690.000000	65.130734 
2689.000000	65.130829 
2688.000000	65.126824 
2687.000000	65.118432 
2686.000000	65.106654 
2685.000000	65.093398 
2684.000000	65.081191 
2683.000000	65.072607 
2682.000000	65.069699 
2681.000000	65.073633 
2680.000000	65.084218 
2679.000000	65.100145 
2678.000000	65.119028 
2677.000000	65.138149 
2676.000000	65.154695 
2675.000000	65.166544 
2674.000000	65.172386 
2673.000000	65.171861 
2672.000000	65.165567 
2671.000000	65.154552 
2670.000000	65.140151 
2669.000000	65.123677 
2668.000000	65.106272 
2667.000000	65.088963 
2666.000000	65.072655 
2665.000000	65.058326 
2664.000000	65.046977 
2663.000000	65.039777 
2662.000000	65.037608 
2661.000000	65.040731 
2660.000000	65.048694 
2659.000000	65.060138 
2658.000000	65.073037 
2657.000000	65.085029 
2656.000000	65.093970 
2655.000000	65.098237 
2654.000000	65.097355 
2653.000000	65.091729 
2652.000000	65.082883 
2651.000000	65.072584 
2650.000000	65.062689 
2649.000000	65.054345 
2648.000000	65.048027 
2647.000000	65.043354 
2646.000000	65.039539 
2645.000000	65.035748 
2644.000000	65.031313 
2643.000000	65.026235 
2642.000000	65.021061 
2641.000000	65.017032 
2640.000000	65.015339 
2639.000000	65.017080 
2638.000000	65.022826 
2637.000000	65.032529 
2636.000000	65.045332 
2635.000000	65.059876 
2634.000000	65.074491 
2633.000000	65.087532 
2632.000000	65.097713 
2631.000000	65.104413 
2630.000000	65.107631 
2629.000000	65.107989 
2628.000000	65.106558 
2627.000000	65.104579 
2626.000000	65.102839 
2625.000000	65.101957 
2624.000000	65.101957 
2623.000000	65.102529 
2622.000000	65.102982 
2621.000000	65.102767 
2620.000000	65.101695 
2619.000000	65.100002 
2618.000000	65.098404 
2617.000000	65.097951 
2616.000000	65.099501 
2615.000000	65.103554 
2614.000000	65.109682 
2613.000000	65.116667 
2612.000000	65.122509 
2611.000000	65.125036 
2610.000000	65.122389 
2609.000000	65.113568 
2608.000000	65.098714 
2607.000000	65.079450 
2606.000000	65.058350 
2605.000000	65.038418 
2604.000000	65.022730 
2603.000000	65.013670 
2602.000000	65.012359 
2601.000000	65.018606 
2600.000000	65.031242 
2599.000000	65.048313 
2598.000000	65.067601 
2597.000000	65.087199 
2596.000000	65.105628 
2595.000000	65.122103 
2594.000000	65.136408 
2593.000000	65.148663 
2592.000000	65.159106 
2591.000000	65.167617 
2590.000000	65.174126 
2589.000000	65.178084 
2588.000000	65.179038 
2587.000000	65.176582 
2586.000000	65.170812 
2585.000000	65.162277 
2584.000000	65.151929 
2583.000000	65.141057 
2582.000000	65.130901 
2581.000000	65.122389 
2580.000000	65.115928 
2579.000000	65.111160 
2578.000000	65.107178 
2577.000000	65.102696 
2576.000000	65.096664 
2575.000000	65.088272 
2574.000000	65.077567 
2573.000000	65.065360 
2572.000000	65.053081 
2571.000000	65.042567 
2570.000000	65.035700 
2569.000000	65.033721 
2568.000000	65.037250 
2567.000000	65.046048 
2566.000000	65.058922 
2565.000000	65.074181 
2564.000000	65.089845 
2563.000000	65.104007 
2562.000000	65.115404 
2561.000000	65.123391 
2560.000000	65.128135 
2559.000000	65.130472 
2558.000000	65.131378 
2557.000000	65.131688 
2556.000000	65.131640 
2555.000000	65.131163 
2554.000000	65.129685 
2553.000000	65.126419 
2552.000000	65.120840 
2551.000000	65.112638 
2550.000000	65.101909 
2549.000000	65.089106 
2548.000000	65.074968 
2547.000000	65.060377 
2546.000000	65.046143 
2545.000000	65.033173 
2544.000000	65.022325 
2543.000000	65.014553 
2542.000000	65.010690 
2541.000000	65.011429 
2540.000000	65.017127 
2539.000000	65.027785 
2538.000000	65.042901 
2537.000000	65.061712 
2536.000000	65.082883 
2535.000000	65.105342 
2534.000000	65.127992 
2533.000000	65.150141 
2532.000000	65.171337 
2531.000000	65.191149 
2530.000000	65.209364 
2529.000000	65.225362 
2528.000000	65.238213 
2527.000000	65.246510 
2526.000000	65.248870 
2525.000000	65.244221 
2524.000000	65.232253 
2523.000000	65.213704 
2522.000000	65.190458 
2521.000000	65.165281 
2520.000000	65.141534 
2519.000000	65.122199 
2518.000000	65.109467 
2517.000000	65.104293 
2516.000000	65.106296 
2515.000000	65.114021 
2514.000000	65.125250 
2513.000000	65.137696 
2512.000000	65.149474 
2511.000000	65.159273 
2510.000000	65.166330 
2509.000000	65.170454 
2508.000000	65.171480 
2507.000000	65.169262 
2506.000000	65.163493 
2505.000000	65.153813 
2504.000000	65.139842 
2503.000000	65.121698 
2502.000000	65.100073 
2501.000000	65.076208 
2500.000000	65.052056 
2499.000000	65.029788 
2498.000000	65.011644 
2497.000000	64.999294 
2496.000000	64.993858 
2495.000000	64.995551 
2494.000000	65.003895 
2493.000000	65.017580 
2492.000000	65.034866 
2491.000000	65.053725 
2490.000000	65.071940 
2489.000000	65.087604 
2488.000000	65.098881 
2487.000000	65.104484 
2486.000000	65.103888 
2485.000000	65.097165 
2484.000000	65.085220 
2483.000000	65.069532 
2482.000000	65.052127 
2481.000000	65.035271 
2480.000000	65.021371 
2479.000000	65.012383 
2478.000000	65.009593 
2477.000000	65.013384 
2476.000000	65.023231 
2475.000000	65.037608 
2474.000000	65.054464 
2473.000000	65.071392 
2472.000000	65.086221 
2471.000000	65.097308 
2470.000000	65.103697 
2469.000000	65.105104 
2468.000000	65.101981 
2467.000000	65.095305 
2466.000000	65.086269 
2465.000000	65.076327 
2464.000000	65.066647 
2463.000000	65.058422 
2462.000000	65.052437 
2461.000000	65.049338 
2460.000000	65.049076 
2459.000000	65.051388 
2458.000000	65.055537 
2457.000000	65.060400 
2456.000000	65.064716 
2455.000000	65.067267 
2454.000000	65.067172 
2453.000000	65.063834 
2452.000000	65.057373 
2451.000000	65.048336 
2450.000000	65.037631 
2449.000000	65.026140 
2448.000000	65.014529 
2447.000000	65.003275 
2446.000000	64.992594 
2445.000000	64.982533 
2444.000000	64.973330 
2443.000000	64.965319 
2442.000000	64.959192 
2441.000000	64.955711 
2440.000000	64.955568 
2439.000000	64.959096 
2438.000000	64.966177 
2437.000000	64.976096 
2436.000000	64.987683 
2435.000000	64.999508 
2434.000000	65.010142 
2433.000000	65.018367 
2432.000000	65.023589 
2431.000000	65.025901 
2430.000000	65.025734 
2429.000000	65.024089 
2428.000000	65.021872 
2427.000000	65.020108 
2426.000000	65.019392 
2425.000000	65.019965 
2424.000000	65.021824 
2423.000000	65.024638 
2422.000000	65.027976 
2421.000000	65.031409 
2420.000000	65.034627 
2419.000000	65.037536 
2418.000000	65.040063 
2417.000000	65.042281 
2416.000000	65.044283 
2415.000000	65.045857 
2414.000000	65.046715 
2413.000000	65.046477 
2412.000000	65.044832 
2411.000000	65.041708 
2410.000000	65.037345 
2409.000000	65.032482 
2408.000000	65.028190 
2407.000000	65.025639 
2406.000000	65.025496 
2405.000000	65.028190 
2404.000000	65.033125 
2403.000000	65.039086 
2402.000000	65.044355 
2401.000000	65.046977 
2400.000000	65.045261 
2399.000000	65.038156 
2398.000000	65.025496 
2397.000000	65.008258 
2396.000000	64.988231 
2395.000000	64.967799 
2394.000000	64.949440 
2393.000000	64.935255 
2392.000000	64.926648 
2391.000000	64.924168 
2390.000000	64.927458 
2389.000000	64.935517 
2388.000000	64.946985 
2387.000000	64.960598 
2386.000000	64.975118 
2385.000000	64.989876 
2384.000000	65.004539 
2383.000000	65.019106 
2382.000000	65.033626 
2381.000000	65.047979 
2380.000000	65.061879 
2379.000000	65.074706 
2378.000000	65.085697 
2377.000000	65.094208 
2376.000000	65.099859 
2375.000000	65.102744 
2374.000000	65.103530 
2373.000000	65.103220 
2372.000000	65.103030 
2371.000000	65.104031 
2370.000000	65.106868 
2369.000000	65.111470 
2368.000000	65.117359 
2367.000000	65.123558 
2366.000000	65.128850 
2365.000000	65.132141 
2364.000000	65.132665 
2363.000000	65.130162 
2362.000000	65.124821 
2361.000000	65.117263 
2360.000000	65.108466 
2359.000000	65.099501 
2358.000000	65.091180 
2357.000000	65.084338 
2356.000000	65.079283 
2355.000000	65.076065 
2354.000000	65.074443 
2353.000000	65.074133 
2352.000000	65.074801 
2351.000000	65.076136 
2350.000000	65.077757 
2349.000000	65.079212 
2348.000000	65.080165 
2347.000000	65.080118 
2346.000000	65.078711 
2345.000000	65.075659 
2344.000000	65.071129 
2343.000000	65.065550 
2342.000000	65.059685 
2341.000000	65.054535 
2340.000000	65.050888 
2339.000000	65.049362 
2338.000000	65.049982 
2337.000000	65.052127 
2336.000000	65.054702 
2335.000000	65.056324 
2334.000000	65.055799 
2333.000000	65.052437 
2332.000000	65.046191 
2331.000000	65.037679 
2330.000000	65.027928 
2329.000000	65.018129 
2328.000000	65.009117 
2327.000000	65.001249 
2326.000000	64.994168 
2325.000000	64.987087 
2324.000000	64.979076 
2323.000000	64.969491 
2322.000000	64.958190 
2321.000000	64.945912 
2320.000000	64.933991 
2319.000000	64.924216 
2318.000000	64.918208 
2317.000000	64.917111 
2316.000000	64.921164 
2315.000000	64.929556 
2314.000000	64.940619 
2313.000000	64.952039 
2312.000000	64.961624 
2311.000000	64.967298 
2310.000000	64.967775 
2309.000000	64.962553 
2308.000000	64.952230 
2307.000000	64.937973 
2306.000000	64.921545 
2305.000000	64.904928 
2304.000000	64.889979 
2303.000000	64.878416 
2302.000000	64.871501 
2301.000000	64.869952 
2300.000000	64.873933 
2299.000000	64.882898 
2298.000000	64.895892 
2297.000000	64.911437 
2296.000000	64.927935 
2295.000000	64.943599 
2294.000000	64.957094 
2293.000000	64.967465 
2292.000000	64.974331 
2291.000000	64.977741 
2290.000000	64.978218 
2289.000000	64.976549 
2288.000000	64.973831 
2287.000000	64.971184 
2286.000000	64.969778 
2285.000000	64.970612 
2284.000000	64.974451 
2283.000000	64.981603 
2282.000000	64.991807 
2281.000000	65.004301 
2280.000000	65.017771 
2279.000000	65.030479 
2278.000000	65.040636 
2277.000000	65.046548 
2276.000000	65.047121 
2275.000000	65.041875 
2274.000000	65.031313 
2273.000000	65.016674 
2272.000000	64.999580 
2271.000000	64.982056 
2270.000000	64.965796 
2269.000000	64.952373 
2268.000000	64.942836 
2267.000000	64.937734 
2266.000000	64.936995 
2265.000000	64.940094 
2264.000000	64.946103 
2263.000000	64.953851 
2262.000000	64.961814 
2261.000000	64.968657 
2260.000000	64.973306 
2259.000000	64.975214 
2258.000000	64.974379 
2257.000000	64.971256 
2256.000000	64.966726 
2255.000000	64.961862 
2254.000000	64.957666 
2253.000000	64.954996 
2252.000000	64.954328 
2251.000000	64.955925 
2250.000000	64.959573 
2249.000000	64.965009 
2248.000000	64.971780 
2247.000000	64.979314 
2246.000000	64.986896 
2245.000000	64.993524 
2244.000000	64.998197 
2243.000000	64.999842 
2242.000000	64.997553 
2241.000000	64.990878 
2240.000000	64.980101 
2239.000000	64.966344 
2238.000000	64.951491 
2237.000000	64.937758 
2236.000000	64.927363 
2235.000000	64.921951 
2234.000000	64.922237 
2233.000000	64.927864 
2232.000000	64.937448 
2231.000000	64.948916 
2230.000000	64.959955 
2229.000000	64.968705 
2228.000000	64.973974 
2227.000000	64.975476 
2226.000000	64.973759 
2225.000000	64.969992 
2224.000000	64.965415 
2223.000000	64.961075 
2222.000000	64.957594 
2221.000000	64.955067 
2220.000000	64.953255 
2219.000000	64.951682 
2218.000000	64.950108 
2217.000000	64.948391 
2216.000000	64.946794 
2215.000000	64.945626 
2214.000000	64.945197 
2213.000000	64.945602 
2212.000000	64.946579 
2211.000000	64.947605 
2210.000000	64.948153 
2209.000000	64.947915 
2208.000000	64.946866 
2207.000000	64.945363 
2206.000000	64.944076 
2205.000000	64.943599 
2204.000000	64.944410 
2203.000000	64.946365 
2202.000000	64.948844 
2201.000000	64.950633 
2200.000000	64.950585 
2199.000000	64.947938 
2198.000000	64.942574 
2197.000000	64.935302 
2196.000000	64.927625 
2195.000000	64.921331 
2194.000000	64.918041 
2193.000000	64.918494 
2192.000000	64.922451 
2191.000000	64.929080 
2190.000000	64.936923 
2189.000000	64.944362 
2188.000000	64.950013 
2187.000000	64.953088 
2186.000000	64.953351 
2185.000000	64.951109 
2184.000000	64.946866 
2183.000000	64.941191 
2182.000000	64.934778 
2181.000000	64.928030 
2180.000000	64.921450 
2179.000000	64.915585 
2178.000000	64.911293 
2177.000000	64.909553 
2176.000000	64.911437 
2175.000000	64.917707 
2174.000000	64.928746 
2173.000000	64.944314 
2172.000000	64.963459 
2171.000000	64.984512 
2170.000000	65.005397 
2169.000000	65.023517 
2168.000000	65.036010 
2167.000000	65.039920 
2166.000000	65.032720 
2165.000000	65.012979 
2164.000000	64.980673 
2163.000000	64.937520 
2162.000000	64.887285 
2161.000000	64.834904 
2160.000000	64.785742 
2159.000000	64.744591 
2158.000000	64.714837 
2157.000000	64.697909 
2156.000000	64.692926 
2155.000000	64.697480 
2154.000000	64.708018 
2153.000000	64.720988 
2152.000000	64.733457 
2151.000000	64.743900 
2150.000000	64.752006 
2149.000000	64.758586 
2148.000000	64.764904 
2147.000000	64.772081 
2146.000000	64.780616 
2145.000000	64.790391 
2144.000000	64.800596 
2143.000000	64.810252 
2142.000000	64.818501 
2141.000000	64.824628 
2140.000000	64.828705 
2139.000000	64.830875 
2138.000000	64.831876 
2137.000000	64.832520 
2136.000000	64.833784 
2135.000000	64.836430 
2134.000000	64.841032 
2133.000000	64.847946 
2132.000000	64.857244 
2131.000000	64.868807 
2130.000000	64.882349 
2129.000000	64.897465 
2128.000000	64.913725 
2127.000000	64.930844 
2126.000000	64.948344 
2125.000000	64.965558 
2124.000000	64.981651 
2123.000000	64.995670 
2122.000000	65.006375 
2121.000000	65.012598 
2120.000000	65.013241 
2119.000000	65.007805 
2118.000000	64.996290 
2117.000000	64.979529 
2116.000000	64.959287 
2115.000000	64.937639 
2114.000000	64.916920 
2113.000000	64.898991 
2112.000000	64.885187 
2111.000000	64.875745 
2110.000000	64.870142 
2109.000000	64.867138 
2108.000000	64.864897 
2107.000000	64.861893 
2106.000000	64.856791 
2105.000000	64.849114 
2104.000000	64.838910 
2103.000000	64.827156 
2102.000000	64.815282 
2101.000000	64.805102 
2100.000000	64.798188 
2099.000000	64.795708 
2098.000000	64.798283 
2097.000000	64.805698 
2096.000000	64.816880 
2095.000000	64.830398 
2094.000000	64.844727 
2093.000000	64.858412 
2092.000000	64.870476 
2091.000000	64.880633 
2090.000000	64.889168 
2089.000000	64.896845 
2088.000000	64.904642 
2087.000000	64.913392 
2086.000000	64.923453 
2085.000000	64.934873 
2084.000000	64.946866 
2083.000000	64.958262 
2082.000000	64.967417 
2081.000000	64.973068 
2080.000000	64.974236 
2079.000000	64.970612 
2078.000000	64.962744 
2077.000000	64.951896 
2076.000000	64.939522 
2075.000000	64.927077 
2074.000000	64.915585 
2073.000000	64.905357 
2072.000000	64.896225 
2071.000000	64.887928 
2070.000000	64.880084 
2069.000000	64.872670 
2068.000000	64.866065 
2067.000000	64.860820 
2066.000000	64.857482 
2065.000000	64.856362 
2064.000000	64.857387 
2063.000000	64.860057 
2062.000000	64.863419 
2061.000000	64.866542 
2060.000000	64.868545 
2059.000000	64.869141 
2058.000000	64.868497 
2057.000000	64.867305 
2056.000000	64.866757 
2055.000000	64.868092 
2054.000000	64.872217 
2053.000000	64.879488 
2052.000000	64.889693 
2051.000000	64.901566 
2050.000000	64.913463 
2049.000000	64.923167 
2048.000000	64.928698 
2047.000000	64.928436 
2046.000000	64.921736 
2045.000000	64.908957 
2044.000000	64.891529 
2043.000000	64.871788 
2042.000000	64.852666 
2041.000000	64.837074 
2040.000000	64.827299 
2039.000000	64.824676 
2038.000000	64.829397 
2037.000000	64.840626 
2036.000000	64.856672 
2035.000000	64.875364 
2034.000000	64.894556 
2033.000000	64.912176 
2032.000000	64.926719 
2031.000000	64.937019 
2030.000000	64.942431 
2029.000000	64.942693 
2028.000000	64.937996 
2027.000000	64.928793 
2026.000000	64.915776 
2025.000000	64.900112 
2024.000000	64.883136 
2023.000000	64.866495 
2022.000000	64.851880 
2021.000000	64.841079 
2020.000000	64.835596 
2019.000000	64.836382 
2018.000000	64.843845 
2017.000000	64.857649 
2016.000000	64.876651 
2015.000000	64.898872 
2014.000000	64.921808 
2013.000000	64.942669 
2012.000000	64.958810 
2011.000000	64.968323 
2010.000000	64.970207 
2009.000000	64.964580 
2008.000000	64.952826 
2007.000000	64.937090 
2006.000000	64.919829 
2005.000000	64.903354 
2004.000000	64.889192 
2003.000000	64.878106 
2002.000000	64.870095 
2001.000000	64.864468 
2000.000000	64.860415 
1999.000000	64.857220 
1998.000000	64.854478 
1997.000000	64.852142 
1996.000000	64.850306 
1995.000000	64.849162 
1994.000000	64.848303 
1993.000000	64.847064 
1992.000000	64.844465 
1991.000000	64.839649 
1990.000000	64.832019 
1989.000000	64.821743 
1988.000000	64.809727 
1987.000000	64.797592 
1986.000000	64.787411 
1985.000000	64.780902 
1984.000000	64.779233 
1983.000000	64.782428 
1982.000000	64.789748 
1981.000000	64.799547 
1980.000000	64.809870 
1979.000000	64.818906 
1978.000000	64.825272 
1977.000000	64.828395 
1976.000000	64.828443 
1975.000000	64.825820 
1974.000000	64.821290 
1973.000000	64.815425 
1972.000000	64.808845 
1971.000000	64.802145 
1970.000000	64.795994 
1969.000000	64.791369 
1968.000000	64.789319 
1967.000000	64.791131 
1966.000000	64.797592 
1965.000000	64.808821 
1964.000000	64.824032 
1963.000000	64.841413 
1962.000000	64.858436 
1961.000000	64.872407 
1960.000000	64.881062 
1959.000000	64.883136 
1958.000000	64.878749 
1957.000000	64.869213 
1956.000000	64.856767 
1955.000000	64.844059 
1954.000000	64.833498 
1953.000000	64.826846 
1952.000000	64.824891 
1951.000000	64.827489 
1950.000000	64.833974 
1949.000000	64.843130 
1948.000000	64.853572 
1947.000000	64.863729 
1946.000000	64.872121 
1945.000000	64.877438 
1944.000000	64.878487 
1943.000000	64.874553 
1942.000000	64.865422 
1941.000000	64.851665 
1940.000000	64.834618 
1939.000000	64.816069 
1938.000000	64.798331 
1937.000000	64.783334 
1936.000000	64.772415 
1935.000000	64.765787 
1934.000000	64.762639 
1933.000000	64.761543 
1932.000000	64.760923 
1931.000000	64.759492 
1930.000000	64.756846 
1929.000000	64.753413 
1928.000000	64.750599 
1927.000000	64.750051 
1926.000000	64.753222 
1925.000000	64.760947 
1924.000000	64.773106 
1923.000000	64.788746 
1922.000000	64.806103 
1921.000000	64.823102 
1920.000000	64.837884 
1919.000000	64.849042 
1918.000000	64.855980 
1917.000000	64.858865 
1916.000000	64.858436 
1915.000000	64.855813 
1914.000000	64.852142 
1913.000000	64.848470 
1912.000000	64.845561 
1911.000000	64.844131 
1910.000000	64.844512 
1909.000000	64.847016 
1908.000000	64.851689 
1907.000000	64.858555 
1906.000000	64.867448 
1905.000000	64.877891 
1904.000000	64.889192 
1903.000000	64.900517 
1902.000000	64.910888 
1901.000000	64.919471 
1900.000000	64.925551 
1899.000000	64.928674 
1898.000000	64.928865 
1897.000000	64.926123 
1896.000000	64.920902 
1895.000000	64.913439 
1894.000000	64.904022 
1893.000000	64.892721 
1892.000000	64.879536 
1891.000000	64.864611 
1890.000000	64.848399 
1889.000000	64.831614 
1888.000000	64.815330 
1887.000000	64.800834 
1886.000000	64.789175 
1885.000000	64.781069 
1884.000000	64.776635 
1883.000000	64.775538 
1882.000000	64.776992 
1881.000000	64.780116 
1880.000000	64.784073 
1879.000000	64.788341 
1878.000000	64.792728 
1877.000000	64.797329 
1876.000000	64.802336 
1875.000000	64.808058 
1874.000000	64.814639 
1873.000000	64.821910 
1872.000000	64.829492 
1871.000000	64.836788 
1870.000000	64.842867 
1869.000000	64.846897 
1868.000000	64.848017 
1867.000000	64.845633 
1866.000000	64.839577 
1865.000000	64.830112 
1864.000000	64.818215 
1863.000000	64.805340 
1862.000000	64.793181 
1861.000000	64.783716 
1860.000000	64.778399 
1859.000000	64.777851 
1858.000000	64.781594 
1857.000000	64.788293 
1856.000000	64.795994 
1855.000000	64.802575 
1854.000000	64.806532 
1853.000000	64.807391 
1852.000000	64.805817 
1851.000000	64.803409 
1850.000000	64.802265 
1849.000000	64.804363 
1848.000000	64.810919 
1847.000000	64.821910 
1846.000000	64.836072 
1845.000000	64.851045 
1844.000000	64.864015 
1843.000000	64.872360 
1842.000000	64.874315 
1841.000000	64.869117 
1840.000000	64.857459 
1839.000000	64.841032 
1838.000000	64.822125 
1837.000000	64.803194 
1836.000000	64.786386 
1835.000000	64.773321 
1834.000000	64.764857 
1833.000000	64.761209 
1832.000000	64.762043 
1831.000000	64.766716 
1830.000000	64.774370 
1829.000000	64.784240 
1828.000000	64.795565 
1827.000000	64.807868 
1826.000000	64.820528 
1825.000000	64.833092 
1824.000000	64.845156 
1823.000000	64.856290 
1822.000000	64.866042 
1821.000000	64.874005 
1820.000000	64.879870 
1819.000000	64.883399 
1818.000000	64.884519 
1817.000000	64.883065 
1816.000000	64.879155 
1815.000000	64.872908 
1814.000000	64.864683 
1813.000000	64.854955 
1812.000000	64.844417 
1811.000000	64.833998 
1810.000000	64.824652 
1809.000000	64.817380 
1808.000000	64.812970 
1807.000000	64.812064 
1806.000000	64.814758 
1805.000000	64.820528 
1804.000000	64.828372 
1803.000000	64.836859 
1802.000000	64.844274 
1801.000000	64.848780 
1800.000000	64.848828 
1799.000000	64.843440 
1798.000000	64.832472 
1797.000000	64.816784 
1796.000000	64.798188 
1795.000000	64.779019 
1794.000000	64.761900 
1793.000000	64.749193 
1792.000000	64.742422 
1791.000000	64.742231 
1790.000000	64.748024 
1789.000000	64.758324 
1788.000000	64.770984 
1787.000000	64.783716 
1786.000000	64.794516 
1785.000000	64.802360 
1784.000000	64.806914 
1783.000000	64.808988 
1782.000000	64.810061 
1781.000000	64.811944 
1780.000000	64.816355 
1779.000000	64.824414 
1778.000000	64.836573 
1777.000000	64.852118 
1776.000000	64.869689 
1775.000000	64.887309 
1774.000000	64.902877 
1773.000000	64.914488 
1772.000000	64.920783 
1771.000000	64.921236 
1770.000000	64.916300 
1769.000000	64.907288 
1768.000000	64.896035 
1767.000000	64.884376 
1766.000000	64.873886 
1765.000000	64.865589 
1764.000000	64.859628 
1763.000000	64.855575 
1762.000000	64.852190 
1761.000000	64.848136 
1760.000000	64.842081 
1759.000000	64.833116 
1758.000000	64.820814 
1757.000000	64.805412 
1756.000000	64.787435 
1755.000000	64.767789 
1754.000000	64.746952 
1753.000000	64.725565 
1752.000000	64.703655 
1751.000000	64.680838 
1750.000000	64.656424 
1749.000000	64.629817 
1748.000000	64.600682 
1747.000000	64.569067 
1746.000000	64.535760 
1745.000000	64.502191 
1744.000000	64.470481 
1743.000000	64.443087 
1742.000000	64.422321 
1741.000000	64.409828 
1740.000000	64.406132 
1739.000000	64.410281 
1738.000000	64.419937 
1737.000000	64.431619 
1736.000000	64.441251 
1735.000000	64.445233 
1734.000000	64.441037 
1733.000000	64.428281 
1732.000000	64.408397 
1731.000000	64.384841 
1730.000000	64.362335 
1729.000000	64.346051 
1728.000000	64.340567 
1727.000000	64.349031 
1726.000000	64.372420 
1725.000000	64.409565 
1724.000000	64.457321 
1723.000000	64.511227 
1722.000000	64.566278 
1721.000000	64.617705 
1720.000000	64.661407 
1719.000000	64.694690 
1718.000000	64.716315 
1717.000000	64.726305 
1716.000000	64.725875 
1715.000000	64.717006 
1714.000000	64.702343 
1713.000000	64.684724 
1712.000000	64.666867 
1711.000000	64.651441 
1710.000000	64.640831 
1709.000000	64.636945 
1708.000000	64.641094 
1707.000000	64.653992 
1706.000000	64.675450 
1705.000000	64.704656 
1704.000000	64.739632 
1703.000000	64.777565 
1702.000000	64.815044 
1701.000000	64.848208 
1700.000000	64.873623 
1699.000000	64.888381 
1698.000000	64.891004 
1697.000000	64.881658 
1696.000000	64.862275 
1695.000000	64.836311 
1694.000000	64.808034 
1693.000000	64.782142 
1692.000000	64.762330 
1691.000000	64.750766 
1690.000000	64.747595 
1689.000000	64.751219 
1688.000000	64.758396 
1687.000000	64.765262 
1686.000000	64.768147 
1685.000000	64.764642 
1684.000000	64.754176 
1683.000000	64.738011 
1682.000000	64.718914 
1681.000000	64.700388 
1680.000000	64.685821 
1679.000000	64.677667 
1678.000000	64.677023 
1677.000000	64.683651 
1676.000000	64.695978 
1675.000000	64.711737 
1674.000000	64.728760 
1673.000000	64.744997 
1672.000000	64.759087 
1671.000000	64.770030 
1670.000000	64.777302 
1669.000000	64.780497 
1668.000000	64.778971 
1667.000000	64.772272 
1666.000000	64.760279 
1665.000000	64.743661 
1664.000000	64.724040 
1663.000000	64.704132 
1662.000000	64.687347 
1661.000000	64.677357 
1660.000000	64.677286 
1659.000000	64.688730 
1658.000000	64.711070 
1657.000000	64.741683 
1656.000000	64.776062 
1655.000000	64.808773 
1654.000000	64.834618 
1653.000000	64.849615 
1652.000000	64.851856 
1651.000000	64.841580 
1650.000000	64.821147 
1649.000000	64.794516 
1648.000000	64.766144 
1647.000000	64.740324 
1646.000000	64.720177 
1645.000000	64.707493 
1644.000000	64.702224 
1643.000000	64.703178 
1642.000000	64.707994 
1641.000000	64.713764 
1640.000000	64.717650 
1639.000000	64.717388 
1638.000000	64.711713 
1637.000000	64.700460 
1636.000000	64.684891 
1635.000000	64.667248 
1634.000000	64.650559 
1633.000000	64.637804 
1632.000000	64.631414 
1631.000000	64.632678 
1630.000000	64.641356 
1629.000000	64.656066 
1628.000000	64.674687 
1627.000000	64.694905 
1626.000000	64.714860 
1625.000000	64.733338 
1624.000000	64.749979 
1623.000000	64.764761 
1622.000000	64.777612 
1621.000000	64.787840 
1620.000000	64.794063 
1619.000000	64.794540 
1618.000000	64.787530 
1617.000000	64.771986 
1616.000000	64.748096 
1615.000000	64.717817 
1614.000000	64.684844 
1613.000000	64.653801 
1612.000000	64.629340 
1611.000000	64.615106 
1610.000000	64.612984 
1609.000000	64.622879 
1608.000000	64.642596 
1607.000000	64.668607 
1606.000000	64.696884 
1605.000000	64.723682 
1604.000000	64.746093 
1603.000000	64.762353 
1602.000000	64.771962 
1601.000000	64.775395 
1600.000000	64.773726 
1599.000000	64.768338 
1598.000000	64.760446 
1597.000000	64.751172 
1596.000000	64.741277 
1595.000000	64.731383 
1594.000000	64.721918 
1593.000000	64.713525 
1592.000000	64.706802 
1591.000000	64.702534 
1590.000000	64.701414 
1589.000000	64.703750 
1588.000000	64.709639 
1587.000000	64.718627 
1586.000000	64.730286 
1585.000000	64.743971 
1584.000000	64.759016 
1583.000000	64.774823 
1582.000000	64.790511 
1581.000000	64.805030 
1580.000000	64.817118 
1579.000000	64.825439 
1578.000000	64.828801 
1577.000000	64.826369 
1576.000000	64.817953 
1575.000000	64.803981 
1574.000000	64.785504 
1573.000000	64.764332 
1572.000000	64.742207 
1571.000000	64.721155 
1570.000000	64.703297 
1569.000000	64.690971 
1568.000000	64.686322 
1567.000000	64.691185 
1566.000000	64.706778 
1565.000000	64.733362 
1564.000000	64.769792 
1563.000000	64.813446 
1562.000000	64.860081 
1561.000000	64.904594 
1560.000000	64.941596 
1559.000000	64.966607 
1558.000000	64.976811 
1557.000000	64.971780 
1556.000000	64.953756 
1555.000000	64.926886 
1554.000000	64.896488 
1553.000000	64.867830 
1552.000000	64.845204 
1551.000000	64.831209 
1550.000000	64.826321 
1549.000000	64.829230 
1548.000000	64.837145 
1547.000000	64.846754 
1546.000000	64.854526 
1545.000000	64.857482 
1544.000000	64.853858 
1543.000000	64.842677 
1542.000000	64.824271 
1541.000000	64.799857 
1540.000000	64.771556 
1539.000000	64.741802 
1538.000000	64.713239 
1537.000000	64.688324 
1536.000000	64.669108 
1535.000000	64.656996 
1534.000000	64.652371 
1533.000000	64.654636 
1532.000000	64.662456 
1531.000000	64.673924 
1530.000000	64.687085 
1529.000000	64.700007 
1528.000000	64.711308 
1527.000000	64.720368 
1526.000000	64.727067 
1525.000000	64.731764 
1524.000000	64.734888 
1523.000000	64.737057 
1522.000000	64.738583 
1521.000000	64.739775 
1520.000000	64.740729 
1519.000000	64.741587 
1518.000000	64.742803 
1517.000000	64.745092 
1516.000000	64.749646 
1515.000000	64.757490 
1514.000000	64.769506 
1513.000000	64.785742 
1512.000000	64.805459 
1511.000000	64.827084 
1510.000000	64.848327 
1509.000000	64.866614 
1508.000000	64.879536 
1507.000000	64.885401 
1506.000000	64.883875 
1505.000000	64.875888 
1504.000000	64.863538 
1503.000000	64.849448 
1502.000000	64.836335 
1501.000000	64.825844 
1500.000000	64.818453 
1499.000000	64.813089 
1498.000000	64.807605 
1497.000000	64.799547 
1496.000000	64.786934 
1495.000000	64.768862 
1494.000000	64.745855 
1493.000000	64.719700 
1492.000000	64.693093 
1491.000000	64.668512 
1490.000000	64.647793 
1489.000000	64.631652 
1488.000000	64.619684 
1487.000000	64.610552 
1486.000000	64.602851 
1485.000000	64.595580 
1484.000000	64.588737 
1483.000000	64.583039 
1482.000000	64.579892 
1481.000000	64.580678 
1480.000000	64.586281 
1479.000000	64.596271 
1478.000000	64.608955 
1477.000000	64.621734 
1476.000000	64.631533 
1475.000000	64.635801 
1474.000000	64.632964 
1473.000000	64.623045 
1472.000000	64.607310 
1471.000000	64.588117 
1470.000000	64.568066 
1469.000000	64.549207 
1468.000000	64.532876 
1467.000000	64.519524 
1466.000000	64.509177 
1465.000000	64.501690 
1464.000000	64.497423 
1463.000000	64.496970 
1462.000000	64.501214 
1461.000000	64.510703 
1460.000000	64.525270 
1459.000000	64.543676 
1458.000000	64.563512 
1457.000000	64.581990 
1456.000000	64.596104 
1455.000000	64.603543 
1454.000000	64.603400 
1453.000000	64.596247 
1452.000000	64.584136 
1451.000000	64.569854 
1450.000000	64.556550 
1449.000000	64.546895 
1448.000000	64.542555 
1447.000000	64.544296 
1446.000000	64.552116 
1445.000000	64.565300 
1444.000000	64.582777 
1443.000000	64.603090 
1442.000000	64.624428 
1441.000000	64.644598 
1440.000000	64.661407 
1439.000000	64.672923 
1438.000000	64.677715 
1437.000000	64.675498 
1436.000000	64.666938 
1435.000000	64.653348 
1434.000000	64.636301 
1433.000000	64.617323 
1432.000000	64.597368 
1431.000000	64.576935 
1430.000000	64.556002 
1429.000000	64.534378 
1428.000000	64.512038 
1427.000000	64.489531 
1426.000000	64.467978 
1425.000000	64.448809 
1424.000000	64.433550 
1423.000000	64.423370 
1422.000000	64.418673 
1421.000000	64.418935 
1420.000000	64.422965 
1419.000000	64.429020 
1418.000000	64.435696 
1417.000000	64.441895 
1416.000000	64.447164 
1415.000000	64.451742 
1414.000000	64.456319 
1413.000000	64.461779 
1412.000000	64.468955 
1411.000000	64.478373 
1410.000000	64.490199 
1409.000000	64.503908 
1408.000000	64.518547 
1407.000000	64.532756 
1406.000000	64.545083 
1405.000000	64.554023 
1404.000000	64.558458 
1403.000000	64.557790 
1402.000000	64.552187 
1401.000000	64.542531 
1400.000000	64.530086 
1399.000000	64.516258 
1398.000000	64.502644 
1397.000000	64.490222 
1396.000000	64.479422 
1395.000000	64.469957 
1394.000000	64.461231 
1393.000000	64.452385 
1392.000000	64.442682 
1391.000000	64.432048 
1390.000000	64.420866 
1389.000000	64.410138 
1388.000000	64.401245 
1387.000000	64.395403 
1386.000000	64.393448 
1385.000000	64.395523 
1384.000000	64.401173 
1383.000000	64.409160 
1382.000000	64.417934 
1381.000000	64.425969 
1380.000000	64.432144 
1379.000000	64.435768 
1378.000000	64.437079 
1377.000000	64.436388 
1376.000000	64.434671 
1375.000000	64.432787 
1374.000000	64.431858 
1373.000000	64.432764 
1372.000000	64.436292 
1371.000000	64.443063 
1370.000000	64.453196 
1369.000000	64.466309 
1368.000000	64.481258 
1367.000000	64.496374 
1366.000000	64.509367 
1365.000000	64.517855 
1364.000000	64.519906 
1363.000000	64.514398 
1362.000000	64.501333 
1361.000000	64.481973 
1360.000000	64.458751 
1359.000000	64.434814 
1358.000000	64.413619 
1357.000000	64.398288 
1356.000000	64.390921 
1355.000000	64.392566 
1354.000000	64.403152 
1353.000000	64.421415 
1352.000000	64.445328 
1351.000000	64.472436 
1350.000000	64.500331 
1349.000000	64.527010 
1348.000000	64.550518 
1347.000000	64.569520 
1346.000000	64.583134 
1345.000000	64.590954 
1344.000000	64.592862 
1343.000000	64.589118 
1342.000000	64.580512 
1341.000000	64.567947 
1340.000000	64.552831 
1339.000000	64.536571 
1338.000000	64.520740 
1337.000000	64.506626 
1336.000000	64.495229 
1335.000000	64.486885 
1334.000000	64.481425 
1333.000000	64.478135 
1332.000000	64.475941 
1331.000000	64.473700 
1330.000000	64.470291 
1329.000000	64.464950 
1328.000000	64.457345 
1327.000000	64.447474 
1326.000000	64.435458 
1325.000000	64.421629 
1324.000000	64.406347 
1323.000000	64.389729 
1322.000000	64.371752 
1321.000000	64.352512 
1320.000000	64.332365 
1319.000000	64.311981 
1318.000000	64.292407 
1317.000000	64.274692 
1316.000000	64.259791 
1315.000000	64.248299 
1314.000000	64.240145 
1313.000000	64.234399 
1312.000000	64.229965 
1311.000000	64.225888 
1310.000000	64.221644 
1309.000000	64.217424 
1308.000000	64.214253 
1307.000000	64.213609 
1306.000000	64.216971 
1305.000000	64.225363 
1304.000000	64.238810 
1303.000000	64.256405 
1302.000000	64.276361 
1301.000000	64.296460 
1300.000000	64.314579 
1299.000000	64.329338 
1298.000000	64.340543 
1297.000000	64.348912 
1296.000000	64.356112 
1295.000000	64.363861 
1294.000000	64.373755 
1293.000000	64.386272 
1292.000000	64.400792 
1291.000000	64.415240 
1290.000000	64.427137 
1289.000000	64.433574 
1288.000000	64.432191 
1287.000000	64.421749 
1286.000000	64.402437 
1285.000000	64.375782 
1284.000000	64.344215 
1283.000000	64.310741 
1282.000000	64.278173 
1281.000000	64.248895 
1280.000000	64.224410 
1279.000000	64.205288 
1278.000000	64.191365 
1277.000000	64.182114 
1276.000000	64.176869 
1275.000000	64.175009 
1274.000000	64.176297 
1273.000000	64.180469 
1272.000000	64.187645 
1271.000000	64.197611 
1270.000000	64.209985 
1269.000000	64.224100 
1268.000000	64.238739 
1267.000000	64.252448 
1266.000000	64.263796 
1265.000000	64.271473 
1264.000000	64.274835 
1263.000000	64.273905 
1262.000000	64.269328 
1261.000000	64.262413 
1260.000000	64.254784 
1259.000000	64.248085 
1258.000000	64.243483 
1257.000000	64.241552 
1256.000000	64.241957 
1255.000000	64.243602 
1254.000000	64.244914 
1253.000000	64.244151 
1252.000000	64.239931 
1251.000000	64.231705 
1250.000000	64.219808 
1249.000000	64.205765 
1248.000000	64.191722 
1247.000000	64.180135 
1246.000000	64.173150 
1245.000000	64.172101 
1244.000000	64.177274 
1243.000000	64.187788 
1242.000000	64.201831 
1241.000000	64.217185 
1240.000000	64.231681 
1239.000000	64.243531 
1238.000000	64.251637 
1237.000000	64.255762 
1236.000000	64.256215 
1235.000000	64.253711 
1234.000000	64.249324 
1233.000000	64.244198 
1232.000000	64.239335 
1231.000000	64.235544 
1230.000000	64.233374 
1229.000000	64.233255 
1228.000000	64.235377 
1227.000000	64.239335 
1226.000000	64.244294 
1225.000000	64.248967 
1224.000000	64.252042 
1223.000000	64.252185 
1222.000000	64.248609 
1221.000000	64.241290 
1220.000000	64.231014 
1219.000000	64.219188 
1218.000000	64.207673 
1217.000000	64.198350 
1216.000000	64.192724 
1215.000000	64.191722 
1214.000000	64.195561 
1213.000000	64.203572 
1212.000000	64.214277 
1211.000000	64.225769 
1210.000000	64.235782 
1209.000000	64.242005 
1208.000000	64.242839 
1207.000000	64.237809 
1206.000000	64.227724 
1205.000000	64.214372 
1204.000000	64.200520 
1203.000000	64.189243 
1202.000000	64.183402 
1201.000000	64.184975 
1200.000000	64.194893 
1199.000000	64.212870 
1198.000000	64.237427 
1197.000000	64.266324 
1196.000000	64.296889 
1195.000000	64.326477 
1194.000000	64.352750 
1193.000000	64.373922 
1192.000000	64.388918 
1191.000000	64.397096 
1190.000000	64.398622 
1189.000000	64.393758 
1188.000000	64.383196 
1187.000000	64.367437 
1186.000000	64.347362 
1185.000000	64.323616 
1184.000000	64.297080 
1183.000000	64.268302 
1182.000000	64.238095 
1181.000000	64.207363 
1180.000000	64.177227 
1179.000000	64.149022 
1178.000000	64.124083 
1177.000000	64.103507 
1176.000000	64.088010 
1175.000000	64.077782 
1174.000000	64.072561 
1173.000000	64.071369 
1172.000000	64.073181 
1171.000000	64.076828 
1170.000000	64.081358 
1169.000000	64.085912 
1168.000000	64.089798 
1167.000000	64.092588 
1166.000000	64.094114 
1165.000000	64.094781 
1164.000000	64.095449 
1163.000000	64.097332 
1162.000000	64.101672 
1161.000000	64.109349 
1160.000000	64.120483 
1159.000000	64.134359 
1158.000000	64.149546 
1157.000000	64.163827 
1156.000000	64.175009 
1155.000000	64.181375 
1154.000000	64.182019 
1153.000000	64.177155 
1152.000000	64.168238 
1151.000000	64.157485 
1150.000000	64.147710 
1149.000000	64.141654 
1148.000000	64.141726 
1147.000000	64.149379 
1146.000000	64.165210 
1145.000000	64.188790 
1144.000000	64.218950 
1143.000000	64.253830 
1142.000000	64.291119 
1141.000000	64.328503 
1140.000000	64.363455 
1139.000000	64.394211 
1138.000000	64.419674 
1137.000000	64.439916 
1136.000000	64.455723 
1135.000000	64.468479 
1134.000000	64.479780 
1133.000000	64.490437 
1132.000000	64.500927 
1131.000000	64.510488 
1130.000000	64.517831 
1129.000000	64.521050 
1128.000000	64.518737 
1127.000000	64.509582 
1126.000000	64.493155 
1125.000000	64.469885 
1124.000000	64.440965 
1123.000000	64.408206 
1122.000000	64.373683 
1121.000000	64.339518 
1120.000000	64.307594 
1119.000000	64.279365 
1118.000000	64.255714 
1117.000000	64.236807 
1116.000000	64.222121 
1115.000000	64.210391 
1114.000000	64.199852 
1113.000000	64.188575 
1112.000000	64.175009 
1111.000000	64.158296 
1110.000000	64.138722 
1109.000000	64.117336 
1108.000000	64.096117 
1107.000000	64.077377 
1106.000000	64.063310 
1105.000000	64.054918 
1104.000000	64.052057 
1103.000000	64.053511 
1102.000000	64.057445 
1101.000000	64.061665 
1100.000000	64.064788 
1099.000000	64.066791 
1098.000000	64.069104 
1097.000000	64.073991 
1096.000000	64.083719 
1095.000000	64.099669 
1094.000000	64.121747 
1093.000000	64.148283 
1092.000000	64.176630 
1091.000000	64.203906 
1090.000000	64.228296 
1089.000000	64.249491 
1088.000000	64.268660 
1087.000000	64.287567 
1086.000000	64.308142 
1085.000000	64.331245 
1084.000000	64.355993 
1083.000000	64.379358 
1082.000000	64.397382 
1081.000000	64.405584 
1080.000000	64.400577 
1079.000000	64.380645 
1078.000000	64.346766 
1077.000000	64.301919 
1076.000000	64.250898 
1075.000000	64.198827 
1074.000000	64.150261 
1073.000000	64.108681 
1072.000000	64.075994 
1071.000000	64.052820 
1070.000000	64.038848 
1069.000000	64.033341 
1068.000000	64.035558 
1067.000000	64.044713 
1066.000000	64.060068 
1065.000000	64.080882 
1064.000000	64.106178 
1063.000000	64.134550 
1062.000000	64.164185 
1061.000000	64.193034 
1060.000000	64.218974 
1059.000000	64.240169 
1058.000000	64.255213 
1057.000000	64.263963 
1056.000000	64.266800 
1055.000000	64.265108 
1054.000000	64.260077 
1053.000000	64.252972 
1052.000000	64.244246 
1051.000000	64.233827 
1050.000000	64.220786 
1049.000000	64.204287 
1048.000000	64.183592 
1047.000000	64.158987 
1046.000000	64.131784 
1045.000000	64.104342 
1044.000000	64.079761 
1043.000000	64.061450 
1042.000000	64.052271 
1041.000000	64.053702 
1040.000000	64.065814 
1039.000000	64.087247 
1038.000000	64.115667 
1037.000000	64.148187 
1036.000000	64.181971 
1035.000000	64.214372 
1034.000000	64.243268 
1033.000000	64.266943 
1032.000000	64.283776 
1031.000000	64.292383 
1030.000000	64.291906 
1029.000000	64.282059 
1028.000000	64.263820 
1027.000000	64.239001 
1026.000000	64.210486 
1025.000000	64.181733 
1024.000000	64.156460 
1023.000000	64.137935 
1022.000000	64.128303 
1021.000000	64.128494 
1020.000000	64.137816 
1019.000000	64.154529 
1018.000000	64.176130 
1017.000000	64.199948 
1016.000000	64.223265 
1015.000000	64.244151 
1014.000000	64.261269 
1013.000000	64.273977 
1012.000000	64.281940 
1011.000000	64.285349 
1010.000000	64.284491 
1009.000000	64.279842 
1008.000000	64.271831 
1007.000000	64.260673 
1006.000000	64.246559 
1005.000000	64.229702 
1004.000000	64.211010 
1003.000000	64.191913 
1002.000000	64.174699 
1001.000000	64.162325 
1000.000000	64.157867 
999.000000	 64.163780 
998.000000	 64.180874 
997.000000	 64.208292 
996.000000	 64.242672 
995.000000	 64.278960 
994.000000	 64.310765 
993.000000	 64.332032 
992.000000	 64.337682 
991.000000	 64.324688 
990.000000	 64.292645 
989.000000	 64.243912 
988.000000	 64.182567 
987.000000	 64.113926 
986.000000	 64.043331 
985.000000	 63.975667 
984.000000	 63.915014 
983.000000	 63.864707 
982.000000	 63.827180 
981.000000	 63.804364 
980.000000	 63.797497 
979.000000	 63.807106 
978.000000	 63.832402 
977.000000	 63.871622 
976.000000	 63.921546 
975.000000	 63.978290 
974.000000	 64.037275 
973.000000	 64.093875 
972.000000	 64.143991 
971.000000	 64.184713 
970.000000	 64.214348 
969.000000	 64.232659 
968.000000	 64.240694 
967.000000	 64.240550 
966.000000	 64.235138 
965.000000	 64.227247 
964.000000	 64.219665 
963.000000	 64.214324 
962.000000	 64.212632 
961.000000	 64.214897 
960.000000	 64.220666 
959.000000	 64.228868 
958.000000	 64.238381 
957.000000	 64.247894 
956.000000	 64.256477 
955.000000	 64.263844 
954.000000	 64.270257 
953.000000	 64.276051 
952.000000	 64.281415 
951.000000	 64.286422 
950.000000	 64.290666 
949.000000	 64.293169 
948.000000	 64.292883 
947.000000	 64.288878 
946.000000	 64.280724 
945.000000	 64.268779 
944.000000	 64.254260 
943.000000	 64.238619 
942.000000	 64.223790 
941.000000	 64.211583 
940.000000	 64.203381 
939.000000	 64.199542 
938.000000	 64.200115 
937.000000	 64.204859 
936.000000	 64.213490 
935.000000	 64.225792 
934.000000	 64.241695 
933.000000	 64.261054 
932.000000	 64.283466 
931.000000	 64.307951 
930.000000	 64.332628 
929.000000	 64.355039 
928.000000	 64.372420 
927.000000	 64.382457 
926.000000	 64.384126 
925.000000	 64.378094 
924.000000	 64.366674 
923.000000	 64.353418 
922.000000	 64.342594 
921.000000	 64.338016 
920.000000	 64.342069 
919.000000	 64.355015 
918.000000	 64.375090 
917.000000	 64.398598 
916.000000	 64.421081 
915.000000	 64.437627 
914.000000	 64.444184 
913.000000	 64.438033 
912.000000	 64.418435 
911.000000	 64.386510 
910.000000	 64.344835 
909.000000	 64.297533 
908.000000	 64.249372 
907.000000	 64.205312 
906.000000	 64.169836 
905.000000	 64.146399 
904.000000	 64.136767 
903.000000	 64.140868 
902.000000	 64.156532 
901.000000	 64.179372 
900.000000	 64.203739 
899.000000	 64.223527 
898.000000	 64.233589 
897.000000	 64.230203 
896.000000	 64.212441 
895.000000	 64.182066 
894.000000	 64.143514 
893.000000	 64.102721 
892.000000	 64.065837 
891.000000	 64.038038 
890.000000	 64.022350 
889.000000	 64.019370 
888.000000	 64.027404 
887.000000	 64.042663 
886.000000	 64.060974 
885.000000	 64.078545 
884.000000	 64.093184 
883.000000	 64.104270 
882.000000	 64.112973 
881.000000	 64.121341 
880.000000	 64.131498 
879.000000	 64.144372 
878.000000	 64.159727 
877.000000	 64.175772 
876.000000	 64.189505 
875.000000	 64.197468 
874.000000	 64.196920 
873.000000	 64.186501 
872.000000	 64.166712 
871.000000	 64.139914 
870.000000	 64.109563 
869.000000	 64.079809 
868.000000	 64.054679 
867.000000	 64.037585 
866.000000	 64.030456 
865.000000	 64.033842 
864.000000	 64.046907 
863.000000	 64.068245 
862.000000	 64.095711 
861.000000	 64.127421 
860.000000	 64.161491 
859.000000	 64.196825 
858.000000	 64.232373 
857.000000	 64.267420 
856.000000	 64.301109 
855.000000	 64.332628 
854.000000	 64.360976 
853.000000	 64.385247 
852.000000	 64.404869 
851.000000	 64.419412 
850.000000	 64.428734 
849.000000	 64.432716 
848.000000	 64.431166 
847.000000	 64.423656 
846.000000	 64.409661 
845.000000	 64.388489 
844.000000	 64.359760 
843.000000	 64.324021 
842.000000	 64.282798 
841.000000	 64.238834 
840.000000	 64.195513 
839.000000	 64.156723 
838.000000	 64.125609 
837.000000	 64.103794 
836.000000	 64.091372 
835.000000	 64.086389 
834.000000	 64.086103 
833.000000	 64.087247 
832.000000	 64.087510 
831.000000	 64.085602 
830.000000	 64.081931 
829.000000	 64.078068 
828.000000	 64.075875 
827.000000	 64.076542 
826.000000	 64.080262 
825.000000	 64.085865 
824.000000	 64.091205 
823.000000	 64.093780 
822.000000	 64.091992 
821.000000	 64.085578 
820.000000	 64.076185 
819.000000	 64.066910 
818.000000	 64.061307 
817.000000	 64.062428 
816.000000	 64.071869 
815.000000	 64.089322 
814.000000	 64.112758 
813.000000	 64.138722 
812.000000	 64.163994 
811.000000	 64.185476 
810.000000	 64.201092 
809.000000	 64.209723 
808.000000	 64.211106 
807.000000	 64.206027 
806.000000	 64.195513 
805.000000	 64.181017 
804.000000	 64.164090 
803.000000	 64.146232 
802.000000	 64.128899 
801.000000	 64.113426 
800.000000	 64.100956 
799.000000	 64.092516 
798.000000	 64.089035 
797.000000	 64.091157 
796.000000	 64.099168 
795.000000	 64.113068 
794.000000	 64.132571 
793.000000	 64.156937 
792.000000	 64.185070 
791.000000	 64.215588 
790.000000	 64.246916 
789.000000	 64.277434 
788.000000	 64.305567 
787.000000	 64.330053 
786.000000	 64.349699 
785.000000	 64.363956 
784.000000	 64.372301 
783.000000	 64.374279 
782.000000	 64.369487 
781.000000	 64.357662 
780.000000	 64.338779 
779.000000	 64.313960 
778.000000	 64.284825 
777.000000	 64.254093 
776.000000	 64.224600 
775.000000	 64.199066 
774.000000	 64.179158 
773.000000	 64.165306 
772.000000	 64.156508 
771.000000	 64.150619 
770.000000	 64.144945 
769.000000	 64.137101 
768.000000	 64.125609 
767.000000	 64.110589 
766.000000	 64.093351 
765.000000	 64.076590 
764.000000	 64.063692 
763.000000	 64.057850 
762.000000	 64.061427 
761.000000	 64.075279 
760.000000	 64.098262 
759.000000	 64.127397 
758.000000	 64.158511 
757.000000	 64.186692 
756.000000	 64.207386 
755.000000	 64.217185 
754.000000	 64.214205 
753.000000	 64.198613 
752.000000	 64.172434 
751.000000	 64.139223 
750.000000	 64.103341 
749.000000	 64.069032 
748.000000	 64.039826 
747.000000	 64.017868 
746.000000	 64.004087 
745.000000	 63.997650 
744.000000	 63.996458 
743.000000	 63.997626 
742.000000	 63.998341 
741.000000	 63.996124 
740.000000	 63.989591 
739.000000	 63.978362 
738.000000	 63.963675 
737.000000	 63.948225 
736.000000	 63.935804 
735.000000	 63.930344 
734.000000	 63.935065 
733.000000	 63.951563 
732.000000	 63.979172 
731.000000	 64.015007 
730.000000	 64.054250 
729.000000	 64.091205 
728.000000	 64.120554 
727.000000	 64.138412 
726.000000	 64.143347 
725.000000	 64.136314 
724.000000	 64.120721 
723.000000	 64.101338 
722.000000	 64.083361 
721.000000	 64.071249 
720.000000	 64.068055 
719.000000	 64.074969 
718.000000	 64.091372 
717.000000	 64.115023 
716.000000	 64.142632 
715.000000	 64.170455 
714.000000	 64.194512 
713.000000	 64.211273 
712.000000	 64.217448 
711.000000	 64.210748 
710.000000	 64.190292 
709.000000	 64.157080 
708.000000	 64.113974 
707.000000	 64.065575 
706.000000	 64.017653 
705.000000	 63.976263 
704.000000	 63.946628 
703.000000	 63.932490 
702.000000	 63.935565 
701.000000	 63.955640 
700.000000	 63.990044 
699.000000	 64.035081 
698.000000	 64.086556 
697.000000	 64.140439 
696.000000	 64.193034 
695.000000	 64.241743 
694.000000	 64.284849 
693.000000	 64.321017 
692.000000	 64.349031 
691.000000	 64.366888 
690.000000	 64.371919 
689.000000	 64.361166 
688.000000	 64.332437 
687.000000	 64.284777 
686.000000	 64.219522 
685.000000	 64.140629 
684.000000	 64.054417 
683.000000	 63.968658 
682.000000	 63.891100 
681.000000	 63.828182 
680.000000	 63.783788 
679.000000	 63.758230 
678.000000	 63.748669 
677.000000	 63.750147 
676.000000	 63.756418 
675.000000	 63.761162 
674.000000	 63.759374 
673.000000	 63.748073 
672.000000	 63.726854 
671.000000	 63.696742 
670.000000	 63.660788 
669.000000	 63.622403 
668.000000	 63.585853 
667.000000	 63.555169 
666.000000	 63.534069 
665.000000	 63.525152 
664.000000	 63.529944 
663.000000	 63.548731 
662.000000	 63.579797 
661.000000	 63.619756 
660.000000	 63.663887 
659.000000	 63.706970 
658.000000	 63.744282 
657.000000	 63.772892 
656.000000	 63.792157 
655.000000	 63.804340 
654.000000	 63.814043 
653.000000	 63.827347 
652.000000	 63.849854 
651.000000	 63.885498 
650.000000	 63.935542 
649.000000	 63.998031 
648.000000	 64.068555 
647.000000	 64.140725 
646.000000	 64.208388 
645.000000	 64.265871 
644.000000	 64.309358 
643.000000	 64.336657 
642.000000	 64.347529 
641.000000	 64.342856 
640.000000	 64.324069 
639.000000	 64.293146 
638.000000	 64.252543 
637.000000	 64.204931 
636.000000	 64.153552 
635.000000	 64.102482 
634.000000	 64.056491 
633.000000	 64.020133 
632.000000	 63.997077 
631.000000	 63.989186 
630.000000	 63.996052 
629.000000	 64.014911 
628.000000	 64.041066 
627.000000	 64.068317 
626.000000	 64.090585 
625.000000	 64.102649 
624.000000	 64.101576 
623.000000	 64.086747 
622.000000	 64.060115 
621.000000	 64.025616 
620.000000	 63.988280 
619.000000	 63.953232 
618.000000	 63.924789 
617.000000	 63.905906 
616.000000	 63.897562 
615.000000	 63.898992 
614.000000	 63.908433 
613.000000	 63.923621 
612.000000	 63.942837 
611.000000	 63.965177 
610.000000	 63.990592 
609.000000	 64.019370 
608.000000	 64.051961 
607.000000	 64.088463 
606.000000	 64.127779 
605.000000	 64.167547 
604.000000	 64.204382 
603.000000	 64.234471 
602.000000	 64.254617 
601.000000	 64.263272 
600.000000	 64.260435 
599.000000	 64.248657 
598.000000	 64.233064 
597.000000	 64.219999 
596.000000	 64.215898 
595.000000	 64.225029 
594.000000	 64.248228 
593.000000	 64.282584 
592.000000	 64.322018 
591.000000	 64.359354 
590.000000	 64.387488 
589.000000	 64.402651 
588.000000	 64.405441 
587.000000	 64.401125 
586.000000	 64.397907 
585.000000	 64.405584 
584.000000	 64.432549 
583.000000	 64.483523 
582.000000	 64.557766 
581.000000	 64.649057 
580.000000	 64.746594 
579.000000	 64.836978 
578.000000	 64.906406 
577.000000	 64.942812 
576.000000	 64.937591 
575.000000	 64.885616 
574.000000	 64.786958 
573.000000	 64.646339 
572.000000	 64.474511 
571.000000	 64.287281 
570.000000	 64.104819 
569.000000	 63.949227 
568.000000	 63.840937 
567.000000	 63.796305 
566.000000	 63.823127 
565.000000	 63.917136 
564.000000	 64.064764 
563.000000	 64.244985 
562.000000	 64.434337 
561.000000	 64.609599 
560.000000	 64.754700 
559.000000	 64.862537 
558.000000	 64.934897 
557.000000	 64.979529 
556.000000	 65.006136 
555.000000	 65.022420 
554.000000	 65.031313 
553.000000	 65.030837 
552.000000	 65.016341 
551.000000	 64.984083 
550.000000	 64.935016 
549.000000	 64.876556 
548.000000	 64.823079 
547.000000	 64.791584 
546.000000	 64.798498 
545.000000	 64.851880 
544.000000	 64.948272 
543.000000	 65.069842 
542.000000	 65.189433 
541.000000	 65.273523 
540.000000	 65.291237 
539.000000	 65.220117 
538.000000	 65.052533 
537.000000	 64.796948 
536.000000	 64.475917 
535.000000	 64.122605 
534.000000	 63.772654 
533.000000	 63.460445 
532.000000	 63.213419 
531.000000	 63.048934 
530.000000	 62.973403 
529.000000	 62.981033 
528.000000	 63.056254 
527.000000	 63.174986 
526.000000	 63.309502 
525.000000	 63.432669 
524.000000	 63.523602 
523.000000	 63.570094 
522.000000	 63.572049 
521.000000	 63.541102 
520.000000	 63.498401 
519.000000	 63.469314 
518.000000	 63.476395 
517.000000	 63.535857 
516.000000	 63.649630 
515.000000	 63.807296 
514.000000	 63.983321 
513.000000	 64.143466 
512.000000	 64.251542 
511.000000	 64.277458 
510.000000	 64.206767 
509.000000	 64.044046 
508.000000	 63.814949 
507.000000	 63.559985 
506.000000	 63.327050 
505.000000	 63.159751 
504.000000	 63.089442 
503.000000	 63.129258 
502.000000	 63.271498 
501.000000	 63.490724 
500.000000	 63.751006 
499.000000	 64.014482 
498.000000	 64.246177 
497.000000	 64.419960 
496.000000	 64.519858 
495.000000	 64.540863 
494.000000	 64.486217 
493.000000	 64.366006 
492.000000	 64.195251 
491.000000	 63.991665 
490.000000	 63.776445 
489.000000	 63.569617 
488.000000	 63.391447 
487.000000	 63.256168 
486.000000	 63.172197 
485.000000	 63.138651 
484.000000	 63.145279 
483.000000	 63.176226 
482.000000	 63.211798 
481.000000	 63.236331 
480.000000	 63.240194 
479.000000	 63.224196 
478.000000	 63.197517 
477.000000	 63.175153 
476.000000	 63.171982 
475.000000	 63.198471 
474.000000	 63.256716 
473.000000	 63.340616 
472.000000	 63.437867 
471.000000	 63.534569 
470.000000	 63.619565 
469.000000	 63.690233 
468.000000	 63.751983 
467.000000	 63.816261 
466.000000	 63.894033 
465.000000	 63.991260 
464.000000	 64.103412 
463.000000	 64.213204 
462.000000	 64.295601 
461.000000	 64.323544 
460.000000	 64.279007 
459.000000	 64.158868 
458.000000	 63.980412 
457.000000	 63.781094 
456.000000	 63.608479 
455.000000	 63.509964 
454.000000	 63.517189 
453.000000	 63.637328 
452.000000	 63.848805 
451.000000	 64.107489 
450.000000	 64.355158 
449.000000	 64.533758 
448.000000	 64.603400 
447.000000	 64.552569 
446.000000	 64.403319 
445.000000	 64.205384 
444.000000	 64.024662 
443.000000	 63.925623 
442.000000	 63.957095 
441.000000	 64.138913 
440.000000	 64.458990 
439.000000	 64.875483 
438.000000	 65.327453 
437.000000	 65.749526 
436.000000	 66.089749 
435.000000	 66.319298 
434.000000	 66.431975 
433.000000	 66.445779 
432.000000	 66.399288 
431.000000	 66.332459 
430.000000	 66.281962 
429.000000	 66.258931 
428.000000	 66.249465 
427.000000	 66.213989 
426.000000	 66.103911 
425.000000	 65.875196 
424.000000	 65.506768 
423.000000	 65.010857 
422.000000	 64.433979 
421.000000	 63.852190 
420.000000	 63.354539 
419.000000	 63.022375 
418.000000	 62.908864 
417.000000	 63.035297 
416.000000	 63.382840 
415.000000	 63.903236 
414.000000	 64.520931 
413.000000	 65.138244 
412.000000	 65.647268 
411.000000	 65.953350 
410.000000	 65.984702 
409.000000	 65.690660 
408.000000	 65.064978 
407.000000	 64.136624 
406.000000	 62.988615 
405.000000	 61.761045 
404.000000	 60.620737 
403.000000	 59.726858 
402.000000	 59.203720 
401.000000	 59.125947 
400.000000	 59.486389 
399.000000	 60.205292 
398.000000	 61.129784 
397.000000	 62.067985 
396.000000	 62.818908 
395.000000	 63.209462 
394.000000	 63.139557 
393.000000	 62.592792 
392.000000	 61.671137 
391.000000	 60.590124 
390.000000	 59.525537 
389.000000	 58.603167 
388.000000	 58.013153 
387.000000	 57.917165 
386.000000	 58.678078 
385.000000	 60.645508 
384.000000	 63.393688 
383.000000	 66.200661 
382.000000	 68.472623 
381.000000	 69.755482 
380.000000	 70.808672 
379.000000	 72.298789 
378.000000	 74.042630 
377.000000	 75.354671 
376.000000	 73.474860 
375.000000	 66.720676 
374.000000	 56.123256 
373.000000	 44.492387 
372.000000	 38.180375 
371.000000	 40.897345 
370.000000	 51.183056 

