PE IR       SPECTRUM    SPECTRUM    ASCII       PEDS        1.60        
  -1
BZ6BA5~1.ASC
17/04/07
20:55:14.00
17/04/07
20:55:14.00
tln
$BZ1503107-1_t0093$<tbV0>[2.6,7.8,8.0,0.0,27,1,0]
370.000000
64









2002,4.07    
MIRTGS : RIGHTBACK : INTERNAL 2
MIR : ON : INTERNAL 2
OPTKBR

0.200000
8
8.000000
FILLER
RATIO
SPECTRUM
UNLOCKED 256

DOUBLE
64
COMBINED
1
0
0


1.000000
RATIO


1
0
TRUE
51149
0
LEFT NOT FITTED RIGHT NOT FITTED 0
NONE
NONE
15600
12.000000
4.427000
51148
TRUE
1 0 8 72 0 0 0 0 

15798.010000






#HDR
-1
-1
#GR
CM-1
%T
0.00002384185791015625
0.0
5000.000000
-1.000000
4631
8
101.733064
54.710626
#DATA
5000.000000	65.588665  
4999.000000	65.718507  
4998.000000	65.786075  
4997.000000	65.782976  
4996.000000	65.703725  
4995.000000	65.546894  
4994.000000	65.317440  
4993.000000	65.029025  
4992.000000	64.704108  
4991.000000	64.372801  
4990.000000	64.069199  
4989.000000	63.827800  
4988.000000	63.674521  
4987.000000	63.621997  
4986.000000	63.665342  
4985.000000	63.783264  
4984.000000	63.940262  
4983.000000	64.094233  
4982.000000	64.205431  
4981.000000	64.245390  
4980.000000	64.200782  
4979.000000	64.076519  
4978.000000	63.891744  
4977.000000	63.676738  
4976.000000	63.464689  
4975.000000	63.287806  
4974.000000	63.168287  
4973.000000	63.120508  
4972.000000	63.151717  
4971.000000	63.264155  
4970.000000	63.455057  
4969.000000	63.718819  
4968.000000	64.046430  
4967.000000	64.424729  
4966.000000	64.832234  
4965.000000	65.244030  
4964.000000	65.632009  
4963.000000	65.971064  
4962.000000	66.241621  
4961.000000	66.435503  
4960.000000	66.556596  
4959.000000	66.622090  
4958.000000	66.658806  
4957.000000	66.696500  
4956.000000	66.760110  
4955.000000	66.865897  
4954.000000	67.015600  
4953.000000	67.194294  
4952.000000	67.371511  
4951.000000	67.508888  
4950.000000	67.567205  
4949.000000	67.516589  
4948.000000	67.343211  
4947.000000	67.054128  
4946.000000	66.676211  
4945.000000	66.251540  
4944.000000	65.827941  
4943.000000	65.452051  
4942.000000	65.156269  
4941.000000	64.955711  
4940.000000	64.843201  
4939.000000	64.794611  
4938.000000	64.774370  
4937.000000	64.745259  
4936.000000	64.678645  
4935.000000	64.557433  
4934.000000	64.386868  
4933.000000	64.190602  
4932.000000	64.006018  
4931.000000	63.871741  
4930.000000	63.821244  
4929.000000	63.872861  
4928.000000	64.025068  
4927.000000	64.256238  
4926.000000	64.530897  
4925.000000	64.807462  
4924.000000	65.047144  
4923.000000	65.221953  
4922.000000	65.317821  
4921.000000	65.337204  
4920.000000	65.293455  
4919.000000	65.209484  
4918.000000	65.110874  
4917.000000	65.022134  
4916.000000	64.964818  
4915.000000	64.951848  
4914.000000	64.989185  
4913.000000	65.071845  
4912.000000	65.191125  
4911.000000	65.329074  
4910.000000	65.462064  
4909.000000	65.564870  
4908.000000	65.615010  
4907.000000	65.599083  
4906.000000	65.515351  
4905.000000	65.376400  
4904.000000	65.206480  
4903.000000	65.036010  
4902.000000	64.894533  
4901.000000	64.803290  
4900.000000	64.770054  
4899.000000	64.788126  
4898.000000	64.838123  
4897.000000	64.894199  
4896.000000	64.930725  
4895.000000	64.928436  
4894.000000	64.880037  
4893.000000	64.788317  
4892.000000	64.667987  
4891.000000	64.540123  
4890.000000	64.429068  
4889.000000	64.354777  
4888.000000	64.330530  
4887.000000	64.361000  
4886.000000	64.440751  
4885.000000	64.558029  
4884.000000	64.694333  
4883.000000	64.828896  
4882.000000	64.941215  
4881.000000	65.013885  
4880.000000	65.036702  
4879.000000	65.007543  
4878.000000	64.933180  
4877.000000	64.827084  
4876.000000	64.706516  
4875.000000	64.588809  
4874.000000	64.488124  
4873.000000	64.413118  
4872.000000	64.365673  
4871.000000	64.341855  
4870.000000	64.335179  
4869.000000	64.338755  
4868.000000	64.346671  
4867.000000	64.355802  
4866.000000	64.365077  
4865.000000	64.375996  
4864.000000	64.390230  
4863.000000	64.409589  
4862.000000	64.433860  
4861.000000	64.461493  
4860.000000	64.490008  
4859.000000	64.516258  
4858.000000	64.538526  
4857.000000	64.555215  
4856.000000	64.565181  
4855.000000	64.567208  
4854.000000	64.559793  
4853.000000	64.542174  
4852.000000	64.514684  
4851.000000	64.479923  
4850.000000	64.442682  
4849.000000	64.410448  
4848.000000	64.392137  
4847.000000	64.396715  
4846.000000	64.431023  
4845.000000	64.497780  
4844.000000	64.594244  
4843.000000	64.712452  
4842.000000	64.839839  
4841.000000	64.960885  
4840.000000	65.060186  
4839.000000	65.125346  
4838.000000	65.149831  
4837.000000	65.134096  
4836.000000	65.085673  
4835.000000	65.017724  
4834.000000	64.945411  
4833.000000	64.883542  
4832.000000	64.842367  
4831.000000	64.826679  
4830.000000	64.834260  
4829.000000	64.857721  
4828.000000	64.886641  
4827.000000	64.910554  
4826.000000	64.922785  
4825.000000	64.922070  
4824.000000	64.913010  
4823.000000	64.903974  
4822.000000	64.904618  
4821.000000	64.922261  
4820.000000	64.959526  
4819.000000	65.012812  
4818.000000	65.073561  
4817.000000	65.130138  
4816.000000	65.171217  
4815.000000	65.188527  
4814.000000	65.179014  
4813.000000	65.145516  
4812.000000	65.095329  
4811.000000	65.038871  
4810.000000	64.986944  
4809.000000	64.948606  
4808.000000	64.929223  
4807.000000	64.929604  
4806.000000	64.947295  
4805.000000	64.976358  
4804.000000	65.009951  
4803.000000	65.040874  
4802.000000	65.062880  
4801.000000	65.071773  
4800.000000	65.065479  
4799.000000	65.045046  
4798.000000	65.013718  
4797.000000	64.976859  
4796.000000	64.940571  
4795.000000	64.910578  
4794.000000	64.890956  
4793.000000	64.883184  
4792.000000	64.886045  
4791.000000	64.896202  
4790.000000	64.909195  
4789.000000	64.920830  
4788.000000	64.928388  
4787.000000	64.931273  
4786.000000	64.931178  
4785.000000	64.930915  
4784.000000	64.933872  
4783.000000	64.942574  
4782.000000	64.958047  
4781.000000	64.979553  
4780.000000	65.004491  
4779.000000	65.029358  
4778.000000	65.050387  
4777.000000	65.064954  
4776.000000	65.071535  
4775.000000	65.069770  
4774.000000	65.060544  
4773.000000	65.045118  
4772.000000	65.025997  
4771.000000	65.006303  
4770.000000	64.989686  
4769.000000	64.979791  
4768.000000	64.979767  
4767.000000	64.991521  
4766.000000	65.015006  
4765.000000	65.047931  
4764.000000	65.085506  
4763.000000	65.121221  
4762.000000	65.148210  
4761.000000	65.160989  
4760.000000	65.156674  
4759.000000	65.136003  
4758.000000	65.103292  
4757.000000	65.065407  
4756.000000	65.030384  
4755.000000	65.005350  
4754.000000	64.995026  
4753.000000	65.000462  
4752.000000	65.019559  
4751.000000	65.047192  
4750.000000	65.077376  
4749.000000	65.103554  
4748.000000	65.120458  
4747.000000	65.124487  
4746.000000	65.113949  
4745.000000	65.089297  
4744.000000	65.052437  
4743.000000	65.006852  
4742.000000	64.956879  
4741.000000	64.907431  
4740.000000	64.863228  
4739.000000	64.828848  
4738.000000	64.807653  
4737.000000	64.801335  
4736.000000	64.809274  
4735.000000	64.828228  
4734.000000	64.852905  
4733.000000	64.877104  
4732.000000	64.895009  
4731.000000	64.901781  
4730.000000	64.895272  
4729.000000	64.876103  
4728.000000	64.848208  
4727.000000	64.816761  
4726.000000	64.788150  
4725.000000	64.768242  
4724.000000	64.761567  
4723.000000	64.770412  
4722.000000	64.794564  
4721.000000	64.831209  
4720.000000	64.876389  
4719.000000	64.925622  
4718.000000	64.975571  
4717.000000	65.024280  
4716.000000	65.071558  
4715.000000	65.118503  
4714.000000	65.166211  
4713.000000	65.214514  
4712.000000	65.261459  
4711.000000	65.302968  
4710.000000	65.333414  
4709.000000	65.346431  
4708.000000	65.337419  
4707.000000	65.304040  
4706.000000	65.247368  
4705.000000	65.171241  
4704.000000	65.082430  
4703.000000	64.988255  
4702.000000	64.895200  
4701.000000	64.807987  
4700.000000	64.728832  
4699.000000	64.658641  
4698.000000	64.597558  
4697.000000	64.546680  
4696.000000	64.508175  
4695.000000	64.486098  
4694.000000	64.484786  
4693.000000	64.508080  
4692.000000	64.556884  
4691.000000	64.628958  
4690.000000	64.718437  
4689.000000	64.816284  
4688.000000	64.911341  
4687.000000	64.992523  
4686.000000	65.050745  
4685.000000	65.080261  
4684.000000	65.079593  
4683.000000	65.052056  
4682.000000	65.005111  
4681.000000	64.948558  
4680.000000	64.893078  
4679.000000	64.848709  
4678.000000	64.822983  
4677.000000	64.820170  
4676.000000	64.840531  
4675.000000	64.880943  
4674.000000	64.935398  
4673.000000	64.996623  
4672.000000	65.057015  
4671.000000	65.109801  
4670.000000	65.149688  
4669.000000	65.173864  
4668.000000	65.181183  
4667.000000	65.171408  
4666.000000	65.145301  
4665.000000	65.104389  
4664.000000	65.050911  
4663.000000	64.987897  
4662.000000	64.919376  
4661.000000	64.850616  
4660.000000	64.786696  
4659.000000	64.732098  
4658.000000	64.689517  
4657.000000	64.659380  
4656.000000	64.639735  
4655.000000	64.626812  
4654.000000	64.615440  
4653.000000	64.600729  
4652.000000	64.579129  
4651.000000	64.549422  
4650.000000	64.512372  
4649.000000	64.470911  
4648.000000	64.429020  
4647.000000	64.391303  
4646.000000	64.360976  
4645.000000	64.340376  
4644.000000	64.330387  
4643.000000	64.331126  
4642.000000	64.341425  
4641.000000	64.360189  
4640.000000	64.386320  
4639.000000	64.419198  
4638.000000	64.457893  
4637.000000	64.502143  
4636.000000	64.551615  
4635.000000	64.606237  
4634.000000	64.665603  
4633.000000	64.728879  
4632.000000	64.794301  
4631.000000	64.859628  
4630.000000	64.921784  
4629.000000	64.977025  
4628.000000	65.020704  
4627.000000	65.048909  
4626.000000	65.058135  
4625.000000	65.046072  
4624.000000	65.011382  
4623.000000	64.954733  
4622.000000	64.878201  
4621.000000	64.785790  
4620.000000	64.682483  
4619.000000	64.574503  
4618.000000	64.468312  
4617.000000	64.370226  
4616.000000	64.285922  
4615.000000	64.220118  
4614.000000	64.175748  
4613.000000	64.153599  
4612.000000	64.152359  
4611.000000	64.168214  
4610.000000	64.196181  
4609.000000	64.230394  
4608.000000	64.265513  
4607.000000	64.296817  
4606.000000	64.322113  
4605.000000	64.341378  
4604.000000	64.356803  
4603.000000	64.371490  
4602.000000	64.389061  
4601.000000	64.411759  
4600.000000	64.439916  
4599.000000	64.470791  
4598.000000	64.499306  
4597.000000	64.518809  
4596.000000	64.522457  
4595.000000	64.505696  
4594.000000	64.467811  
4593.000000	64.412927  
4592.000000	64.349484  
4591.000000	64.288687  
4590.000000	64.241886  
4589.000000	64.218235  
4588.000000	64.222598  
4587.000000	64.254164  
4586.000000	64.306831  
4585.000000	64.370369  
4584.000000	64.433360  
4583.000000	64.485049  
4582.000000	64.517474  
4581.000000	64.527034  
4580.000000	64.514517  
4579.000000	64.484786  
4578.000000	64.445137  
4577.000000	64.403820  
4576.000000	64.367914  
4575.000000	64.342975  
4574.000000	64.331579  
4573.000000	64.333629  
4572.000000	64.345955  
4571.000000	64.363360  
4570.000000	64.379143  
4569.000000	64.386463  
4568.000000	64.379668  
4567.000000	64.355444  
4566.000000	64.313507  
4565.000000	64.256310  
4564.000000	64.188957  
4563.000000	64.117884  
4562.000000	64.049887  
4561.000000	63.990354  
4560.000000	63.942956  
4559.000000	63.908958  
4558.000000	63.887929  
4557.000000	63.878512  
4556.000000	63.878846  
4555.000000	63.886880  
4554.000000	63.900566  
4553.000000	63.918066  
4552.000000	63.936734  
4551.000000	63.953137  
4550.000000	63.963127  
4549.000000	63.962578  
4548.000000	63.948726  
4547.000000	63.921022  
4546.000000	63.882160  
4545.000000	63.837289  
4544.000000	63.793230  
4543.000000	63.756394  
4542.000000	63.731122  
4541.000000	63.718247  
4540.000000	63.714718  
4539.000000	63.714647  
4538.000000	63.710522  
4537.000000	63.696146  
4536.000000	63.667941  
4535.000000	63.627362  
4534.000000	63.579821  
4533.000000	63.535189  
4532.000000	63.504123  
4531.000000	63.497042  
4530.000000	63.520693  
4529.000000	63.577389  
4528.000000	63.663840  
4527.000000	63.772201  
4526.000000	63.891673  
4525.000000	64.010334  
4524.000000	64.117217  
4523.000000	64.203429  
4522.000000	64.262866  
4521.000000	64.293193  
4520.000000	64.295148  
4519.000000	64.271831  
4518.000000	64.227366  
4517.000000	64.166855  
4516.000000	64.095330  
4515.000000	64.018201  
4514.000000	63.940405  
4513.000000	63.867354  
4512.000000	63.804125  
4511.000000	63.755297  
4510.000000	63.724136  
4509.000000	63.711595  
4508.000000	63.716626  
4507.000000	63.734960  
4506.000000	63.761591  
4505.000000	63.791275  
4504.000000	63.820052  
4503.000000	63.846087  
4502.000000	63.868498  
4501.000000	63.886427  
4500.000000	63.898396  
4499.000000	63.902044  
4498.000000	63.893008  
4497.000000	63.865661  
4496.000000	63.814115  
4495.000000	63.734054  
4494.000000	63.624405  
4493.000000	63.488507  
4492.000000	63.334703  
4491.000000	63.175201  
4490.000000	63.022947  
4489.000000	62.889814  
4488.000000	62.785553  
4487.000000	62.715673  
4486.000000	62.679481  
4485.000000	62.671041  
4484.000000	62.682914  
4483.000000	62.705969  
4482.000000	62.724256  
4481.000000	62.726354  
4480.000000	62.709593  
4479.000000	62.680101  
4478.000000	62.640953  
4477.000000	62.607431  
4476.000000	62.612247  
4475.000000	62.678718  
4474.000000	62.807297  
4473.000000	62.987089  
4472.000000	63.198280  
4471.000000	63.412070  
4470.000000	63.599872  
4469.000000	63.730955  
4468.000000	63.781380  
4467.000000	63.756132  
4466.000000	63.686990  
4465.000000	63.620781  
4464.000000	63.607382  
4463.000000	63.684582  
4462.000000	63.872861  
4461.000000	64.147734  
4460.000000	64.473080  
4459.000000	64.824676  
4458.000000	65.203595  
4457.000000	65.634918  
4456.000000	66.174864  
4455.000000	66.848921  
4454.000000	67.716526  
4453.000000	68.784403  
4452.000000	70.132255  
4451.000000	71.902251  
4450.000000	74.276328  
4449.000000	77.456760  
4448.000000	81.496930  
4447.000000	86.250805  
4446.000000	91.302537  
4445.000000	96.017003  
4444.000000	99.690532  
4443.000000	101.709914 
4442.000000	101.733064 
4441.000000	99.769186  
4440.000000	96.141839  
4439.000000	91.405653  
4438.000000	86.190915  
4437.000000	81.074476  
4436.000000	76.504969  
4435.000000	72.731351  
4434.000000	69.863653  
4433.000000	67.856335  
4432.000000	66.590118  
4431.000000	65.900373  
4430.000000	65.598917  
4429.000000	65.534806  
4428.000000	65.571379  
4427.000000	65.634202  
4426.000000	65.643715  
4425.000000	65.573859  
4424.000000	65.408229  
4423.000000	65.165328  
4422.000000	64.869117  
4421.000000	64.562511  
4420.000000	64.296650  
4419.000000	64.110159  
4418.000000	64.016795  
4417.000000	64.012742  
4416.000000	64.079785  
4415.000000	64.186096  
4414.000000	64.295268  
4413.000000	64.382433  
4412.000000	64.437699  
4411.000000	64.455270  
4410.000000	64.436769  
4409.000000	64.385342  
4408.000000	64.306378  
4407.000000	64.219141  
4406.000000	64.144372  
4405.000000	64.083361  
4404.000000	64.030289  
4403.000000	63.989377  
4402.000000	63.963031  
4401.000000	63.946318  
4400.000000	63.934230  
4399.000000	63.926577  
4398.000000	63.923025  
4397.000000	63.921308  
4396.000000	63.918566  
4395.000000	63.910913  
4394.000000	63.895034  
4393.000000	63.868808  
4392.000000	63.833427  
4391.000000	63.793635  
4390.000000	63.755774  
4389.000000	63.726043  
4388.000000	63.709282  
4387.000000	63.707137  
4386.000000	63.716125  
4385.000000	63.728642  
4384.000000	63.734459  
4383.000000	63.724303  
4382.000000	63.692593  
4381.000000	63.639950  
4380.000000	63.572740  
4379.000000	63.502573  
4378.000000	63.442921  
4377.000000	63.406705  
4376.000000	63.402199  
4375.000000	63.432407  
4374.000000	63.493776  
4373.000000	63.578438  
4372.000000	63.676047  
4371.000000	63.776493  
4370.000000	63.871407  
4369.000000	63.955998  
4368.000000	64.028453  
4367.000000	64.089870  
4366.000000	64.142274  
4365.000000	64.187908  
4364.000000	64.228272  
4363.000000	64.263224  
4362.000000	64.291024  
4361.000000	64.309239  
4360.000000	64.315533  
4359.000000	64.308118  
4358.000000	64.286422  
4357.000000	64.251685  
4356.000000	64.206957  
4355.000000	64.156937  
4354.000000	64.107275  
4353.000000	64.064073  
4352.000000	64.032340  
4351.000000	64.015102  
4350.000000	64.012670  
4349.000000	64.022278  
4348.000000	64.039134  
4347.000000	64.057445  
4346.000000	64.072418  
4345.000000	64.080691  
4344.000000	64.082098  
4343.000000	64.078831  
4342.000000	64.075279  
4341.000000	64.076185  
4340.000000	64.085841  
4339.000000	64.106893  
4338.000000	64.139318  
4337.000000	64.180350  
4336.000000	64.225101  
4335.000000	64.267635  
4334.000000	64.302229  
4333.000000	64.324688  
4332.000000	64.332890  
4331.000000	64.327120  
4330.000000	64.310097  
4329.000000	64.285993  
4328.000000	64.259409  
4327.000000	64.234185  
4326.000000	64.213037  
4325.000000	64.196538  
4324.000000	64.183664  
4323.000000	64.171719  
4322.000000	64.157795  
4321.000000	64.139819  
4320.000000	64.116835  
4319.000000	64.090156  
4318.000000	64.062738  
4317.000000	64.039134  
4316.000000	64.023947  
4315.000000	64.021134  
4314.000000	64.032387  
4313.000000	64.057278  
4312.000000	64.093184  
4311.000000	64.136171  
4310.000000	64.181780  
4309.000000	64.226675  
4308.000000	64.269256  
4307.000000	64.310169  
4306.000000	64.351582  
4305.000000	64.396691  
4304.000000	64.448189  
4303.000000	64.507174  
4302.000000	64.572191  
4301.000000	64.639472  
4300.000000	64.703297  
4299.000000	64.757752  
4298.000000	64.797663  
4297.000000	64.820528  
4296.000000	64.826345  
4295.000000	64.818477  
4294.000000	64.801883  
4293.000000	64.782142  
4292.000000	64.763569  
4291.000000	64.748835  
4290.000000	64.738059  
4289.000000	64.729666  
4288.000000	64.720892  
4287.000000	64.709520  
4286.000000	64.694142  
4285.000000	64.674830  
4284.000000	64.652872  
4283.000000	64.630532  
4282.000000	64.610338  
4281.000000	64.594244  
4280.000000	64.583420  
4279.000000	64.577770  
4278.000000	64.576673  
4277.000000	64.579081  
4276.000000	64.583802  
4275.000000	64.589548  
4274.000000	64.595556  
4273.000000	64.601182  
4272.000000	64.605569  
4271.000000	64.607739  
4270.000000	64.606714  
4269.000000	64.601850  
4268.000000	64.592766  
4267.000000	64.579916  
4266.000000	64.564609  
4265.000000	64.549136  
4264.000000	64.536261  
4263.000000	64.529180  
4262.000000	64.530682  
4261.000000	64.542961  
4260.000000	64.567089  
4259.000000	64.602637  
4258.000000	64.647483  
4257.000000	64.698195  
4256.000000	64.750409  
4255.000000	64.799451  
4254.000000	64.840984  
4253.000000	64.871573  
4252.000000	64.889216  
4251.000000	64.893341  
4250.000000	64.884543  
4249.000000	64.864730  
4248.000000	64.836382  
4247.000000	64.802527  
4246.000000	64.766073  
4245.000000	64.730048  
4244.000000	64.697074  
4243.000000	64.669322  
4242.000000	64.648509  
4241.000000	64.635491  
4240.000000	64.630889  
4239.000000	64.634490  
4238.000000	64.646005  
4237.000000	64.664435  
4236.000000	64.688801  
4235.000000	64.717602  
4234.000000	64.749312  
4233.000000	64.782190  
4232.000000	64.814615  
4231.000000	64.845013  
4230.000000	64.872097  
4229.000000	64.894580  
4228.000000	64.911413  
4227.000000	64.921879  
4226.000000	64.925479  
4225.000000	64.922070  
4224.000000	64.912176  
4223.000000	64.896988  
4222.000000	64.878201  
4221.000000	64.857983  
4220.000000	64.838504  
4219.000000	64.821767  
4218.000000	64.809322  
4217.000000	64.802098  
4216.000000	64.800167  
4215.000000	64.803433  
4214.000000	64.811491  
4213.000000	64.824533  
4212.000000	64.842724  
4211.000000	64.866566  
4210.000000	64.896392  
4209.000000	64.931583  
4208.000000	64.970040  
4207.000000	65.008115  
4206.000000	65.040969  
4205.000000	65.063667  
4204.000000	65.072107  
4203.000000	65.064144  
4202.000000	65.040349  
4201.000000	65.003871  
4200.000000	64.959883  
4199.000000	64.914393  
4198.000000	64.872884  
4197.000000	64.839291  
4196.000000	64.815640  
4195.000000	64.801740  
4194.000000	64.796042  
4193.000000	64.796328  
4192.000000	64.800858  
4191.000000	64.808368  
4190.000000	64.818954  
4189.000000	64.832949  
4188.000000	64.851140  
4187.000000	64.873576  
4186.000000	64.899969  
4185.000000	64.929366  
4184.000000	64.960527  
4183.000000	64.992237  
4182.000000	65.023255  
4181.000000	65.052723  
4180.000000	65.079641  
4179.000000	65.102791  
4178.000000	65.120840  
4177.000000	65.132570  
4176.000000	65.136885  
4175.000000	65.133213  
4174.000000	65.122246  
4173.000000	65.105891  
4172.000000	65.087246  
4171.000000	65.069842  
4170.000000	65.057277  
4169.000000	65.052056  
4168.000000	65.055513  
4167.000000	65.067195  
4166.000000	65.085053  
4165.000000	65.105676  
4164.000000	65.125775  
4163.000000	65.142154  
4162.000000	65.152573  
4161.000000	65.155887  
4160.000000	65.151953  
4159.000000	65.141892  
4158.000000	65.127611  
4157.000000	65.111255  
4156.000000	65.095114  
4155.000000	65.080738  
4154.000000	65.069079  
4153.000000	65.059566  
4152.000000	65.050864  
4151.000000	65.040516  
4150.000000	65.025639  
4149.000000	65.003442  
4148.000000	64.971995  
4147.000000	64.930725  
4146.000000	64.880800  
4145.000000	64.825248  
4144.000000	64.768791  
4143.000000	64.716958  
4142.000000	64.675545  
4141.000000	64.649367  
4140.000000	64.641690  
4139.000000	64.653444  
4138.000000	64.683103  
4137.000000	64.726829  
4136.000000	64.779281  
4135.000000	64.834356  
4134.000000	64.886569  
4133.000000	64.931273  
4132.000000	64.965796  
4131.000000	64.989089  
4130.000000	65.002202  
4129.000000	65.007185  
4128.000000	65.006971  
4127.000000	65.004754  
4126.000000	65.003395  
4125.000000	65.005278  
4124.000000	65.011620  
4123.000000	65.022706  
4122.000000	65.037941  
4121.000000	65.056419  
4120.000000	65.077209  
4119.000000	65.099716  
4118.000000	65.123939  
4117.000000	65.150117  
4116.000000	65.178108  
4115.000000	65.206956  
4114.000000	65.234899  
4113.000000	65.259313  
4112.000000	65.277194  
4111.000000	65.285778  
4110.000000	65.283679  
4109.000000	65.271234  
4108.000000	65.250706  
4107.000000	65.225720  
4106.000000	65.200400  
4105.000000	65.178370  
4104.000000	65.162444  
4103.000000	65.153717  
4102.000000	65.151286  
4101.000000	65.152907  
4100.000000	65.156078  
4099.000000	65.158367  
4098.000000	65.157985  
4097.000000	65.154457  
4096.000000	65.148353  
4095.000000	65.141081  
4094.000000	65.134358  
4093.000000	65.129709  
4092.000000	65.128111  
4091.000000	65.130257  
4090.000000	65.136528  
4089.000000	65.147519  
4088.000000	65.163660  
4087.000000	65.185236  
4086.000000	65.211749  
4085.000000	65.241479  
4084.000000	65.271210  
4083.000000	65.296339  
4082.000000	65.311408  
4081.000000	65.312123  
4080.000000	65.295672  
4079.000000	65.261936  
4078.000000	65.213251  
4077.000000	65.154409  
4076.000000	65.091156  
4075.000000	65.029025  
4074.000000	64.972186  
4073.000000	64.922690  
4072.000000	64.881014  
4071.000000	64.846515  
4070.000000	64.818596  
4069.000000	64.797186  
4068.000000	64.783644  
4067.000000	64.780211  
4066.000000	64.789056  
4065.000000	64.811182  
4064.000000	64.845800  
4063.000000	64.889717  
4062.000000	64.937925  
4061.000000	64.984250  
4060.000000	65.023112  
4059.000000	65.050005  
4058.000000	65.062308  
4057.000000	65.058994  
4056.000000	65.040588  
4055.000000	65.008449  
4054.000000	64.964461  
4053.000000	64.910626  
4052.000000	64.849257  
4051.000000	64.783167  
4050.000000	64.716076  
4049.000000	64.652466  
4048.000000	64.597249  
4047.000000	64.555525  
4046.000000	64.531254  
4045.000000	64.527034  
4044.000000	64.542913  
4043.000000	64.577174  
4042.000000	64.626026  
4041.000000	64.685106  
4040.000000	64.749646  
4039.000000	64.815640  
4038.000000	64.879918  
4037.000000	64.940333  
4036.000000	64.995384  
4035.000000	65.044307  
4034.000000	65.086483  
4033.000000	65.121698  
4032.000000	65.149521  
4031.000000	65.169596  
4030.000000	65.181279  
4029.000000	65.184378  
4028.000000	65.178513  
4027.000000	65.164256  
4026.000000	65.142107  
4025.000000	65.113329  
4024.000000	65.079188  
4023.000000	65.041208  
4022.000000	65.000748  
4021.000000	64.959454  
4020.000000	64.919161  
4019.000000	64.881777  
4018.000000	64.849138  
4017.000000	64.823174  
4016.000000	64.804840  
4015.000000	64.794373  
4014.000000	64.790534  
4013.000000	64.791035  
4012.000000	64.792943  
4011.000000	64.793300  
4010.000000	64.789843  
4009.000000	64.781546  
4008.000000	64.769244  
4007.000000	64.755439  
4006.000000	64.743590  
4005.000000	64.737033  
4004.000000	64.737606  
4003.000000	64.745187  
4002.000000	64.757657  
4001.000000	64.771413  
4000.000000	64.782190  
3999.000000	64.786505  
3998.000000	64.782786  
3997.000000	64.771270  
3996.000000	64.753866  
3995.000000	64.733171  
3994.000000	64.711689  
3993.000000	64.690828  
3992.000000	64.670586  
3991.000000	64.649796  
3990.000000	64.626908  
3989.000000	64.600753  
3988.000000	64.571237  
3987.000000	64.539885  
3986.000000	64.509463  
3985.000000	64.483499  
3984.000000	64.465475  
3983.000000	64.457821  
3982.000000	64.461684  
3981.000000	64.477396  
3980.000000	64.504790  
3979.000000	64.543318  
3978.000000	64.592361  
3977.000000	64.651441  
3976.000000	64.719700  
3975.000000	64.795255  
3974.000000	64.874839  
3973.000000	64.953660  
3972.000000	65.025973  
3971.000000	65.086150  
3970.000000	65.129256  
3969.000000	65.152239  
3968.000000	65.154170  
3967.000000	65.137219  
3966.000000	65.105342  
3965.000000	65.063929  
3964.000000	65.018439  
3963.000000	64.974164  
3962.000000	64.934873  
3961.000000	64.902997  
3960.000000	64.879179  
3959.000000	64.863014  
3958.000000	64.852428  
3957.000000	64.844202  
3956.000000	64.834141  
3955.000000	64.817810  
3954.000000	64.790844  
3953.000000	64.750313  
3952.000000	64.695048  
3951.000000	64.626932  
3950.000000	64.551019  
3949.000000	64.475274  
3948.000000	64.408898  
3947.000000	64.361190  
3946.000000	64.339661  
3945.000000	64.348697  
3944.000000	64.387702  
3943.000000	64.451932  
3942.000000	64.533209  
3941.000000	64.621615  
3940.000000	64.706826  
3939.000000	64.780497  
3938.000000	64.837026  
3937.000000	64.874458  
3936.000000	64.893746  
3935.000000	64.898252  
3934.000000	64.892339  
3933.000000	64.880800  
3932.000000	64.867877  
3931.000000	64.856934  
3930.000000	64.849996  
3929.000000	64.848184  
3928.000000	64.851951  
3927.000000	64.860725  
3926.000000	64.873051  
3925.000000	64.886713  
3924.000000	64.899063  
3923.000000	64.907288  
3922.000000	64.908957  
3921.000000	64.902448  
3920.000000	64.887499  
3919.000000	64.864993  
3918.000000	64.837121  
3917.000000	64.806652  
3916.000000	64.776849  
3915.000000	64.750695  
3914.000000	64.730787  
3913.000000	64.718794  
3912.000000	64.715433  
3911.000000	64.720535  
3910.000000	64.733028  
3909.000000	64.750885  
3908.000000	64.771580  
3907.000000	64.792585  
3906.000000	64.811325  
3905.000000	64.825487  
3904.000000	64.833402  
3903.000000	64.834213  
3902.000000	64.828395  
3901.000000	64.817500  
3900.000000	64.803886  
3899.000000	64.789843  
3898.000000	64.777827  
3897.000000	64.769268  
3896.000000	64.764380  
3895.000000	64.761400  
3894.000000	64.757657  
3893.000000	64.749598  
3892.000000	64.733266  
3891.000000	64.705801  
3890.000000	64.665889  
3889.000000	64.614820  
3888.000000	64.556193  
3887.000000	64.495921  
3886.000000	64.440870  
3885.000000	64.397644  
3884.000000	64.370989  
3883.000000	64.363145  
3882.000000	64.373159  
3881.000000	64.397644  
3880.000000	64.431595  
3879.000000	64.469885  
3878.000000	64.508152  
3877.000000	64.544010  
3876.000000	64.577102  
3875.000000	64.608645  
3874.000000	64.640545  
3873.000000	64.674758  
3872.000000	64.712381  
3871.000000	64.753508  
3870.000000	64.796948  
3869.000000	64.840841  
3868.000000	64.882731  
3867.000000	64.921116  
3866.000000	64.954543  
3865.000000	64.982223  
3864.000000	65.003395  
3863.000000	65.017652  
3862.000000	65.024709  
3861.000000	65.024566  
3860.000000	65.017414  
3859.000000	65.004277  
3858.000000	64.986419  
3857.000000	64.965724  
3856.000000	64.944052  
3855.000000	64.923405  
3854.000000	64.905118  
3853.000000	64.889740  
3852.000000	64.877271  
3851.000000	64.867258  
3850.000000	64.859080  
3849.000000	64.852213  
3848.000000	64.846467  
3847.000000	64.841866  
3846.000000	64.838933  
3845.000000	64.838600  
3844.000000	64.841651  
3843.000000	64.848756  
3842.000000	64.860868  
3841.000000	64.878630  
3840.000000	64.902281  
3839.000000	64.930987  
3838.000000	64.962863  
3837.000000	64.994668  
3836.000000	65.021872  
3835.000000	65.039610  
3834.000000	65.043687  
3833.000000	65.031552  
3832.000000	65.003347  
3831.000000	64.962100  
3830.000000	64.913368  
3829.000000	64.864110  
3828.000000	64.821505  
3827.000000	64.791131  
3826.000000	64.775872  
3825.000000	64.775514  
3824.000000	64.786887  
3823.000000	64.805126  
3822.000000	64.824938  
3821.000000	64.841866  
3820.000000	64.853310  
3819.000000	64.858651  
3818.000000	64.858984  
3817.000000	64.856123  
3816.000000	64.852094  
3815.000000	64.848232  
3814.000000	64.845132  
3813.000000	64.842700  
3812.000000	64.840483  
3811.000000	64.838171  
3810.000000	64.835834  
3809.000000	64.834237  
3808.000000	64.834475  
3807.000000	64.837908  
3806.000000	64.845728  
3805.000000	64.858174  
3804.000000	64.874768  
3803.000000	64.894223  
3802.000000	64.914560  
3801.000000	64.933562  
3800.000000	64.948749  
3799.000000	64.957952  
3798.000000	64.959573  
3797.000000	64.952993  
3796.000000	64.938664  
3795.000000	64.918184  
3794.000000	64.894247  
3793.000000	64.870142  
3792.000000	64.849352  
3791.000000	64.834737  
3790.000000	64.827966  
3789.000000	64.829373  
3788.000000	64.837908  
3787.000000	64.851713  
3786.000000	64.868450  
3785.000000	64.885926  
3784.000000	64.902305  
3783.000000	64.916348  
3782.000000	64.927673  
3781.000000	64.936089  
3780.000000	64.941883  
3779.000000	64.945173  
3778.000000	64.946007  
3777.000000	64.944338  
3776.000000	64.940285  
3775.000000	64.934134  
3774.000000	64.926838  
3773.000000	64.919471  
3772.000000	64.913296  
3771.000000	64.909267  
3770.000000	64.907670  
3769.000000	64.908313  
3768.000000	64.910483  
3767.000000	64.912867  
3766.000000	64.914202  
3765.000000	64.913320  
3764.000000	64.909934  
3763.000000	64.904499  
3762.000000	64.898419  
3761.000000	64.894151  
3760.000000	64.894556  
3759.000000	64.902377  
3758.000000	64.919376  
3757.000000	64.945602  
3756.000000	64.978981  
3755.000000	65.015625  
3754.000000	65.050840  
3753.000000	65.079712  
3752.000000	65.098762  
3751.000000	65.106487  
3750.000000	65.104007  
3749.000000	65.094447  
3748.000000	65.082144  
3747.000000	65.071535  
3746.000000	65.065598  
3745.000000	65.065288  
3744.000000	65.069198  
3743.000000	65.074253  
3742.000000	65.076804  
3741.000000	65.073728  
3740.000000	65.063500  
3739.000000	65.046644  
3738.000000	65.025210  
3737.000000	65.002441  
3736.000000	64.981341  
3735.000000	64.964461  
3734.000000	64.953112  
3733.000000	64.947795  
3732.000000	64.948225  
3731.000000	64.954042  
3730.000000	64.964938  
3729.000000	64.981007  
3728.000000	65.002202  
3727.000000	65.028214  
3726.000000	65.058207  
3725.000000	65.090727  
3724.000000	65.123248  
3723.000000	65.153121  
3722.000000	65.178084  
3721.000000	65.196537  
3720.000000	65.208005  
3719.000000	65.212988  
3718.000000	65.213036  
3717.000000	65.210127  
3716.000000	65.206193  
3715.000000	65.202784  
3714.000000	65.200853  
3713.000000	65.200781  
3712.000000	65.202426  
3711.000000	65.205407  
3710.000000	65.209174  
3709.000000	65.213179  
3708.000000	65.216922  
3707.000000	65.220189  
3706.000000	65.223121  
3705.000000	65.226101  
3704.000000	65.229439  
3703.000000	65.233349  
3702.000000	65.237307  
3701.000000	65.240502  
3700.000000	65.241217  
3699.000000	65.237498  
3698.000000	65.227127  
3697.000000	65.208506  
3696.000000	65.181040  
3695.000000	65.145397  
3694.000000	65.103864  
3693.000000	65.059876  
3692.000000	65.017771  
3691.000000	64.981889  
3690.000000	64.955520  
3689.000000	64.940237  
3688.000000	64.935708  
3687.000000	64.939761  
3686.000000	64.948821  
3685.000000	64.958786  
3684.000000	64.966011  
3683.000000	64.968252  
3682.000000	64.964866  
3681.000000	64.956903  
3680.000000	64.946603  
3679.000000	64.936804  
3678.000000	64.929819  
3677.000000	64.927124  
3676.000000	64.928984  
3675.000000	64.934682  
3674.000000	64.942860  
3673.000000	64.952278  
3672.000000	64.962363  
3671.000000	64.973235  
3670.000000	64.985799  
3669.000000	65.000867  
3668.000000	65.018749  
3667.000000	65.038514  
3666.000000	65.058112  
3665.000000	65.074515  
3664.000000	65.084385  
3663.000000	65.084981  
3662.000000	65.075182  
3661.000000	65.055465  
3660.000000	65.027952  
3659.000000	64.995956  
3658.000000	64.963412  
3657.000000	64.933919  
3656.000000	64.910197  
3655.000000	64.893865  
3654.000000	64.884948  
3653.000000	64.882302  
3652.000000	64.883732  
3651.000000	64.886641  
3650.000000	64.888429  
3649.000000	64.886951  
3648.000000	64.880847  
3647.000000	64.869642  
3646.000000	64.853715  
3645.000000	64.834237  
3644.000000	64.812946  
3643.000000	64.791965  
3642.000000	64.773583  
3641.000000	64.759755  
3640.000000	64.752197  
3639.000000	64.751839  
3638.000000	64.759087  
3637.000000	64.773488  
3636.000000	64.793634  
3635.000000	64.817404  
3634.000000	64.841723  
3633.000000	64.863300  
3632.000000	64.878702  
3631.000000	64.885377  
3630.000000	64.882421  
3629.000000	64.870667  
3628.000000	64.853072  
3627.000000	64.833807  
3626.000000	64.817214  
3625.000000	64.806604  
3624.000000	64.803838  
3623.000000	64.808559  
3622.000000	64.818716  
3621.000000	64.831113  
3620.000000	64.842557  
3619.000000	64.850902  
3618.000000	64.855551  
3617.000000	64.857602  
3616.000000	64.859127  
3615.000000	64.862561  
3614.000000	64.869713  
3613.000000	64.880919  
3612.000000	64.894962  
3611.000000	64.909434  
3610.000000	64.921450  
3609.000000	64.928507  
3608.000000	64.929127  
3607.000000	64.923286  
3606.000000	64.912462  
3605.000000	64.898824  
3604.000000	64.884996  
3603.000000	64.873719  
3602.000000	64.867258  
3601.000000	64.867496  
3600.000000	64.875316  
3599.000000	64.890694  
3598.000000	64.912509  
3597.000000	64.938759  
3596.000000	64.966750  
3595.000000	64.993166  
3594.000000	65.014815  
3593.000000	65.029001  
3592.000000	65.034174  
3591.000000	65.030431  
3590.000000	65.019059  
3589.000000	65.002822  
3588.000000	64.984583  
3587.000000	64.967226  
3586.000000	64.952182  
3585.000000	64.939713  
3584.000000	64.928317  
3583.000000	64.915657  
3582.000000	64.898967  
3581.000000	64.876127  
3580.000000	64.846158  
3579.000000	64.809727  
3578.000000	64.768910  
3577.000000	64.727091  
3576.000000	64.688587  
3575.000000	64.657878  
3574.000000	64.639019  
3573.000000	64.634847  
3572.000000	64.646530  
3571.000000	64.673280  
3570.000000	64.712572  
3569.000000	64.760255  
3568.000000	64.811110  
3567.000000	64.859509  
3566.000000	64.900088  
3565.000000	64.928627  
3564.000000	64.942502  
3563.000000	64.940953  
3562.000000	64.925169  
3561.000000	64.897823  
3560.000000	64.862513  
3559.000000	64.823174  
3558.000000	64.783835  
3557.000000	64.747524  
3556.000000	64.716458  
3555.000000	64.691567  
3554.000000	64.672946  
3553.000000	64.659500  
3552.000000	64.649462  
3551.000000	64.640569  
3550.000000	64.631032  
3549.000000	64.619898  
3548.000000	64.607906  
3547.000000	64.597058  
3546.000000	64.590620  
3545.000000	64.592409  
3544.000000	64.605832  
3543.000000	64.632773  
3542.000000	64.672994  
3541.000000	64.723825  
3540.000000	64.780426  
3539.000000	64.836764  
3538.000000	64.886832  
3537.000000	64.926195  
3536.000000	64.952611  
3535.000000	64.966535  
3534.000000	64.970517  
3533.000000	64.968562  
3532.000000	64.964771  
3531.000000	64.962530  
3530.000000	64.963579  
3529.000000	64.967942  
3528.000000	64.974164  
3527.000000	64.980316  
3526.000000	64.984226  
3525.000000	64.983987  
3524.000000	64.978384  
3523.000000	64.967179  
3522.000000	64.950680  
3521.000000	64.929723  
3520.000000	64.905357  
3519.000000	64.878964  
3518.000000	64.852237  
3517.000000	64.827013  
3516.000000	64.805340  
3515.000000	64.788985  
3514.000000	64.779162  
3513.000000	64.776468  
3512.000000	64.780187  
3511.000000	64.788961  
3510.000000	64.800930  
3509.000000	64.814233  
3508.000000	64.827275  
3507.000000	64.839363  
3506.000000	64.850640  
3505.000000	64.861893  
3504.000000	64.873862  
3503.000000	64.886927  
3502.000000	64.900970  
3501.000000	64.915084  
3500.000000	64.927697  
3499.000000	64.936995  
3498.000000	64.941287  
3497.000000	64.939689  
3496.000000	64.932155  
3495.000000	64.919853  
3494.000000	64.904689  
3493.000000	64.889025  
3492.000000	64.874935  
3491.000000	64.863944  
3490.000000	64.856648  
3489.000000	64.852738  
3488.000000	64.851284  
3487.000000	64.851140  
3486.000000	64.851522  
3485.000000	64.852070  
3484.000000	64.853239  
3483.000000	64.856123  
3482.000000	64.862203  
3481.000000	64.872598  
3480.000000	64.887881  
3479.000000	64.907574  
3478.000000	64.930415  
3477.000000	64.954042  
3476.000000	64.975881  
3475.000000	64.993548  
3474.000000	65.005350  
3473.000000	65.010619  
3472.000000	65.009641  
3471.000000	65.003442  
3470.000000	64.993524  
3469.000000	64.981389  
3468.000000	64.968466  
3467.000000	64.955806  
3466.000000	64.944100  
3465.000000	64.933562  
3464.000000	64.924120  
3463.000000	64.915490  
3462.000000	64.907050  
3461.000000	64.898037  
3460.000000	64.887690  
3459.000000	64.875006  
3458.000000	64.859437  
3457.000000	64.840579  
3456.000000	64.818429  
3455.000000	64.793562  
3454.000000	64.767003  
3453.000000	64.740347  
3452.000000	64.715409  
3451.000000	64.694261  
3450.000000	64.678692  
3449.000000	64.669871  
3448.000000	64.668297  
3447.000000	64.673614  
3446.000000	64.684677  
3445.000000	64.699745  
3444.000000	64.716672  
3443.000000	64.733195  
3442.000000	64.747428  
3441.000000	64.757919  
3440.000000	64.763951  
3439.000000	64.765477  
3438.000000	64.762949  
3437.000000	64.757132  
3436.000000	64.748835  
3435.000000	64.738869  
3434.000000	64.728212  
3433.000000	64.718174  
3432.000000	64.710259  
3431.000000	64.706110  
3430.000000	64.707159  
3429.000000	64.714312  
3428.000000	64.727497  
3427.000000	64.745521  
3426.000000	64.766740  
3425.000000	64.789080  
3424.000000	64.810919  
3423.000000	64.831399  
3422.000000	64.850783  
3421.000000	64.870142  
3420.000000	64.891028  
3419.000000	64.914917  
3418.000000	64.942216  
3417.000000	64.972019  
3416.000000	65.002155  
3415.000000	65.029501  
3414.000000	65.050864  
3413.000000	65.063500  
3412.000000	65.066027  
3411.000000	65.058422  
3410.000000	65.041947  
3409.000000	65.018558  
3408.000000	64.990544  
3407.000000	64.959979  
3406.000000	64.929008  
3405.000000	64.899230  
3404.000000	64.872360  
3403.000000	64.849591  
3402.000000	64.832019  
3401.000000	64.820194  
3400.000000	64.813733  
3399.000000	64.811778  
3398.000000	64.812803  
3397.000000	64.815378  
3396.000000	64.818048  
3395.000000	64.820122  
3394.000000	64.821767  
3393.000000	64.823865  
3392.000000	64.827632  
3391.000000	64.834308  
3390.000000	64.844632  
3389.000000	64.858579  
3388.000000	64.875006  
3387.000000	64.892482  
3386.000000	64.909362  
3385.000000	64.924383  
3384.000000	64.936709  
3383.000000	64.945793  
3382.000000	64.951348  
3381.000000	64.953064  
3380.000000	64.950513  
3379.000000	64.943242  
3378.000000	64.931011  
3377.000000	64.914345  
3376.000000	64.894509  
3375.000000	64.873385  
3374.000000	64.853286  
3373.000000	64.836716  
3372.000000	64.825582  
3371.000000	64.820814  
3370.000000	64.821982  
3369.000000	64.827418  
3368.000000	64.834403  
3367.000000	64.839911  
3366.000000	64.841032  
3365.000000	64.835786  
3364.000000	64.823246  
3363.000000	64.804100  
3362.000000	64.780235  
3361.000000	64.754343  
3360.000000	64.729881  
3359.000000	64.710235  
3358.000000	64.698266  
3357.000000	64.695811  
3356.000000	64.703345  
3355.000000	64.719939  
3354.000000	64.743375  
3353.000000	64.770817  
3352.000000	64.799284  
3351.000000	64.826416  
3350.000000	64.850664  
3349.000000	64.871525  
3348.000000	64.889025  
3347.000000	64.903450  
3346.000000	64.914989  
3345.000000	64.923143  
3344.000000	64.926958  
3343.000000	64.925122  
3342.000000	64.916801  
3341.000000	64.901685  
3340.000000	64.880895  
3339.000000	64.856481  
3338.000000	64.831709  
3337.000000	64.809823  
3336.000000	64.793300  
3335.000000	64.783334  
3334.000000	64.779591  
3333.000000	64.780449  
3332.000000	64.783573  
3331.000000	64.786791  
3330.000000	64.788794  
3329.000000	64.789199  
3328.000000	64.788866  
3327.000000	64.789271  
3326.000000	64.792037  
3325.000000	64.798164  
3324.000000	64.807724  
3323.000000	64.819741  
3322.000000	64.832353  
3321.000000	64.843535  
3320.000000	64.851284  
3319.000000	64.854454  
3318.000000	64.852571  
3317.000000	64.846396  
3316.000000	64.837431  
3315.000000	64.827394  
3314.000000	64.818024  
3313.000000	64.810633  
3312.000000	64.805960  
3311.000000	64.804387  
3310.000000	64.805579  
3309.000000	64.808797  
3308.000000	64.813256  
3307.000000	64.818358  
3306.000000	64.823675  
3305.000000	64.829182  
3304.000000	64.835190  
3303.000000	64.842391  
3302.000000	64.851570  
3301.000000	64.863300  
3300.000000	64.877676  
3299.000000	64.894056  
3298.000000	64.911317  
3297.000000	64.927911  
3296.000000	64.941954  
3295.000000	64.951658  
3294.000000	64.955782  
3293.000000	64.953732  
3292.000000	64.945888  
3291.000000	64.933466  
3290.000000	64.918303  
3289.000000	64.902377  
3288.000000	64.887619  
3287.000000	64.875459  
3286.000000	64.866757  
3285.000000	64.861750  
3284.000000	64.860343  
3283.000000	64.862298  
3282.000000	64.867424  
3281.000000	64.875674  
3280.000000	64.887022  
3279.000000	64.901256  
3278.000000	64.917540  
3277.000000	64.934325  
3276.000000	64.949321  
3275.000000	64.959836  
3274.000000	64.963364  
3273.000000	64.958047  
3272.000000	64.943408  
3271.000000	64.920616  
3270.000000	64.892649  
3269.000000	64.863657  
3268.000000	64.838147  
3267.000000	64.820218  
3266.000000	64.812493  
3265.000000	64.815855  
3264.000000	64.829158  
3263.000000	64.849662  
3262.000000	64.874005  
3261.000000	64.898514  
3260.000000	64.920377  
3259.000000	64.937806  
3258.000000	64.950180  
3257.000000	64.957785  
3256.000000	64.961338  
3255.000000	64.961671  
3254.000000	64.959359  
3253.000000	64.954543  
3252.000000	64.947223  
3251.000000	64.937114  
3250.000000	64.924407  
3249.000000	64.909672  
3248.000000	64.893841  
3247.000000	64.878177  
3246.000000	64.863824  
3245.000000	64.851641  
3244.000000	64.842081  
3243.000000	64.835166  
3242.000000	64.830374  
3241.000000	64.827227  
3240.000000	64.825129  
3239.000000	64.823770  
3238.000000	64.823079  
3237.000000	64.823269  
3236.000000	64.824485  
3235.000000	64.826607  
3234.000000	64.829325  
3233.000000	64.831924  
3232.000000	64.833211  
3231.000000	64.831972  
3230.000000	64.827203  
3229.000000	64.818644  
3228.000000	64.807009  
3227.000000	64.793682  
3226.000000	64.780545  
3225.000000	64.769721  
3224.000000	64.762806  
3223.000000	64.760422  
3222.000000	64.761996  
3221.000000	64.766025  
3220.000000	64.770436  
3219.000000	64.773011  
3218.000000	64.772105  
3217.000000	64.767050  
3216.000000	64.758253  
3215.000000	64.747095  
3214.000000	64.735746  
3213.000000	64.726138  
3212.000000	64.720106  
3211.000000	64.718651  
3210.000000	64.722251  
3209.000000	64.730715  
3208.000000	64.743399  
3207.000000	64.759755  
3206.000000	64.778995  
3205.000000	64.800310  
3204.000000	64.822530  
3203.000000	64.844059  
3202.000000	64.863014  
3201.000000	64.877128  
3200.000000	64.884376  
3199.000000	64.883208  
3198.000000	64.873027  
3197.000000	64.854407  
3196.000000	64.829063  
3195.000000	64.799594  
3194.000000	64.769005  
3193.000000	64.740180  
3192.000000	64.715456  
3191.000000	64.696264  
3190.000000	64.683270  
3189.000000	64.676427  
3188.000000	64.675498  
3187.000000	64.680337  
3186.000000	64.691019  
3185.000000	64.707875  
3184.000000	64.730906  
3183.000000	64.759802  
3182.000000	64.793372  
3181.000000	64.829349  
3180.000000	64.864587  
3179.000000	64.895367  
3178.000000	64.918112  
3177.000000	64.930105  
3176.000000	64.930009  
3175.000000	64.918327  
3174.000000	64.897203  
3173.000000	64.869976  
3172.000000	64.840483  
3171.000000	64.812040  
3170.000000	64.787006  
3169.000000	64.766359  
3168.000000	64.749932  
3167.000000	64.736747  
3166.000000	64.725804  
3165.000000	64.716601  
3164.000000	64.709496  
3163.000000	64.705562  
3162.000000	64.706373  
3161.000000	64.712905  
3160.000000	64.725351  
3159.000000	64.742445  
3158.000000	64.761734  
3157.000000	64.779782  
3156.000000	64.793014  
3155.000000	64.798617  
3154.000000	64.795279  
3153.000000	64.783525  
3152.000000	64.765548  
3151.000000	64.744687  
3150.000000	64.724683  
3149.000000	64.708685  
3148.000000	64.698696  
3147.000000	64.695334  
3146.000000	64.698123  
3145.000000	64.705634  
3144.000000	64.716315  
3143.000000	64.728808  
3142.000000	64.742350  
3141.000000	64.756488  
3140.000000	64.770793  
3139.000000	64.784526  
3138.000000	64.796328  
3137.000000	64.804434  
3136.000000	64.806604  
3135.000000	64.801120  
3134.000000	64.787244  
3133.000000	64.765596  
3132.000000	64.738345  
3131.000000	64.708948  
3130.000000	64.681625  
3129.000000	64.660382  
3128.000000	64.648222  
3127.000000	64.646482  
3126.000000	64.654684  
3125.000000	64.670753  
3124.000000	64.691519  
3123.000000	64.713573  
3122.000000	64.733862  
3121.000000	64.750385  
3120.000000	64.762306  
3119.000000	64.769864  
3118.000000	64.773964  
3117.000000	64.775919  
3116.000000	64.776706  
3115.000000	64.776921  
3114.000000	64.776539  
3113.000000	64.775133  
3112.000000	64.772009  
3111.000000	64.766621  
3110.000000	64.758968  
3109.000000	64.749646  
3108.000000	64.740133  
3107.000000	64.732241  
3106.000000	64.728093  
3105.000000	64.729499  
3104.000000	64.737725  
3103.000000	64.752960  
3102.000000	64.774489  
3101.000000	64.800477  
3100.000000	64.828562  
3099.000000	64.856147  
3098.000000	64.880752  
3097.000000	64.900350  
3096.000000	64.913630  
3095.000000	64.920210  
3094.000000	64.920353  
3093.000000	64.914774  
3092.000000	64.904427  
3091.000000	64.890313  
3090.000000	64.873433  
3089.000000	64.854550  
3088.000000	64.834356  
3087.000000	64.813470  
3086.000000	64.792370  
3085.000000	64.771580  
3084.000000	64.751577  
3083.000000	64.732956  
3082.000000	64.716100  
3081.000000	64.701247  
3080.000000	64.688444  
3079.000000	64.677691  
3078.000000	64.668750  
3077.000000	64.661550  
3076.000000	64.655804  
3075.000000	64.651536  
3074.000000	64.648938  
3073.000000	64.648604  
3072.000000	64.650845  
3071.000000	64.656114  
3070.000000	64.664578  
3069.000000	64.676022  
3068.000000	64.689612  
3067.000000	64.704275  
3066.000000	64.718818  
3065.000000	64.732003  
3064.000000	64.742922  
3063.000000	64.751172  
3062.000000	64.756870  
3061.000000	64.760661  
3060.000000	64.763474  
3059.000000	64.766407  
3058.000000	64.770388  
3057.000000	64.776206  
3056.000000	64.784193  
3055.000000	64.794468  
3054.000000	64.806556  
3053.000000	64.819908  
3052.000000	64.833474  
3051.000000	64.845871  
3050.000000	64.855408  
3049.000000	64.860415  
3048.000000	64.859414  
3047.000000	64.851427  
3046.000000	64.836287  
3045.000000	64.814829  
3044.000000	64.788913  
3043.000000	64.761281  
3042.000000	64.734911  
3041.000000	64.712524  
3040.000000	64.696311  
3039.000000	64.687347  
3038.000000	64.685654  
3037.000000	64.690065  
3036.000000	64.698696  
3035.000000	64.709377  
3034.000000	64.719915  
3033.000000	64.728593  
3032.000000	64.734172  
3031.000000	64.736056  
3030.000000	64.734101  
3029.000000	64.728736  
3028.000000	64.720654  
3027.000000	64.711070  
3026.000000	64.701461  
3025.000000	64.693307  
3024.000000	64.688301  
3023.000000	64.687514  
3022.000000	64.691495  
3021.000000	64.699602  
3020.000000	64.710187  
3019.000000	64.720582  
3018.000000	64.727544  
3017.000000	64.727878  
3016.000000	64.719390  
3015.000000	64.701437  
3014.000000	64.675140  
3013.000000	64.643478  
3012.000000	64.610576  
3011.000000	64.581274  
3010.000000	64.559936  
3009.000000	64.549732  
3008.000000	64.552211  
3007.000000	64.566946  
3006.000000	64.591860  
3005.000000	64.623665  
3004.000000	64.658594  
3003.000000	64.692854  
3002.000000	64.723229  
3001.000000	64.747333  
3000.000000	64.763665  
2999.000000	64.771771  
2998.000000	64.771699  
2997.000000	64.764142  
2996.000000	64.749932  
2995.000000	64.730358  
2994.000000	64.706587  
2993.000000	64.679908  
2992.000000	64.651489  
2991.000000	64.622640  
2990.000000	64.594626  
2989.000000	64.568662  
2988.000000	64.546108  
2987.000000	64.528155  
2986.000000	64.515852  
2985.000000	64.509820  
2984.000000	64.509963  
2983.000000	64.515447  
2982.000000	64.524364  
2981.000000	64.534211  
2980.000000	64.542126  
2979.000000	64.545607  
2978.000000	64.542818  
2977.000000	64.533472  
2976.000000	64.518928  
2975.000000	64.501810  
2974.000000	64.485669  
2973.000000	64.473843  
2972.000000	64.468812  
2971.000000	64.471292  
2970.000000	64.480447  
2969.000000	64.493560  
2968.000000	64.507079  
2967.000000	64.517259  
2966.000000	64.521241  
2965.000000	64.517807  
2964.000000	64.507460  
2963.000000	64.492392  
2962.000000	64.475750  
2961.000000	64.460945  
2960.000000	64.450764  
2959.000000	64.446759  
2958.000000	64.448976  
2957.000000	64.456152  
2956.000000	64.466214  
2955.000000	64.476656  
2954.000000	64.485335  
2953.000000	64.490890  
2952.000000	64.493155  
2951.000000	64.492940  
2950.000000	64.492177  
2949.000000	64.493012  
2948.000000	64.497613  
2947.000000	64.507579  
2946.000000	64.523458  
2945.000000	64.544653  
2944.000000	64.569544  
2943.000000	64.595818  
2942.000000	64.620780  
2941.000000	64.642071  
2940.000000	64.657759  
2939.000000	64.666819  
2938.000000	64.668965  
2937.000000	64.664888  
2936.000000	64.655756  
2935.000000	64.643216  
2934.000000	64.628911  
2933.000000	64.614367  
2932.000000	64.600658  
2931.000000	64.588546  
2930.000000	64.578604  
2929.000000	64.571189  
2928.000000	64.566755  
2927.000000	64.565801  
2926.000000	64.568901  
2925.000000	64.576268  
2924.000000	64.587521  
2923.000000	64.601445  
2922.000000	64.615845  
2921.000000	64.627933  
2920.000000	64.634943  
2919.000000	64.634490  
2918.000000	64.625430  
2917.000000	64.608216  
2916.000000	64.584827  
2915.000000	64.558315  
2914.000000	64.532351  
2913.000000	64.510345  
2912.000000	64.494919  
2911.000000	64.487218  
2910.000000	64.486861  
2909.000000	64.492273  
2908.000000	64.501237  
2907.000000	64.511275  
2906.000000	64.520430  
2905.000000	64.527463  
2904.000000	64.531993  
2903.000000	64.534330  
2902.000000	64.535212  
2901.000000	64.535379  
2900.000000	64.535284  
2899.000000	64.535164  
2898.000000	64.534878  
2897.000000	64.534282  
2896.000000	64.533567  
2895.000000	64.533090  
2894.000000	64.533519  
2893.000000	64.535522  
2892.000000	64.539599  
2891.000000	64.545965  
2890.000000	64.554238  
2889.000000	64.563632  
2888.000000	64.572978  
2887.000000	64.581131  
2886.000000	64.587020  
2885.000000	64.589929  
2884.000000	64.589548  
2883.000000	64.586019  
2882.000000	64.580059  
2881.000000	64.572715  
2880.000000	64.565372  
2879.000000	64.559435  
2878.000000	64.556193  
2877.000000	64.556336  
2876.000000	64.559936  
2875.000000	64.566254  
2874.000000	64.573907  
2873.000000	64.581203  
2872.000000	64.586424  
2871.000000	64.588332  
2870.000000	64.586663  
2869.000000	64.582109  
2868.000000	64.576435  
2867.000000	64.571881  
2866.000000	64.570760  
2865.000000	64.574694  
2864.000000	64.584136  
2863.000000	64.598059  
2862.000000	64.614295  
2861.000000	64.629673  
2860.000000	64.641141  
2859.000000	64.645886  
2858.000000	64.642310  
2857.000000	64.630270  
2856.000000	64.610981  
2855.000000	64.586710  
2854.000000	64.560174  
2853.000000	64.534139  
2852.000000	64.510846  
2851.000000	64.491868  
2850.000000	64.477944  
2849.000000	64.469194  
2848.000000	64.465379  
2847.000000	64.466094  
2846.000000	64.471101  
2845.000000	64.479970  
2844.000000	64.492464  
2843.000000	64.508175  
2842.000000	64.526343  
2841.000000	64.545989  
2840.000000	64.565682  
2839.000000	64.583778  
2838.000000	64.598655  
2837.000000	64.608812  
2836.000000	64.613485  
2835.000000	64.612579  
2834.000000	64.606928  
2833.000000	64.598178  
2832.000000	64.588594  
2831.000000	64.580750  
2830.000000	64.577078  
2829.000000	64.579343  
2828.000000	64.588117  
2827.000000	64.602804  
2826.000000	64.621543  
2825.000000	64.641499  
2824.000000	64.659333  
2823.000000	64.671707  
2822.000000	64.676237  
2821.000000	64.671874  
2820.000000	64.659118  
2819.000000	64.639806  
2818.000000	64.617085  
2817.000000	64.594554  
2816.000000	64.575481  
2815.000000	64.562296  
2814.000000	64.556074  
2813.000000	64.556527  
2812.000000	64.562320  
2811.000000	64.571142  
2810.000000	64.580678  
2809.000000	64.588665  
2808.000000	64.593601  
2807.000000	64.594769  
2806.000000	64.592003  
2805.000000	64.585852  
2804.000000	64.577150  
2803.000000	64.567160  
2802.000000	64.556860  
2801.000000	64.547419  
2800.000000	64.539909  
2799.000000	64.535188  
2798.000000	64.533925  
2797.000000	64.536404  
2796.000000	64.542484  
2795.000000	64.551544  
2794.000000	64.562702  
2793.000000	64.575076  
2792.000000	64.587926  
2791.000000	64.600825  
2790.000000	64.613771  
2789.000000	64.627075  
2788.000000	64.641213  
2787.000000	64.656376  
2786.000000	64.672422  
2785.000000	64.688825  
2784.000000	64.704608  
2783.000000	64.718747  
2782.000000	64.730191  
2781.000000	64.738392  
2780.000000	64.743089  
2779.000000	64.744639  
2778.000000	64.743566  
2777.000000	64.740538  
2776.000000	64.736104  
2775.000000	64.730668  
2774.000000	64.724493  
2773.000000	64.717793  
2772.000000	64.710903  
2771.000000	64.704513  
2770.000000	64.699435  
2769.000000	64.696502  
2768.000000	64.696288  
2767.000000	64.698863  
2766.000000	64.703655  
2765.000000	64.709520  
2764.000000	64.714813  
2763.000000	64.717578  
2762.000000	64.716219  
2761.000000	64.709687  
2760.000000	64.697599  
2759.000000	64.680433  
2758.000000	64.659357  
2757.000000	64.636206  
2756.000000	64.612889  
2755.000000	64.591550  
2754.000000	64.574098  
2753.000000	64.562010  
2752.000000	64.556455  
2751.000000	64.558029  
2750.000000	64.566826  
2749.000000	64.582538  
2748.000000	64.603972  
2747.000000	64.629411  
2746.000000	64.656639  
2745.000000	64.683055  
2744.000000	64.706158  
2743.000000	64.723587  
2742.000000	64.733576  
2741.000000	64.735174  
2740.000000	64.728426  
2739.000000	64.714169  
2738.000000	64.693951  
2737.000000	64.669823  
2736.000000	64.644217  
2735.000000	64.619350  
2734.000000	64.597463  
2733.000000	64.580416  
2732.000000	64.569878  
2731.000000	64.566993  
2730.000000	64.572310  
2729.000000	64.585757  
2728.000000	64.606118  
2727.000000	64.631223  
2726.000000	64.658141  
2725.000000	64.683341  
2724.000000	64.703559  
2723.000000	64.716243  
2722.000000	64.720249  
2721.000000	64.716124  
2720.000000	64.706063  
2719.000000	64.693284  
2718.000000	64.681386  
2717.000000	64.673471  
2716.000000	64.671444  
2715.000000	64.675664  
2714.000000	64.684939  
2713.000000	64.696931  
2712.000000	64.708828  
2711.000000	64.718389  
2710.000000	64.724159  
2709.000000	64.725923  
2708.000000	64.724493  
2707.000000	64.721179  
2706.000000	64.717245  
2705.000000	64.713573  
2704.000000	64.710307  
2703.000000	64.706826  
2702.000000	64.702296  
2701.000000	64.695787  
2700.000000	64.686942  
2699.000000	64.675974  
2698.000000	64.663910  
2697.000000	64.652299  
2696.000000	64.642977  
2695.000000	64.637494  
2694.000000	64.636683  
2693.000000	64.640307  
2692.000000	64.647245  
2691.000000	64.655447  
2690.000000	64.662504  
2689.000000	64.665937  
2688.000000	64.663839  
2687.000000	64.655303  
2686.000000	64.640736  
2685.000000	64.621710  
2684.000000	64.600801  
2683.000000	64.580893  
2682.000000	64.564752  
2681.000000	64.554262  
2680.000000	64.549827  
2679.000000	64.550495  
2678.000000	64.554023  
2677.000000	64.557528  
2676.000000	64.558124  
2675.000000	64.553833  
2674.000000	64.543819  
2673.000000	64.528322  
2672.000000	64.508724  
2671.000000	64.487028  
2670.000000	64.465260  
2669.000000	64.445209  
2668.000000	64.427924  
2667.000000	64.413833  
2666.000000	64.403009  
2665.000000	64.395475  
2664.000000	64.391398  
2663.000000	64.391112  
2662.000000	64.395070  
2661.000000	64.403581  
2660.000000	64.416575  
2659.000000	64.433169  
2658.000000	64.452171  
2657.000000	64.471960  
2656.000000	64.491057  
2655.000000	64.508080  
2654.000000	64.522171  
2653.000000	64.532899  
2652.000000	64.540505  
2651.000000	64.545536  
2650.000000	64.548754  
2649.000000	64.551067  
2648.000000	64.553427  
2647.000000	64.556360  
2646.000000	64.560198  
2645.000000	64.564609  
2644.000000	64.569020  
2643.000000	64.572334  
2642.000000	64.573287  
2641.000000	64.570641  
2640.000000	64.563632  
2639.000000	64.552330  
2638.000000	64.537549  
2637.000000	64.521026  
2636.000000	64.505171  
2635.000000	64.492344  
2634.000000	64.484238  
2633.000000	64.481544  
2632.000000	64.483690  
2631.000000	64.489150  
2630.000000	64.495658  
2629.000000	64.500904  
2628.000000	64.502882  
2627.000000	64.500260  
2626.000000	64.492630  
2625.000000	64.480185  
2624.000000	64.463782  
2623.000000	64.444851  
2622.000000	64.425015  
2621.000000	64.406061  
2620.000000	64.389538  
2619.000000	64.376997  
2618.000000	64.369559  
2617.000000	64.367890  
2616.000000	64.372014  
2615.000000	64.381265  
2614.000000	64.394378  
2613.000000	64.409613  
2612.000000	64.425182  
2611.000000	64.439582  
2610.000000	64.451766  
2609.000000	64.461469  
2608.000000	64.468932  
2607.000000	64.474678  
2606.000000	64.479517  
2605.000000	64.484024  
2604.000000	64.488482  
2603.000000	64.492893  
2602.000000	64.497137  
2601.000000	64.500880  
2600.000000	64.504051  
2599.000000	64.506602  
2598.000000	64.508485  
2597.000000	64.509844  
2596.000000	64.510703  
2595.000000	64.511108  
2594.000000	64.510869  
2593.000000	64.509868  
2592.000000	64.507961  
2591.000000	64.505028  
2590.000000	64.501214  
2589.000000	64.496421  
2588.000000	64.490604  
2587.000000	64.483523  
2586.000000	64.474892  
2585.000000	64.464592  
2584.000000	64.452672  
2583.000000	64.439773  
2582.000000	64.426994  
2581.000000	64.415764  
2580.000000	64.407396  
2579.000000	64.402818  
2578.000000	64.402270  
2577.000000	64.405059  
2576.000000	64.409708  
2575.000000	64.414238  
2574.000000	64.416766  
2573.000000	64.415812  
2572.000000	64.410734  
2571.000000	64.401960  
2570.000000	64.390683  
2569.000000	64.378595  
2568.000000	64.367485  
2567.000000	64.358663  
2566.000000	64.352703  
2565.000000	64.349460  
2564.000000	64.348244  
2563.000000	64.348125  
2562.000000	64.348268  
2561.000000	64.348244  
2560.000000	64.348077  
2559.000000	64.348316  
2558.000000	64.350032  
2557.000000	64.354252  
2556.000000	64.361906  
2555.000000	64.373469  
2554.000000	64.388871  
2553.000000	64.407348  
2552.000000	64.427518  
2551.000000	64.447593  
2550.000000	64.465641  
2549.000000	64.479780  
2548.000000	64.488625  
2547.000000	64.491295  
2546.000000	64.487791  
2545.000000	64.478969  
2544.000000	64.466547  
2543.000000	64.452457  
2542.000000	64.438962  
2541.000000	64.427757  
2540.000000	64.420080  
2539.000000	64.416360  
2538.000000	64.416551  
2537.000000	64.420104  
2536.000000	64.426231  
2535.000000	64.433956  
2534.000000	64.442348  
2533.000000	64.450526  
2532.000000	64.457678  
2531.000000	64.463067  
2530.000000	64.466023  
2529.000000	64.466238  
2528.000000	64.463615  
2527.000000	64.458417  
2526.000000	64.451074  
2525.000000	64.442300  
2524.000000	64.432907  
2523.000000	64.423751  
2522.000000	64.415788  
2521.000000	64.409661  
2520.000000	64.405894  
2519.000000	64.404630  
2518.000000	64.405798  
2517.000000	64.408969  
2516.000000	64.413380  
2515.000000	64.418053  
2514.000000	64.421796  
2513.000000	64.423441  
2512.000000	64.422082  
2511.000000	64.417123  
2510.000000	64.408659  
2509.000000	64.397382  
2508.000000	64.384627  
2507.000000	64.372110  
2506.000000	64.361715  
2505.000000	64.355063  
2504.000000	64.353418  
2503.000000	64.357185  
2502.000000	64.366078  
2501.000000	64.379191  
2500.000000	64.394974  
2499.000000	64.411783  
2498.000000	64.428019  
2497.000000	64.442491  
2496.000000	64.454483  
2495.000000	64.463901  
2494.000000	64.471030  
2493.000000	64.476585  
2492.000000	64.481377  
2491.000000	64.485859  
2490.000000	64.490127  
2489.000000	64.493823  
2488.000000	64.496207  
2487.000000	64.496183  
2486.000000	64.492821  
2485.000000	64.485478  
2484.000000	64.474081  
2483.000000	64.459371  
2482.000000	64.442753  
2481.000000	64.426207  
2480.000000	64.411807  
2479.000000	64.401340  
2478.000000	64.395952  
2477.000000	64.395976  
2476.000000	64.400839  
2475.000000	64.409208  
2474.000000	64.419388  
2473.000000	64.429759  
2472.000000	64.439105  
2471.000000	64.446878  
2470.000000	64.453148  
2469.000000	64.458417  
2468.000000	64.463353  
2467.000000	64.468359  
2466.000000	64.473271  
2465.000000	64.477443  
2464.000000	64.479804  
2463.000000	64.479184  
2462.000000	64.474749  
2461.000000	64.466166  
2460.000000	64.453816  
2459.000000	64.439010  
2458.000000	64.423537  
2457.000000	64.409136  
2456.000000	64.397335  
2455.000000	64.389109  
2454.000000	64.384531  
2453.000000	64.382886  
2452.000000	64.382767  
2451.000000	64.382529  
2450.000000	64.380645  
2449.000000	64.376139  
2448.000000	64.368605  
2447.000000	64.358353  
2446.000000	64.346432  
2445.000000	64.334297  
2444.000000	64.323496  
2443.000000	64.315295  
2442.000000	64.310526  
2441.000000	64.309620  
2440.000000	64.312481  
2439.000000	64.318633  
2438.000000	64.327502  
2437.000000	64.338636  
2436.000000	64.351701  
2435.000000	64.366602  
2434.000000	64.383268  
2433.000000	64.401674  
2432.000000	64.421439  
2431.000000	64.441728  
2430.000000	64.461517  
2429.000000	64.479327  
2428.000000	64.493799  
2427.000000	64.503741  
2426.000000	64.508557  
2425.000000	64.508080  
2424.000000	64.502978  
2423.000000	64.493989  
2422.000000	64.482045  
2421.000000	64.467716  
2420.000000	64.451432  
2419.000000	64.433312  
2418.000000	64.413523  
2417.000000	64.392518  
2416.000000	64.371323  
2415.000000	64.351344  
2414.000000	64.334464  
2413.000000	64.322590  
2412.000000	64.317202  
2411.000000	64.318919  
2410.000000	64.327263  
2409.000000	64.340543  
2408.000000	64.356160  
2407.000000	64.371109  
2406.000000	64.382696  
2405.000000	64.388728  
2404.000000	64.388275  
2403.000000	64.381551  
2402.000000	64.369916  
2401.000000	64.355325  
2400.000000	64.340090  
2399.000000	64.326262  
2398.000000	64.315271  
2397.000000	64.307880  
2396.000000	64.303970  
2395.000000	64.302659  
2394.000000	64.302778  
2393.000000	64.303112  
2392.000000	64.302825  
2391.000000	64.301609  
2390.000000	64.299964  
2389.000000	64.298963  
2388.000000	64.299917  
2387.000000	64.304089  
2386.000000	64.312219  
2385.000000	64.324045  
2384.000000	64.338469  
2383.000000	64.353346  
2382.000000	64.366078  
2381.000000	64.374136  
2380.000000	64.375638  
2379.000000	64.369988  
2378.000000	64.358091  
2377.000000	64.342308  
2376.000000	64.325928  
2375.000000	64.312648  
2374.000000	64.305615  
2373.000000	64.306974  
2372.000000	64.317488  
2371.000000	64.336371  
2370.000000	64.361619  
2369.000000	64.390349  
2368.000000	64.419436  
2367.000000	64.446187  
2366.000000	64.468526  
2365.000000	64.485406  
2364.000000	64.496660  
2363.000000	64.502859  
2362.000000	64.504790  
2361.000000	64.503216  
2360.000000	64.498472  
2359.000000	64.490628  
2358.000000	64.479470  
2357.000000	64.464783  
2356.000000	64.446640  
2355.000000	64.425921  
2354.000000	64.404273  
2353.000000	64.383935  
2352.000000	64.367246  
2351.000000	64.356398  
2350.000000	64.352416  
2349.000000	64.355134  
2348.000000	64.362907  
2347.000000	64.372801  
2346.000000	64.381241  
2345.000000	64.384698  
2344.000000	64.380836  
2343.000000	64.368581  
2342.000000	64.348959  
2341.000000	64.324498  
2340.000000	64.298820  
2339.000000	64.275717  
2338.000000	64.258289  
2337.000000	64.248466  
2336.000000	64.246582  
2335.000000	64.251446  
2334.000000	64.261102  
2333.000000	64.273571  
2332.000000	64.287281  
2331.000000	64.301657  
2330.000000	64.316892  
2329.000000	64.333796  
2328.000000	64.353203  
2327.000000	64.375162  
2326.000000	64.398646  
2325.000000	64.421582  
2324.000000	64.441204  
2323.000000	64.454770  
2322.000000	64.460086  
2321.000000	64.456319  
2320.000000	64.444303  
2319.000000	64.426279  
2318.000000	64.405512  
2317.000000	64.385437  
2316.000000	64.368963  
2315.000000	64.357995  
2314.000000	64.353179  
2313.000000	64.353895  
2312.000000	64.358592  
2311.000000	64.365029  
2310.000000	64.371156  
2309.000000	64.374923  
2308.000000	64.374995  
2307.000000	64.370536  
2306.000000	64.361643  
2305.000000	64.349007  
2304.000000	64.333939  
2303.000000	64.318323  
2302.000000	64.304375  
2301.000000	64.294219  
2300.000000	64.289665  
2299.000000	64.291858  
2298.000000	64.301133  
2297.000000	64.316630  
2296.000000	64.336514  
2295.000000	64.358377  
2294.000000	64.379620  
2293.000000	64.397788  
2292.000000	64.410853  
2291.000000	64.417576  
2290.000000	64.417529  
2289.000000	64.410901  
2288.000000	64.398479  
2287.000000	64.381408  
2286.000000	64.361023  
2285.000000	64.338779  
2284.000000	64.316034  
2283.000000	64.293980  
2282.000000	64.273619  
2281.000000	64.255905  
2280.000000	64.241456  
2279.000000	64.230799  
2278.000000	64.223980  
2277.000000	64.221024  
2276.000000	64.221501  
2275.000000	64.224815  
2274.000000	64.230132  
2273.000000	64.236664  
2272.000000	64.243531  
2271.000000	64.250016  
2270.000000	64.255738  
2269.000000	64.260387  
2268.000000	64.263963  
2267.000000	64.266538  
2266.000000	64.268255  
2265.000000	64.269232  
2264.000000	64.269423  
2263.000000	64.268732  
2262.000000	64.266943  
2261.000000	64.263749  
2260.000000	64.259123  
2259.000000	64.253282  
2258.000000	64.246749  
2257.000000	64.240550  
2256.000000	64.235925  
2255.000000	64.234328  
2254.000000	64.236998  
2253.000000	64.244794  
2252.000000	64.257907  
2251.000000	64.275836  
2250.000000	64.297151  
2249.000000	64.319872  
2248.000000	64.341521  
2247.000000	64.359712  
2246.000000	64.372491  
2245.000000	64.378690  
2244.000000	64.378142  
2243.000000	64.371538  
2242.000000	64.360475  
2241.000000	64.346957  
2240.000000	64.332938  
2239.000000	64.320254  
2238.000000	64.310193  
2237.000000	64.303660  
2236.000000	64.300870  
2235.000000	64.301657  
2234.000000	64.305257  
2233.000000	64.310789  
2232.000000	64.316797  
2231.000000	64.321637  
2230.000000	64.323759  
2229.000000	64.321541  
2228.000000	64.313960  
2227.000000	64.300751  
2226.000000	64.282464  
2225.000000	64.260554  
2224.000000	64.237260  
2223.000000	64.215064  
2222.000000	64.196324  
2221.000000	64.182710  
2220.000000	64.174914  
2219.000000	64.172720  
2218.000000	64.175176  
2217.000000	64.181184  
2216.000000	64.189410  
2215.000000	64.198875  
2214.000000	64.209103  
2213.000000	64.219713  
2212.000000	64.230346  
2211.000000	64.240288  
2210.000000	64.248418  
2209.000000	64.253258  
2208.000000	64.253282  
2207.000000	64.247345  
2206.000000	64.234948  
2205.000000	64.216756  
2204.000000	64.194703  
2203.000000	64.171648  
2202.000000	64.150905  
2201.000000	64.135694  
2200.000000	64.128375  
2199.000000	64.129853  
2198.000000	64.139485  
2197.000000	64.155220  
2196.000000	64.173889  
2195.000000	64.191913  
2194.000000	64.205932  
2193.000000	64.213585  
2192.000000	64.213609  
2191.000000	64.206218  
2190.000000	64.192652  
2189.000000	64.175009  
2188.000000	64.155602  
2187.000000	64.136409  
2186.000000	64.118862  
2185.000000	64.103674  
2184.000000	64.091205  
2183.000000	64.081430  
2182.000000	64.074516  
2181.000000	64.070677  
2180.000000	64.070367  
2179.000000	64.074110  
2178.000000	64.082074  
2177.000000	64.093971  
2176.000000	64.108991  
2175.000000	64.125728  
2174.000000	64.142537  
2173.000000	64.157772  
2172.000000	64.170050  
2171.000000	64.178371  
2170.000000	64.182448  
2169.000000	64.182567  
2168.000000	64.179253  
2167.000000	64.173102  
2166.000000	64.164829  
2165.000000	64.154934  
2164.000000	64.144062  
2163.000000	64.132833  
2162.000000	64.122080  
2161.000000	64.112591  
2160.000000	64.105272  
2159.000000	64.100790  
2158.000000	64.099454  
2157.000000	64.101099  
2156.000000	64.104795  
2155.000000	64.109253  
2154.000000	64.112973  
2153.000000	64.114522  
2152.000000	64.112830  
2151.000000	64.107584  
2150.000000	64.099216  
2149.000000	64.088964  
2148.000000	64.078760  
2147.000000	64.070796  
2146.000000	64.067149  
2145.000000	64.069652  
2144.000000	64.079189  
2143.000000	64.095783  
2142.000000	64.118289  
2141.000000	64.144682  
2140.000000	64.172267  
2139.000000	64.198040  
2138.000000	64.219284  
2137.000000	64.233660  
2136.000000	64.240145  
2135.000000	64.238810  
2134.000000	64.230918  
2133.000000	64.218664  
2132.000000	64.204525  
2131.000000	64.191341  
2130.000000	64.181160  
2129.000000	64.175271  
2128.000000	64.173913  
2127.000000	64.176416  
2126.000000	64.181399  
2125.000000	64.187169  
2124.000000	64.192032  
2123.000000	64.194679  
2122.000000	64.194297  
2121.000000	64.190673  
2120.000000	64.183974  
2119.000000	64.174699  
2118.000000	64.163470  
2117.000000	64.150977  
2116.000000	64.137983  
2115.000000	64.125227  
2114.000000	64.113593  
2113.000000	64.103913  
2112.000000	64.097023  
2111.000000	64.093685  
2110.000000	64.094257  
2109.000000	64.099025  
2108.000000	64.107465  
2107.000000	64.118862  
2106.000000	64.132165  
2105.000000	64.146208  
2104.000000	64.159846  
2103.000000	64.172339  
2102.000000	64.183354  
2101.000000	64.193010  
2100.000000	64.201879  
2099.000000	64.210367  
2098.000000	64.218664  
2097.000000	64.226436  
2096.000000	64.232945  
2095.000000	64.237022  
2094.000000	64.237332  
2093.000000	64.232778  
2092.000000	64.222908  
2091.000000	64.207983  
2090.000000	64.188933  
2089.000000	64.167380  
2088.000000	64.145350  
2087.000000	64.125061  
2086.000000	64.108467  
2085.000000	64.097213  
2084.000000	64.092135  
2083.000000	64.093303  
2082.000000	64.099836  
2081.000000	64.110064  
2080.000000	64.121866  
2079.000000	64.133167  
2078.000000	64.142084  
2077.000000	64.147400  
2076.000000	64.148640  
2075.000000	64.146161  
2074.000000	64.141082  
2073.000000	64.134860  
2072.000000	64.129328  
2071.000000	64.126157  
2070.000000	64.126777  
2069.000000	64.131975  
2068.000000	64.141750  
2067.000000	64.155387  
2066.000000	64.171171  
2065.000000	64.187073  
2064.000000	64.200782  
2063.000000	64.210391  
2062.000000	64.214730  
2061.000000	64.213490  
2060.000000	64.207339  
2059.000000	64.197635  
2058.000000	64.186239  
2057.000000	64.174890  
2056.000000	64.164853  
2055.000000	64.156603  
2054.000000	64.149880  
2053.000000	64.143753  
2052.000000	64.137172  
2051.000000	64.129185  
2050.000000	64.119338  
2049.000000	64.107966  
2048.000000	64.096093  
2047.000000	64.085364  
2046.000000	64.077353  
2045.000000	64.073491  
2044.000000	64.074301  
2043.000000	64.079499  
2042.000000	64.087986  
2041.000000	64.098048  
2040.000000	64.107847  
2039.000000	64.115858  
2038.000000	64.121055  
2037.000000	64.123058  
2036.000000	64.122056  
2035.000000	64.118647  
2034.000000	64.113473  
2033.000000	64.107060  
2032.000000	64.099788  
2031.000000	64.091777  
2030.000000	64.083123  
2029.000000	64.073920  
2028.000000	64.064598  
2027.000000	64.055824  
2026.000000	64.048552  
2025.000000	64.043593  
2024.000000	64.041733  
2023.000000	64.043426  
2022.000000	64.048695  
2021.000000	64.057064  
2020.000000	64.067673  
2019.000000	64.079451  
2018.000000	64.091253  
2017.000000	64.101958  
2016.000000	64.110636  
2015.000000	64.116597  
2014.000000	64.119505  
2013.000000	64.119219  
2012.000000	64.116096  
2011.000000	64.110636  
2010.000000	64.103555  
2009.000000	64.095735  
2008.000000	64.087796  
2007.000000	64.080333  
2006.000000	64.073681  
2005.000000	64.068126  
2004.000000	64.063715  
2003.000000	64.060401  
2002.000000	64.058399  
2001.000000	64.058136  
2000.000000	64.060115  
1999.000000	64.064955  
1998.000000	64.073204  
1997.000000	64.085102  
1996.000000	64.100432  
1995.000000	64.118385  
1994.000000	64.137601  
1993.000000	64.156341  
1992.000000	64.172840  
1991.000000	64.185571  
1990.000000	64.193558  
1989.000000	64.196467  
1988.000000	64.194750  
1987.000000	64.189434  
1986.000000	64.182019  
1985.000000	64.174056  
1984.000000	64.166688  
1983.000000	64.160609  
1982.000000	64.155817  
1981.000000	64.151763  
1980.000000	64.147424  
1979.000000	64.141654  
1978.000000	64.133453  
1977.000000	64.122200  
1976.000000	64.107894  
1975.000000	64.090991  
1974.000000	64.072465  
1973.000000	64.053583  
1972.000000	64.035773  
1971.000000	64.020276  
1970.000000	64.008259  
1969.000000	64.000463  
1968.000000	63.997197  
1967.000000	63.998460  
1966.000000	64.003753  
1965.000000	64.012312  
1964.000000	64.022922  
1963.000000	64.034295  
1962.000000	64.045119  
1961.000000	64.054083  
1960.000000	64.060235  
1959.000000	64.063000  
1958.000000	64.062333  
1957.000000	64.058494  
1956.000000	64.052104  
1955.000000	64.043927  
1954.000000	64.034605  
1953.000000	64.024782  
1952.000000	64.014816  
1951.000000	64.005088  
1950.000000	63.995790  
1949.000000	63.987231  
1948.000000	63.979935  
1947.000000	63.974571  
1946.000000	63.971948  
1945.000000	63.972783  
1944.000000	63.977313  
1943.000000	63.985538  
1942.000000	63.996863  
1941.000000	64.010334  
1940.000000	64.024519  
1939.000000	64.038014  
1938.000000	64.049673  
1937.000000	64.058613  
1936.000000	64.064288  
1935.000000	64.066624  
1934.000000	64.065790  
1933.000000	64.062070  
1932.000000	64.055871  
1931.000000	64.047527  
1930.000000	64.037322  
1929.000000	64.025545  
1928.000000	64.012408  
1927.000000	63.998198  
1926.000000	63.983178  
1925.000000	63.967585  
1924.000000	63.951611  
1923.000000	63.935351  
1922.000000	63.919115  
1921.000000	63.903403  
1920.000000	63.889050  
1919.000000	63.876914  
1918.000000	63.868379  
1917.000000	63.864469  
1916.000000	63.866329  
1915.000000	63.874244  
1914.000000	63.887953  
1913.000000	63.906574  
1912.000000	63.928699  
1911.000000	63.952398  
1910.000000	63.975667  
1909.000000	63.996863  
1908.000000	64.014577  
1907.000000	64.027905  
1906.000000	64.036464  
1905.000000	64.040446  
1904.000000	64.040303  
1903.000000	64.036774  
1902.000000	64.030742  
1901.000000	64.023280  
1900.000000	64.015555  
1899.000000	64.008712  
1898.000000	64.003753  
1897.000000	64.001369  
1896.000000	64.002108  
1895.000000	64.005851  
1894.000000	64.012098  
1893.000000	64.019703  
1892.000000	64.027285  
1891.000000	64.033293  
1890.000000	64.036107  
1889.000000	64.034342  
1888.000000	64.027380  
1887.000000	64.015221  
1886.000000	63.998627  
1885.000000	63.979172  
1884.000000	63.958978  
1883.000000	63.940358  
1882.000000	63.925480  
1881.000000	63.915777  
1880.000000	63.911795  
1879.000000	63.913083  
1878.000000	63.918399  
1877.000000	63.925766  
1876.000000	63.933062  
1875.000000	63.938665  
1874.000000	63.941645  
1873.000000	63.942027  
1872.000000	63.940811  
1871.000000	63.939452  
1870.000000	63.939476  
1869.000000	63.942122  
1868.000000	63.947844  
1867.000000	63.956165  
1866.000000	63.966012  
1865.000000	63.975954  
1864.000000	63.984751  
1863.000000	63.991880  
1862.000000	63.997507  
1861.000000	64.002609  
1860.000000	64.008474  
1859.000000	64.015984  
1858.000000	64.025354  
1857.000000	64.035820  
1856.000000	64.045548  
1855.000000	64.052152  
1854.000000	64.053273  
1853.000000	64.047265  
1852.000000	64.033603  
1851.000000	64.013195  
1850.000000	63.988113  
1849.000000	63.961338  
1848.000000	63.936161  
1847.000000	63.915586  
1846.000000	63.901662  
1845.000000	63.895344  
1844.000000	63.896489  
1843.000000	63.903737  
1842.000000	63.915038  
1841.000000	63.927912  
1840.000000	63.939809  
1839.000000	63.948726  
1838.000000	63.952994  
1837.000000	63.952183  
1836.000000	63.946795  
1835.000000	63.938426  
1834.000000	63.929224  
1833.000000	63.921713  
1832.000000	63.918066  
1831.000000	63.919711  
1830.000000	63.926911  
1829.000000	63.938617  
1828.000000	63.952898  
1827.000000	63.967204  
1826.000000	63.978910  
1825.000000	63.985776  
1824.000000	63.986468  
1823.000000	63.980555  
1822.000000	63.968563  
1821.000000	63.951754  
1820.000000	63.931775  
1819.000000	63.910555  
1818.000000	63.889837  
1817.000000	63.871335  
1816.000000	63.856387  
1815.000000	63.846158  
1814.000000	63.841390  
1813.000000	63.842415  
1812.000000	63.848972  
1811.000000	63.860034  
1810.000000	63.874220  
1809.000000	63.889598  
1808.000000	63.904190  
1807.000000	63.916158  
1806.000000	63.923978  
1805.000000	63.926768  
1804.000000	63.924360  
1803.000000	63.917160  
1802.000000	63.906216  
1801.000000	63.892889  
1800.000000	63.878726  
1799.000000	63.865232  
1798.000000	63.853716  
1797.000000	63.845348  
1796.000000	63.840699  
1795.000000	63.839936  
1794.000000	63.842844  
1793.000000	63.848805  
1792.000000	63.856911  
1791.000000	63.866114  
1790.000000	63.875484  
1789.000000	63.884282  
1788.000000	63.892173  
1787.000000	63.898944  
1786.000000	63.904666  
1785.000000	63.909435  
1784.000000	63.913083  
1783.000000	63.915300  
1782.000000	63.915848  
1781.000000	63.914227  
1780.000000	63.910174  
1779.000000	63.903546  
1778.000000	63.894581  
1777.000000	63.883757  
1776.000000	63.871574  
1775.000000	63.858699  
1774.000000	63.845825  
1773.000000	63.833475  
1772.000000	63.821935  
1771.000000	63.811254  
1770.000000	63.801407  
1769.000000	63.792324  
1768.000000	63.783884  
1767.000000	63.776087  
1766.000000	63.769030  
1765.000000	63.762831  
1764.000000	63.757538  
1763.000000	63.752889  
1762.000000	63.748240  
1761.000000	63.742613  
1760.000000	63.734841  
1759.000000	63.723516  
1758.000000	63.707733  
1757.000000	63.686895  
1756.000000	63.661456  
1755.000000	63.632774  
1754.000000	63.602757  
1753.000000	63.574147  
1752.000000	63.549137  
1751.000000	63.529372  
1750.000000	63.515210  
1749.000000	63.505864  
1748.000000	63.499379  
1747.000000	63.493132  
1746.000000	63.484477  
1745.000000	63.471388  
1744.000000	63.452720  
1743.000000	63.428544  
1742.000000	63.400053  
1741.000000	63.369369  
1740.000000	63.339066  
1739.000000	63.311958  
1738.000000	63.290596  
1737.000000	63.277173  
1736.000000	63.273143  
1735.000000	63.279294  
1734.000000	63.295435  
1733.000000	63.320517  
1732.000000	63.352465  
1731.000000	63.388609  
1730.000000	63.425540  
1729.000000	63.460183  
1728.000000	63.489651  
1727.000000	63.512206  
1726.000000	63.527464  
1725.000000	63.536119  
1724.000000	63.539695  
1723.000000	63.540053  
1722.000000	63.539123  
1721.000000	63.538336  
1720.000000	63.538265  
1719.000000	63.538742  
1718.000000	63.539409  
1717.000000	63.539624  
1716.000000	63.538885  
1715.000000	63.537144  
1714.000000	63.534808  
1713.000000	63.532567  
1712.000000	63.531255  
1711.000000	63.531517  
1710.000000	63.533520  
1709.000000	63.536882  
1708.000000	63.540577  
1707.000000	63.543343  
1706.000000	63.544130  
1705.000000	63.542222  
1704.000000	63.537764  
1703.000000	63.531541  
1702.000000	63.525366  
1701.000000	63.521432  
1700.000000	63.522124  
1699.000000	63.529133  
1698.000000	63.543152  
1697.000000	63.563656  
1696.000000	63.588690  
1695.000000	63.615298  
1694.000000	63.640022  
1693.000000	63.659811  
1692.000000	63.672399  
1691.000000	63.676953  
1690.000000	63.674068  
1689.000000	63.665485  
1688.000000	63.653755  
1687.000000	63.641500  
1686.000000	63.630819  
1685.000000	63.622975  
1684.000000	63.618326  
1683.000000	63.616561  
1682.000000	63.616847  
1681.000000	63.618206  
1680.000000	63.620018  
1679.000000	63.621878  
1678.000000	63.623595  
1677.000000	63.624811  
1676.000000	63.625121  
1675.000000	63.623929  
1674.000000	63.620686  
1673.000000	63.615083  
1672.000000	63.607192  
1671.000000	63.597965  
1670.000000	63.588857  
1669.000000	63.581848  
1668.000000	63.578796  
1667.000000	63.581180  
1666.000000	63.589572  
1665.000000	63.603425  
1664.000000	63.620996  
1663.000000	63.639831  
1662.000000	63.657259  
1661.000000	63.670802  
1660.000000	63.678836  
1659.000000	63.680720  
1658.000000	63.677048  
1657.000000	63.669490  
1656.000000	63.660407  
1655.000000	63.652348  
1654.000000	63.647699  
1653.000000	63.648247  
1652.000000	63.654828  
1651.000000	63.667225  
1650.000000	63.683867  
1649.000000	63.702487  
1648.000000	63.720011  
1647.000000	63.733291  
1646.000000	63.739681  
1645.000000	63.737320  
1644.000000	63.725709  
1643.000000	63.705706  
1642.000000	63.679432  
1641.000000	63.649940  
1640.000000	63.620710  
1639.000000	63.595008  
1638.000000	63.575339  
1637.000000	63.563132  
1636.000000	63.558673  
1635.000000	63.561105  
1634.000000	63.568949  
1633.000000	63.580393  
1632.000000	63.593673  
1631.000000	63.607573  
1630.000000	63.621258  
1629.000000	63.634443  
1628.000000	63.647055  
1627.000000	63.659071  
1626.000000	63.670396  
1625.000000	63.680648  
1624.000000	63.689279  
1623.000000	63.695383  
1622.000000	63.698458  
1621.000000	63.698005  
1620.000000	63.694000  
1619.000000	63.686609  
1618.000000	63.676476  
1617.000000	63.664221  
1616.000000	63.650465  
1615.000000	63.635826  
1614.000000	63.620662  
1613.000000	63.605332  
1612.000000	63.590407  
1611.000000	63.576507  
1610.000000	63.564395  
1609.000000	63.554716  
1608.000000	63.547897  
1607.000000	63.544034  
1606.000000	63.542819  
1605.000000	63.543605  
1604.000000	63.545727  
1603.000000	63.548541  
1602.000000	63.551783  
1601.000000	63.555598  
1600.000000	63.560485  
1599.000000	63.567113  
1598.000000	63.576030  
1597.000000	63.587427  
1596.000000	63.600993  
1595.000000	63.615846  
1594.000000	63.630700  
1593.000000	63.644337  
1592.000000	63.655400  
1591.000000	63.663101  
1590.000000	63.666772  
1589.000000	63.666248  
1588.000000	63.661575  
1587.000000	63.653087  
1586.000000	63.641309  
1585.000000	63.626956  
1584.000000	63.610982  
1583.000000	63.594603  
1582.000000	63.579010  
1581.000000	63.565397  
1580.000000	63.554620  
1579.000000	63.547205  
1578.000000	63.543248  
1577.000000	63.542413  
1576.000000	63.544273  
1575.000000	63.548231  
1574.000000	63.553881  
1573.000000	63.560986  
1572.000000	63.569355  
1571.000000	63.578724  
1570.000000	63.588547  
1569.000000	63.598012  
1568.000000	63.605904  
1567.000000	63.611197  
1566.000000	63.613080  
1565.000000	63.611435  
1564.000000	63.606977  
1563.000000	63.600921  
1562.000000	63.594961  
1561.000000	63.590598  
1560.000000	63.588643  
1559.000000	63.589167  
1558.000000	63.591480  
1557.000000	63.594174  
1556.000000	63.595795  
1555.000000	63.595008  
1554.000000	63.591027  
1553.000000	63.583850  
1552.000000	63.574242  
1551.000000	63.563346  
1550.000000	63.552451  
1549.000000	63.542771  
1548.000000	63.535094  
1547.000000	63.529992  
1546.000000	63.527607  
1545.000000	63.527870  
1544.000000	63.530445  
1543.000000	63.534927  
1542.000000	63.540434  
1541.000000	63.545989  
1540.000000	63.550448  
1539.000000	63.552761  
1538.000000	63.552093  
1537.000000	63.548254  
1536.000000	63.541483  
1535.000000	63.532519  
1534.000000	63.522672  
1533.000000	63.513231  
1532.000000	63.505601  
1531.000000	63.500833  
1530.000000	63.499593  
1529.000000	63.502120  
1528.000000	63.508009  
1527.000000	63.516306  
1526.000000	63.525629  
1525.000000	63.534498  
1524.000000	63.541388  
1523.000000	63.545155  
1522.000000	63.545227  
1521.000000	63.541626  
1520.000000	63.534927  
1519.000000	63.526272  
1518.000000	63.517022  
1517.000000	63.508510  
1516.000000	63.501954  
1515.000000	63.497924  
1514.000000	63.496685  
1513.000000	63.497853  
1512.000000	63.500785  
1511.000000	63.504719  
1510.000000	63.508868  
1509.000000	63.512754  
1508.000000	63.516139  
1507.000000	63.519120  
1506.000000	63.522100  
1505.000000	63.525462  
1504.000000	63.529634  
1503.000000	63.534832  
1502.000000	63.541150  
1501.000000	63.548207  
1500.000000	63.555455  
1499.000000	63.562059  
1498.000000	63.567280  
1497.000000	63.570785  
1496.000000	63.572812  
1495.000000	63.574028  
1494.000000	63.575243  
1493.000000	63.577270  
1492.000000	63.580417  
1491.000000	63.584303  
1490.000000	63.587975  
1489.000000	63.590049  
1488.000000	63.589453  
1487.000000	63.585519  
1486.000000	63.578367  
1485.000000	63.568973  
1484.000000	63.558936  
1483.000000	63.550019  
1482.000000	63.543868  
1481.000000	63.541674  
1480.000000	63.543796  
1479.000000	63.549900  
1478.000000	63.558840  
1477.000000	63.569045  
1476.000000	63.578581  
1475.000000	63.585686  
1474.000000	63.588666  
1473.000000	63.586163  
1472.000000	63.577222  
1471.000000	63.561534  
1470.000000	63.539266  
1469.000000	63.511371  
1468.000000	63.479542  
1467.000000	63.446021  
1466.000000	63.413786  
1465.000000	63.385844  
1464.000000	63.364887  
1463.000000	63.352727  
1462.000000	63.349890  
1461.000000	63.355517  
1460.000000	63.367176  
1459.000000	63.381719  
1458.000000	63.395547  
1457.000000	63.405966  
1456.000000	63.411068  
1455.000000	63.410639  
1454.000000	63.405871  
1453.000000	63.399267  
1452.000000	63.393592  
1451.000000	63.391494  
1450.000000	63.394570  
1449.000000	63.403248  
1448.000000	63.416695  
1447.000000	63.433218  
1446.000000	63.451027  
1445.000000	63.468575  
1444.000000	63.484883  
1443.000000	63.499641  
1442.000000	63.512945  
1441.000000	63.524985  
1440.000000	63.535594  
1439.000000	63.544154  
1438.000000	63.549280  
1437.000000	63.549542  
1436.000000	63.543367  
1435.000000	63.529872  
1434.000000	63.508653  
1433.000000	63.480496  
1432.000000	63.447332  
1431.000000	63.411664  
1430.000000	63.376617  
1429.000000	63.345122  
1428.000000	63.319730  
1427.000000	63.302206  
1426.000000	63.293242  
1425.000000	63.292264  
1424.000000	63.297748  
1423.000000	63.307476  
1422.000000	63.318920  
1421.000000	63.329529  
1420.000000	63.337397  
1419.000000	63.341546  
1418.000000	63.342070  
1417.000000	63.339996  
1416.000000	63.337206  
1415.000000	63.336038  
1414.000000	63.338613  
1413.000000	63.346433  
1412.000000	63.360023  
1411.000000	63.378620  
1410.000000	63.400721  
1409.000000	63.423943  
1408.000000	63.445806  
1407.000000	63.463950  
1406.000000	63.476705  
1405.000000	63.483047  
1404.000000	63.482475  
1403.000000	63.475179  
1402.000000	63.461709  
1401.000000	63.442826  
1400.000000	63.419651  
1399.000000	63.393449  
1398.000000	63.366055  
1397.000000	63.339447  
1396.000000	63.315606  
1395.000000	63.296079  
1394.000000	63.281893  
1393.000000	63.273072  
1392.000000	63.268685  
1391.000000	63.266944  
1390.000000	63.265752  
1389.000000	63.263392  
1388.000000	63.258981  
1387.000000	63.252782  
1386.000000	63.246178  
1385.000000	63.241124  
1384.000000	63.239574  
1383.000000	63.242697  
1382.000000	63.250732  
1381.000000	63.262557  
1380.000000	63.276243  
1379.000000	63.289594  
1378.000000	63.300681  
1377.000000	63.308453  
1376.000000	63.312888  
1375.000000	63.315081  
1374.000000	63.316679  
1373.000000	63.319396  
1372.000000	63.324260  
1371.000000	63.331484  
1370.000000	63.340163  
1369.000000	63.348555  
1368.000000	63.354516  
1367.000000	63.356328  
1366.000000	63.352775  
1365.000000	63.343691  
1364.000000	63.330054  
1363.000000	63.313674  
1362.000000	63.296723  
1361.000000	63.281273  
1360.000000	63.268899  
1359.000000	63.260388  
1358.000000	63.255667  
1357.000000	63.253951  
1356.000000	63.253974  
1355.000000	63.254547  
1354.000000	63.254785  
1353.000000	63.254666  
1352.000000	63.254594  
1351.000000	63.255810  
1350.000000	63.259720  
1349.000000	63.267564  
1348.000000	63.279962  
1347.000000	63.296556  
1346.000000	63.315963  
1345.000000	63.335847  
1344.000000	63.353443  
1343.000000	63.366150  
1342.000000	63.372302  
1341.000000	63.371467  
1340.000000	63.364791  
1339.000000	63.354587  
1338.000000	63.343954  
1337.000000	63.335895  
1336.000000	63.332653  
1335.000000	63.335037  
1334.000000	63.342261  
1333.000000	63.352179  
1332.000000	63.361907  
1331.000000	63.368558  
1330.000000	63.370060  
1329.000000	63.365626  
1328.000000	63.355994  
1327.000000	63.343143  
1326.000000	63.329625  
1325.000000	63.318061  
1324.000000	63.310313  
1323.000000	63.307094  
1322.000000	63.308119  
1321.000000	63.312029  
1320.000000	63.316941  
1319.000000	63.321113  
1318.000000	63.323116  
1317.000000	63.322353  
1316.000000	63.318896  
1315.000000	63.313579  
1314.000000	63.307547  
1313.000000	63.301849  
1312.000000	63.297176  
1311.000000	63.293838  
1310.000000	63.291597  
1309.000000	63.289952  
1308.000000	63.288068  
1307.000000	63.285160  
1306.000000	63.280630  
1305.000000	63.274025  
1304.000000	63.265275  
1303.000000	63.254690  
1302.000000	63.242769  
1301.000000	63.230299  
1300.000000	63.218045  
1299.000000	63.206839  
1298.000000	63.197112  
1297.000000	63.189053  
1296.000000	63.182258  
1295.000000	63.176178  
1294.000000	63.169860  
1293.000000	63.162398  
1292.000000	63.153147  
1291.000000	63.142085  
1290.000000	63.129639  
1289.000000	63.117027  
1288.000000	63.105869  
1287.000000	63.097882  
1286.000000	63.094377  
1285.000000	63.096094  
1284.000000	63.102793  
1283.000000	63.113284  
1282.000000	63.125729  
1281.000000	63.137817  
1280.000000	63.147449  
1279.000000	63.153100  
1278.000000	63.154101  
1277.000000	63.150715  
1276.000000	63.144016  
1275.000000	63.135528  
1274.000000	63.126707  
1273.000000	63.118791  
1272.000000	63.112258  
1271.000000	63.107132  
1270.000000	63.102793  
1269.000000	63.098287  
1268.000000	63.092732  
1267.000000	63.085627  
1266.000000	63.076972  
1265.000000	63.067412  
1264.000000	63.058066  
1263.000000	63.050222  
1262.000000	63.044977  
1261.000000	63.042926  
1260.000000	63.043951  
1259.000000	63.047409  
1258.000000	63.052105  
1257.000000	63.056612  
1256.000000	63.059782  
1255.000000	63.061094  
1254.000000	63.060498  
1253.000000	63.058423  
1252.000000	63.055586  
1251.000000	63.052773  
1250.000000	63.050317  
1249.000000	63.048171  
1248.000000	63.045835  
1247.000000	63.042473  
1246.000000	63.037347  
1245.000000	63.029909  
1244.000000	63.020181  
1243.000000	63.008761  
1242.000000	62.996840  
1241.000000	62.985634  
1240.000000	62.976479  
1239.000000	62.970280  
1238.000000	62.967324  
1237.000000	62.967348  
1236.000000	62.969636  
1235.000000	62.973332  
1234.000000	62.977671  
1233.000000	62.982344  
1232.000000	62.987542  
1231.000000	62.993860  
1230.000000	63.002133  
1229.000000	63.013052  
1228.000000	63.026809  
1227.000000	63.043045  
1226.000000	63.060688  
1225.000000	63.078212  
1224.000000	63.093948  
1223.000000	63.106465  
1222.000000	63.114786  
1221.000000	63.118696  
1220.000000	63.118791  
1219.000000	63.115954  
1218.000000	63.111424  
1217.000000	63.106226  
1216.000000	63.101124  
1215.000000	63.096594  
1214.000000	63.092827  
1213.000000	63.089823  
1212.000000	63.087654  
1211.000000	63.086533  
1210.000000	63.086795  
1209.000000	63.088655  
1208.000000	63.092255  
1207.000000	63.097381  
1206.000000	63.103294  
1205.000000	63.108921  
1204.000000	63.112998  
1203.000000	63.114476  
1202.000000	63.112568  
1201.000000	63.107156  
1200.000000	63.098955  
1199.000000	63.089346  
1198.000000	63.080239  
1197.000000	63.073539  
1196.000000	63.070821  
1195.000000	63.072991  
1194.000000	63.080120  
1193.000000	63.091111  
1192.000000	63.104128  
1191.000000	63.116717  
1190.000000	63.126134  
1189.000000	63.130068  
1188.000000	63.126897  
1187.000000	63.116002  
1186.000000	63.097810  
1185.000000	63.074016  
1184.000000	63.047027  
1183.000000	63.019609  
1182.000000	62.994456  
1181.000000	62.973546  
1180.000000	62.957859  
1179.000000	62.947154  
1178.000000	62.940144  
1177.000000	62.934756  
1176.000000	62.928628  
1175.000000	62.919664  
1174.000000	62.906694  
1173.000000	62.889528  
1172.000000	62.869286  
1171.000000	62.847900  
1170.000000	62.827849  
1169.000000	62.811303  
1168.000000	62.800002  
1167.000000	62.794709  
1166.000000	62.795233  
1165.000000	62.800836  
1164.000000	62.810301  
1163.000000	62.822413  
1162.000000	62.836050  
1161.000000	62.850022  
1160.000000	62.863373  
1159.000000	62.874984  
1158.000000	62.883830  
1157.000000	62.888932  
1156.000000	62.889671  
1155.000000	62.886023  
1154.000000	62.878608  
1153.000000	62.868595  
1152.000000	62.857675  
1151.000000	62.847685  
1150.000000	62.840414  
1149.000000	62.837052  
1148.000000	62.838268  
1147.000000	62.843990  
1146.000000	62.853646  
1145.000000	62.866210  
1144.000000	62.880349  
1143.000000	62.894749  
1142.000000	62.908172  
1141.000000	62.919592  
1140.000000	62.928390  
1139.000000	62.934327  
1138.000000	62.937402  
1137.000000	62.937951  
1136.000000	62.936592  
1135.000000	62.934350  
1134.000000	62.932324  
1133.000000	62.931656  
1132.000000	62.933373  
1131.000000	62.937760  
1130.000000	62.944459  
1129.000000	62.952399  
1128.000000	62.959766  
1127.000000	62.964844  
1126.000000	62.966251  
1125.000000	62.963318  
1124.000000	62.956213  
1123.000000	62.945437  
1122.000000	62.931632  
1121.000000	62.915277  
1120.000000	62.896537  
1119.000000	62.875938  
1118.000000	62.854552  
1117.000000	62.834382  
1116.000000	62.818264  
1115.000000	62.809157  
1114.000000	62.809729  
1113.000000	62.821149  
1112.000000	62.843060  
1111.000000	62.873435  
1110.000000	62.908935  
1109.000000	62.945604  
1108.000000	62.979459  
1107.000000	63.007187  
1106.000000	63.026595  
1105.000000	63.036727  
1104.000000	63.038158  
1103.000000	63.032579  
1102.000000	63.022398  
1101.000000	63.010501  
1100.000000	62.999200  
1099.000000	62.990212  
1098.000000	62.984037  
1097.000000	62.980270  
1096.000000	62.977552  
1095.000000	62.974286  
1094.000000	62.968897  
1093.000000	62.960314  
1092.000000	62.948083  
1091.000000	62.932634  
1090.000000	62.915015  
1089.000000	62.896656  
1088.000000	62.879085  
1087.000000	62.863516  
1086.000000	62.850570  
1085.000000	62.840533  
1084.000000	62.833142  
1083.000000	62.828087  
1082.000000	62.825036  
1081.000000	62.823796  
1080.000000	62.824296  
1079.000000	62.826728  
1078.000000	62.831211  
1077.000000	62.837862  
1076.000000	62.846374  
1075.000000	62.856006  
1074.000000	62.865853  
1073.000000	62.874603  
1072.000000	62.880778  
1071.000000	62.882995  
1070.000000	62.880229  
1069.000000	62.871932  
1068.000000	62.858176  
1067.000000	62.839818  
1066.000000	62.818169  
1065.000000	62.795042  
1064.000000	62.772297  
1063.000000	62.751579  
1062.000000	62.733983  
1061.000000	62.719869  
1060.000000	62.709116  
1059.000000	62.701010  
1058.000000	62.694931  
1057.000000	62.690496  
1056.000000	62.688350  
1055.000000	62.689781  
1054.000000	62.697076  
1053.000000	62.712574  
1052.000000	62.738537  
1051.000000	62.776041  
1050.000000	62.824821  
1049.000000	62.882900  
1048.000000	62.946701  
1047.000000	63.011479  
1046.000000	63.071727  
1045.000000	63.122320  
1044.000000	63.158822  
1043.000000	63.178515  
1042.000000	63.180375  
1041.000000	63.165187  
1040.000000	63.135576  
1039.000000	63.095331  
1038.000000	63.049030  
1037.000000	63.001298  
1036.000000	62.956428  
1035.000000	62.917900  
1034.000000	62.887907  
1033.000000	62.867450  
1032.000000	62.856221  
1031.000000	62.853074  
1030.000000	62.856173  
1029.000000	62.863659  
1028.000000	62.873411  
1027.000000	62.883758  
1026.000000	62.893080  
1025.000000	62.900233  
1024.000000	62.904047  
1023.000000	62.903761  
1022.000000	62.899136  
1021.000000	62.890458  
1020.000000	62.878489  
1019.000000	62.864565  
1018.000000	62.850570  
1017.000000	62.838244  
1016.000000	62.829017  
1015.000000	62.823772  
1014.000000	62.822651  
1013.000000	62.825036  
1012.000000	62.829780  
1011.000000	62.835478  
1010.000000	62.840890  
1009.000000	62.845158  
1008.000000	62.848019  
1007.000000	62.849640  
1006.000000	62.850236  
1005.000000	62.850236  
1004.000000	62.849664  
1003.000000	62.848162  
1002.000000	62.844777  
1001.000000	62.838721  
1000.000000	62.829232  
999.000000	 62.816119  
998.000000	 62.799835  
997.000000	 62.781524  
996.000000	 62.762856  
995.000000	 62.745714  
994.000000	 62.731790  
993.000000	 62.722134  
992.000000	 62.717437  
991.000000	 62.717723  
990.000000	 62.722849  
989.000000	 62.732458  
988.000000	 62.746381  
987.000000	 62.764406  
986.000000	 62.786364  
985.000000	 62.811660  
984.000000	 62.839102  
983.000000	 62.866806  
982.000000	 62.892389  
981.000000	 62.913060  
980.000000	 62.926530  
979.000000	 62.931156  
978.000000	 62.926626  
977.000000	 62.913918  
976.000000	 62.895178  
975.000000	 62.873220  
974.000000	 62.851047  
973.000000	 62.831282  
972.000000	 62.815809  
971.000000	 62.805414  
970.000000	 62.800097  
969.000000	 62.799406  
968.000000	 62.802362  
967.000000	 62.808251  
966.000000	 62.816405  
965.000000	 62.826561  
964.000000	 62.838363  
963.000000	 62.851381  
962.000000	 62.864971  
961.000000	 62.878084  
960.000000	 62.889385  
959.000000	 62.897396  
958.000000	 62.900805  
957.000000	 62.898683  
956.000000	 62.890672  
955.000000	 62.877035  
954.000000	 62.858796  
953.000000	 62.837648  
952.000000	 62.815737  
951.000000	 62.795257  
950.000000	 62.778234  
949.000000	 62.766289  
948.000000	 62.760472  
947.000000	 62.760686  
946.000000	 62.766122  
945.000000	 62.775492  
944.000000	 62.787079  
943.000000	 62.799191  
942.000000	 62.810468  
941.000000	 62.819910  
940.000000	 62.827086  
939.000000	 62.832164  
938.000000	 62.835693  
937.000000	 62.838244  
936.000000	 62.840414  
935.000000	 62.842607  
934.000000	 62.845158  
933.000000	 62.848353  
932.000000	 62.852382  
931.000000	 62.857317  
930.000000	 62.862920  
929.000000	 62.868785  
928.000000	 62.874007  
927.000000	 62.877321  
926.000000	 62.877488  
925.000000	 62.873411  
924.000000	 62.864375  
923.000000	 62.850093  
922.000000	 62.830877  
921.000000	 62.807607  
920.000000	 62.781643  
919.000000	 62.754964  
918.000000	 62.730002  
917.000000	 62.709450  
916.000000	 62.696194  
915.000000	 62.692761  
914.000000	 62.701010  
913.000000	 62.721252  
912.000000	 62.752342  
911.000000	 62.790822  
910.000000	 62.831783  
909.000000	 62.869024  
908.000000	 62.896370  
907.000000	 62.908935  
906.000000	 62.903952  
905.000000	 62.881517  
904.000000	 62.844634  
903.000000	 62.798047  
902.000000	 62.747335  
901.000000	 62.697792  
900.000000	 62.653565  
899.000000	 62.617039  
898.000000	 62.588930  
897.000000	 62.569022  
896.000000	 62.556672  
895.000000	 62.551188  
894.000000	 62.552261  
893.000000	 62.559580  
892.000000	 62.572908  
891.000000	 62.591409  
890.000000	 62.613868  
889.000000	 62.638139  
888.000000	 62.661695  
887.000000	 62.682032  
886.000000	 62.697219  
885.000000	 62.706279  
884.000000	 62.709450  
883.000000	 62.707996  
882.000000	 62.703609  
881.000000	 62.698411  
880.000000	 62.694025  
879.000000	 62.691569  
878.000000	 62.691545  
877.000000	 62.693858  
876.000000	 62.698197  
875.000000	 62.704324  
874.000000	 62.712335  
873.000000	 62.722539  
872.000000	 62.735342  
871.000000	 62.750673  
870.000000	 62.768077  
869.000000	 62.786173  
868.000000	 62.802648  
867.000000	 62.814521  
866.000000	 62.818908  
865.000000	 62.813735  
864.000000	 62.798118  
863.000000	 62.773060  
862.000000	 62.741231  
861.000000	 62.706661  
860.000000	 62.673997  
859.000000	 62.647509  
858.000000	 62.630224  
857.000000	 62.623500  
856.000000	 62.626886  
855.000000	 62.638449  
854.000000	 62.655258  
853.000000	 62.674379  
852.000000	 62.693524  
851.000000	 62.711644  
850.000000	 62.728691  
849.000000	 62.745308  
848.000000	 62.762236  
847.000000	 62.779808  
846.000000	 62.797474  
845.000000	 62.813782  
844.000000	 62.826681  
843.000000	 62.834215  
842.000000	 62.834882  
841.000000	 62.828278  
840.000000	 62.815237  
839.000000	 62.797617  
838.000000	 62.777781  
837.000000	 62.758183  
836.000000	 62.740516  
835.000000	 62.725496  
834.000000	 62.712454  
833.000000	 62.699508  
832.000000	 62.684440  
831.000000	 62.665295  
830.000000	 62.641453  
829.000000	 62.613701  
828.000000	 62.584805  
827.000000	 62.558865  
826.000000	 62.540245  
825.000000	 62.532258  
824.000000	 62.536549  
823.000000	 62.552404  
822.000000	 62.577486  
821.000000	 62.608098  
820.000000	 62.640380  
819.000000	 62.670803  
818.000000	 62.696695  
817.000000	 62.716436  
816.000000	 62.729167  
815.000000	 62.734484  
814.000000	 62.732315  
813.000000	 62.722754  
812.000000	 62.706017  
811.000000	 62.682819  
810.000000	 62.654590  
809.000000	 62.623453  
808.000000	 62.592053  
807.000000	 62.563872  
806.000000	 62.542438  
805.000000	 62.531256  
804.000000	 62.532830  
803.000000	 62.548542  
802.000000	 62.578320  
801.000000	 62.620496  
800.000000	 62.671899  
799.000000	 62.728214  
798.000000	 62.784433  
797.000000	 62.835431  
796.000000	 62.876796  
795.000000	 62.905573  
794.000000	 62.920570  
793.000000	 62.922763  
792.000000	 62.914967  
791.000000	 62.901186  
790.000000	 62.885785  
789.000000	 62.872624  
788.000000	 62.864232  
787.000000	 62.861800  
786.000000	 62.864398  
785.000000	 62.870001  
784.000000	 62.875509  
783.000000	 62.877941  
782.000000	 62.874627  
781.000000	 62.863945  
780.000000	 62.845373  
779.000000	 62.819457  
778.000000	 62.787866  
777.000000	 62.752723  
776.000000	 62.716579  
775.000000	 62.681984  
774.000000	 62.651157  
773.000000	 62.625718  
772.000000	 62.606453  
771.000000	 62.593364  
770.000000	 62.585425  
769.000000	 62.580943  
768.000000	 62.578368  
767.000000	 62.576651  
766.000000	 62.575411  
765.000000	 62.574815  
764.000000	 62.575864  
763.000000	 62.579512  
762.000000	 62.586331  
761.000000	 62.595868  
760.000000	 62.606358  
759.000000	 62.615084  
758.000000	 62.619090  
757.000000	 62.615776  
756.000000	 62.603807  
755.000000	 62.583160  
754.000000	 62.555980  
753.000000	 62.525653  
752.000000	 62.496089  
751.000000	 62.470865  
750.000000	 62.452340  
749.000000	 62.441086  
748.000000	 62.436103  
747.000000	 62.435007  
746.000000	 62.434983  
745.000000	 62.433195  
744.000000	 62.427520  
743.000000	 62.416911  
742.000000	 62.401533  
741.000000	 62.382698  
740.000000	 62.362742  
739.000000	 62.344169  
738.000000	 62.329626  
737.000000	 62.321496  
736.000000	 62.321591  
735.000000	 62.330985  
734.000000	 62.349867  
733.000000	 62.377452  
732.000000	 62.411999  
731.000000	 62.451076  
730.000000	 62.491583  
729.000000	 62.530183  
728.000000	 62.563824  
727.000000	 62.589955  
726.000000	 62.607002  
725.000000	 62.614393  
724.000000	 62.612867  
723.000000	 62.604379  
722.000000	 62.591695  
721.000000	 62.577939  
720.000000	 62.565898  
719.000000	 62.558078  
718.000000	 62.555336  
717.000000	 62.556982  
716.000000	 62.560582  
715.000000	 62.562584  
714.000000	 62.559032  
713.000000	 62.546682  
712.000000	 62.523722  
711.000000	 62.490296  
710.000000	 62.449121  
709.000000	 62.404847  
708.000000	 62.363338  
707.000000	 62.330055  
706.000000	 62.308478  
705.000000	 62.299466  
704.000000	 62.300753  
703.000000	 62.307977  
702.000000	 62.316179  
701.000000	 62.321162  
700.000000	 62.320399  
699.000000	 62.314319  
698.000000	 62.305641  
697.000000	 62.298989  
696.000000	 62.298941  
695.000000	 62.309503  
694.000000	 62.332797  
693.000000	 62.368464  
692.000000	 62.413763  
691.000000	 62.463140  
690.000000	 62.509274  
689.000000	 62.543916  
688.000000	 62.559723  
687.000000	 62.551569  
686.000000	 62.518000  
685.000000	 62.461853  
684.000000	 62.390375  
683.000000	 62.313818  
682.000000	 62.243533  
681.000000	 62.190270  
680.000000	 62.161612  
679.000000	 62.160730  
678.000000	 62.185239  
677.000000	 62.228274  
676.000000	 62.279677  
675.000000	 62.327861  
674.000000	 62.362861  
673.000000	 62.377452  
672.000000	 62.369775  
671.000000	 62.342858  
670.000000	 62.304282  
669.000000	 62.263727  
668.000000	 62.230920  
667.000000	 62.213039  
666.000000	 62.213063  
665.000000	 62.229490  
664.000000	 62.256789  
663.000000	 62.287163  
662.000000	 62.312674  
661.000000	 62.327527  
660.000000	 62.329602  
659.000000	 62.320947  
658.000000	 62.306785  
657.000000	 62.294340  
656.000000	 62.291026  
655.000000	 62.302017  
654.000000	 62.329697  
653.000000	 62.372112  
652.000000	 62.423992  
651.000000	 62.477421  
650.000000	 62.524151  
649.000000	 62.556886  
648.000000	 62.570643  
647.000000	 62.564063  
646.000000	 62.538909  
645.000000	 62.500357  
644.000000	 62.455773  
643.000000	 62.413048  
642.000000	 62.379479  
641.000000	 62.359857  
640.000000	 62.356352  
639.000000	 62.367677  
638.000000	 62.390112  
637.000000	 62.418150  
636.000000	 62.445950  
635.000000	 62.468552  
634.000000	 62.482571  
633.000000	 62.487196  
632.000000	 62.483716  
631.000000	 62.474822  
630.000000	 62.463641  
629.000000	 62.453103  
628.000000	 62.445068  
627.000000	 62.440204  
626.000000	 62.437629  
625.000000	 62.436175  
624.000000	 62.433910  
623.000000	 62.429308  
622.000000	 62.420988  
621.000000	 62.408137  
620.000000	 62.390518  
619.000000	 62.367868  
618.000000	 62.340903  
617.000000	 62.311601  
616.000000	 62.283086  
615.000000	 62.258863  
614.000000	 62.242627  
613.000000	 62.237477  
612.000000	 62.244415  
611.000000	 62.261962  
610.000000	 62.286067  
609.000000	 62.310695  
608.000000	 62.329149  
607.000000	 62.335753  
606.000000	 62.327289  
605.000000	 62.303757  
604.000000	 62.268948  
603.000000	 62.229013  
602.000000	 62.190771  
601.000000	 62.159705  
600.000000	 62.138748  
599.000000	 62.127280  
598.000000	 62.121796  
597.000000	 62.116551  
596.000000	 62.106037  
595.000000	 62.085437  
594.000000	 62.052297  
593.000000	 62.006139  
592.000000	 61.948537  
591.000000	 61.882138  
590.000000	 61.810111  
589.000000	 61.735177  
588.000000	 61.659049  
587.000000	 61.582970  
586.000000	 61.507678  
585.000000	 61.434698  
584.000000	 61.366295  
583.000000	 61.306524  
582.000000	 61.260461  
581.000000	 61.233973  
580.000000	 61.232233  
579.000000	 61.259055  
578.000000	 61.315655  
577.000000	 61.399483  
576.000000	 61.504077  
575.000000	 61.620259  
574.000000	 61.737442  
573.000000	 61.844563  
572.000000	 61.932516  
571.000000	 61.995458  
570.000000	 62.031364  
569.000000	 62.042927  
568.000000	 62.034869  
567.000000	 62.012672  
566.000000	 61.980581  
565.000000	 61.942076  
564.000000	 61.898112  
563.000000	 61.847758  
562.000000	 61.789798  
561.000000	 61.724853  
560.000000	 61.655807  
559.000000	 61.588072  
558.000000	 61.529254  
557.000000	 61.487817  
556.000000	 61.469483  
555.000000	 61.474943  
554.000000	 61.499834  
553.000000	 61.535191  
552.000000	 61.568284  
551.000000	 61.585426  
550.000000	 61.574697  
549.000000	 61.528778  
548.000000	 61.446213  
547.000000	 61.332941  
546.000000	 61.198711  
545.000000	 61.058163  
544.000000	 60.927724  
543.000000	 60.825037  
542.000000	 60.765480  
541.000000	 60.760712  
540.000000	 60.817170  
539.000000	 60.934019  
538.000000	 61.101913  
537.000000	 61.304640  
536.000000	 61.520266  
535.000000	 61.726260  
534.000000	 61.901092  
533.000000	 62.032008  
532.000000	 62.115120  
531.000000	 62.159681  
530.000000	 62.184476  
529.000000	 62.214350  
528.000000	 62.273168  
527.000000	 62.376594  
526.000000	 62.526917  
525.000000	 62.708520  
524.000000	 62.890458  
523.000000	 63.033056  
522.000000	 63.098359  
521.000000	 63.060355  
520.000000	 62.913322  
519.000000	 62.676429  
518.000000	 62.388920  
517.000000	 62.100863  
516.000000	 61.860394  
515.000000	 61.702871  
514.000000	 61.641454  
513.000000	 61.665415  
512.000000	 61.744403  
511.000000	 61.838698  
510.000000	 61.910152  
509.000000	 61.932754  
508.000000	 61.899137  
507.000000	 61.819434  
506.000000	 61.718606  
505.000000	 61.626577  
504.000000	 61.568927  
503.000000	 61.557173  
502.000000	 61.588740  
501.000000	 61.648631  
500.000000	 61.714386  
499.000000	 61.764168  
498.000000	 61.783742  
497.000000	 61.771464  
496.000000	 61.738038  
495.000000	 61.704301  
494.000000	 61.693859  
493.000000	 61.727333  
492.000000	 61.816549  
491.000000	 61.961340  
490.000000	 62.149214  
489.000000	 62.358188  
488.000000	 62.563586  
487.000000	 62.742376  
486.000000	 62.878537  
485.000000	 62.965226  
484.000000	 63.006615  
483.000000	 63.012552  
482.000000	 62.996029  
481.000000	 62.966322  
480.000000	 62.926673  
479.000000	 62.873053  
478.000000	 62.799382  
477.000000	 62.696337  
476.000000	 62.557077  
475.000000	 62.380528  
474.000000	 62.174582  
473.000000	 61.956048  
472.000000	 61.748719  
471.000000	 61.580657  
470.000000	 61.478781  
469.000000	 61.464524  
468.000000	 61.549282  
467.000000	 61.729907  
466.000000	 61.989855  
465.000000	 62.300419  
464.000000	 62.627959  
463.000000	 62.940073  
462.000000	 63.211202  
461.000000	 63.427329  
460.000000	 63.583374  
459.000000	 63.684654  
458.000000	 63.735437  
457.000000	 63.740348  
456.000000	 63.692259  
455.000000	 63.576960  
454.000000	 63.372278  
453.000000	 63.061261  
452.000000	 62.635421  
451.000000	 62.103486  
450.000000	 61.495327  
449.000000	 60.861635  
448.000000	 60.264348  
447.000000	 59.765458  
446.000000	 59.415555  
445.000000	 59.243965  
444.000000	 59.258913  
443.000000	 59.447407  
442.000000	 59.777760  
441.000000	 60.205769  
440.000000	 60.683465  
439.000000	 61.164450  
438.000000	 61.601638  
437.000000	 61.955428  
436.000000	 62.195730  
435.000000	 62.307643  
434.000000	 62.287998  
433.000000	 62.151813  
432.000000	 61.929345  
431.000000	 61.665821  
430.000000	 61.413526  
429.000000	 61.227774  
428.000000	 61.159062  
427.000000	 61.243820  
426.000000	 61.502146  
425.000000	 61.925673  
424.000000	 62.476944  
423.000000	 63.096404  
422.000000	 63.716292  
421.000000	 64.262104  
420.000000	 64.663934  
419.000000	 64.870214  
418.000000	 64.854931  
417.000000	 64.610481  
416.000000	 64.145803  
415.000000	 63.487172  
414.000000	 62.671995  
413.000000	 61.746096  
412.000000	 60.759687  
411.000000	 59.762978  
410.000000	 58.805561  
409.000000	 57.946085  
408.000000	 57.238936  
407.000000	 56.719589  
406.000000	 56.405973  
405.000000	 56.285381  
404.000000	 56.332588  
403.000000	 56.497907  
402.000000	 56.745123  
401.000000	 57.040715  
400.000000	 57.388997  
399.000000	 57.821011  
398.000000	 58.390045  
397.000000	 59.135913  
396.000000	 60.087919  
395.000000	 61.247539  
394.000000	 62.573909  
393.000000	 63.979768  
392.000000	 65.367698  
391.000000	 66.645288  
390.000000	 67.742252  
389.000000	 68.609881  
388.000000	 69.222307  
387.000000	 69.555330  
386.000000	 69.572448  
385.000000	 69.217634  
384.000000	 68.431115  
383.000000	 67.172312  
382.000000	 65.437650  
381.000000	 63.302922  
380.000000	 60.936117  
379.000000	 58.593416  
378.000000	 56.585383  
377.000000	 55.221533  
376.000000	 54.710626  
375.000000	 55.162692  
374.000000	 56.537461  
373.000000	 58.703446  
372.000000	 61.420297  
371.000000	 64.478063  
370.000000	 67.726588  

