PE IR       SPECTRUM    SPECTRUM    ASCII       PEDS        1.60        
  -1
BZ6C23~1.ASC
17/04/07
15:14:28.00
17/04/07
15:14:28.00
tln
$BZ1503107-1_t0024$<tbV0>[10.4,-7.8,8.0,0.0,27,1,0]
370.000000
64









2002,4.07    
MIRTGS : RIGHTBACK : INTERNAL 2
MIR : ON : INTERNAL 2
OPTKBR

0.200000
8
8.000000
FILLER
RATIO
SPECTRUM
UNLOCKED 256

DOUBLE
64
COMBINED
1
0
0


1.000000
RATIO


1
0
TRUE
51149
0
LEFT NOT FITTED RIGHT NOT FITTED 0
NONE
NONE
15600
12.000000
4.427000
51148
TRUE
1 0 8 72 0 0 0 0 

15798.010000






#HDR
-1
-1
#GR
CM-1
%T
0.00002384185791015625
0.0
5000.000000
-1.000000
4631
8
89.618158
39.993166
#DATA
5000.000000	65.631961 
4999.000000	65.417909 
4998.000000	65.180850 
4997.000000	64.944148 
4996.000000	64.728260 
4995.000000	64.548492 
4994.000000	64.413714 
4993.000000	64.326739 
4992.000000	64.285492 
4991.000000	64.285111 
4990.000000	64.318585 
4989.000000	64.377593 
4988.000000	64.453196 
4987.000000	64.535617 
4986.000000	64.614629 
4985.000000	64.679002 
4984.000000	64.720249 
4983.000000	64.733624 
4982.000000	64.719533 
4981.000000	64.683365 
4980.000000	64.635300 
4979.000000	64.587426 
4978.000000	64.550900 
4977.000000	64.532852 
4976.000000	64.534401 
4975.000000	64.550638 
4974.000000	64.572000 
4973.000000	64.587998 
4972.000000	64.590263 
4971.000000	64.576077 
4970.000000	64.549231 
4969.000000	64.519047 
4968.000000	64.496731 
4967.000000	64.492559 
4966.000000	64.512348 
4965.000000	64.555501 
4964.000000	64.614677 
4963.000000	64.677548 
4962.000000	64.730763 
4961.000000	64.761781 
4960.000000	64.762282 
4959.000000	64.729332 
4958.000000	64.666056 
4957.000000	64.580249 
4956.000000	64.482688 
4955.000000	64.385104 
4954.000000	64.298129 
4953.000000	64.230298 
4952.000000	64.187312 
4951.000000	64.171695 
4950.000000	64.183521 
4949.000000	64.220690 
4948.000000	64.280056 
4947.000000	64.357042 
4946.000000	64.446997 
4945.000000	64.545226 
4944.000000	64.646553 
4943.000000	64.745783 
4942.000000	64.835882 
4941.000000	64.908504 
4940.000000	64.953708 
4939.000000	64.961743 
4938.000000	64.925551 
4937.000000	64.843153 
4936.000000	64.719748 
4935.000000	64.568376 
4934.000000	64.408254 
4933.000000	64.261698 
4932.000000	64.150071 
4931.000000	64.089608 
4930.000000	64.088487 
4929.000000	64.145255 
4928.000000	64.249253 
4927.000000	64.382767 
4926.000000	64.524626 
4925.000000	64.654302 
4924.000000	64.755249 
4923.000000	64.817595 
4922.000000	64.837932 
4921.000000	64.820027 
4920.000000	64.772224 
4919.000000	64.706182 
4918.000000	64.634633 
4917.000000	64.568519 
4916.000000	64.517211 
4915.000000	64.485263 
4914.000000	64.473557 
4913.000000	64.478564 
4912.000000	64.493989 
4911.000000	64.512681 
4910.000000	64.528536 
4909.000000	64.538025 
4908.000000	64.540672 
4907.000000	64.538788 
4906.000000	64.535784 
4905.000000	64.534831 
4904.000000	64.537286 
4903.000000	64.542245 
4902.000000	64.546465 
4901.000000	64.546060 
4900.000000	64.537882 
4899.000000	64.520978 
4898.000000	64.497303 
4897.000000	64.471554 
4896.000000	64.449906 
4895.000000	64.438199 
4894.000000	64.440631 
4893.000000	64.457392 
4892.000000	64.485812 
4891.000000	64.521241 
4890.000000	64.558839 
4889.000000	64.595198 
4888.000000	64.629554 
4887.000000	64.663195 
4886.000000	64.699578 
4885.000000	64.742374 
4884.000000	64.794778 
4883.000000	64.858055 
4882.000000	64.930605 
4881.000000	65.008687 
4880.000000	65.085673 
4879.000000	65.153980 
4878.000000	65.205359 
4877.000000	65.233063 
4876.000000	65.232396 
4875.000000	65.202212 
4874.000000	65.145134 
4873.000000	65.067553 
4872.000000	64.978480 
4871.000000	64.888215 
4870.000000	64.807033 
4869.000000	64.743351 
4868.000000	64.702677 
4867.000000	64.687108 
4866.000000	64.695382 
4865.000000	64.723968 
4864.000000	64.768171 
4863.000000	64.823174 
4862.000000	64.884757 
4861.000000	64.949178 
4860.000000	65.012884 
4859.000000	65.072011 
4858.000000	65.121507 
4857.000000	65.156197 
4856.000000	65.171527 
4855.000000	65.164494 
4854.000000	65.134859 
4853.000000	65.085792 
4852.000000	65.024113 
4851.000000	64.958739 
4850.000000	64.899349 
4849.000000	64.854335 
4848.000000	64.829158 
4847.000000	64.825201 
4846.000000	64.839696 
4845.000000	64.867162 
4844.000000	64.900922 
4843.000000	64.934635 
4842.000000	64.963769 
4841.000000	64.986085 
4840.000000	65.001797 
4839.000000	65.012621 
4838.000000	65.021228 
4837.000000	65.030026 
4836.000000	65.040421 
4835.000000	65.053009 
4834.000000	65.066742 
4833.000000	65.079498 
4832.000000	65.088105 
4831.000000	65.089368 
4830.000000	65.080714 
4829.000000	65.060830 
4828.000000	65.030384 
4827.000000	64.991927 
4826.000000	64.949941 
4825.000000	64.909958 
4824.000000	64.877724 
4823.000000	64.857864 
4822.000000	64.852380 
4821.000000	64.860105 
4820.000000	64.877009 
4819.000000	64.897131 
4818.000000	64.913630 
4817.000000	64.920735 
4816.000000	64.915060 
4815.000000	64.896535 
4814.000000	64.867877 
4813.000000	64.834427 
4812.000000	64.801764 
4811.000000	64.775347 
4810.000000	64.759397 
4809.000000	64.756536 
4808.000000	64.767360 
4807.000000	64.790868 
4806.000000	64.824962 
4805.000000	64.866685 
4804.000000	64.912796 
4803.000000	64.959979 
4802.000000	65.004849 
4801.000000	65.044856 
4800.000000	65.077805 
4799.000000	65.103220 
4798.000000	65.121626 
4797.000000	65.135383 
4796.000000	65.148067 
4795.000000	65.163278 
4794.000000	65.183615 
4793.000000	65.210127 
4792.000000	65.241718 
4791.000000	65.274953 
4790.000000	65.304541 
4789.000000	65.324759 
4788.000000	65.330505 
4787.000000	65.318179 
4786.000000	65.286850 
4785.000000	65.238237 
4784.000000	65.177011 
4783.000000	65.109682 
4782.000000	65.043950 
4781.000000	64.987373 
4780.000000	64.946126 
4779.000000	64.924168 
4778.000000	64.922523 
4777.000000	64.939141 
4776.000000	64.969873 
4775.000000	65.009474 
4774.000000	65.052795 
4773.000000	65.095019 
4772.000000	65.133810 
4771.000000	65.169119 
4770.000000	65.203142 
4769.000000	65.238904 
4768.000000	65.279436 
4767.000000	65.326547 
4766.000000	65.379953 
4765.000000	65.436911 
4764.000000	65.493083 
4763.000000	65.543413 
4762.000000	65.583562 
4761.000000	65.610837 
4760.000000	65.625071 
4759.000000	65.628385 
4758.000000	65.624880 
4757.000000	65.619301 
4756.000000	65.616512 
4755.000000	65.619206 
4754.000000	65.628457 
4753.000000	65.641736 
4752.000000	65.654540 
4751.000000	65.660500 
4750.000000	65.653586 
4749.000000	65.629076 
4748.000000	65.584826 
4747.000000	65.522336 
4746.000000	65.446877 
4745.000000	65.366768 
4744.000000	65.291309 
4743.000000	65.229320 
4742.000000	65.187287 
4741.000000	65.167808 
4740.000000	65.169262 
4739.000000	65.186142 
4738.000000	65.210604 
4737.000000	65.235352 
4736.000000	65.255117 
4735.000000	65.267610 
4734.000000	65.273523 
4733.000000	65.275931 
4732.000000	65.278625 
4731.000000	65.283632 
4730.000000	65.290808 
4729.000000	65.297627 
4728.000000	65.300345 
4727.000000	65.294933 
4726.000000	65.279483 
4725.000000	65.254855 
4724.000000	65.225768 
4723.000000	65.199303 
4722.000000	65.184473 
4721.000000	65.189385 
4720.000000	65.220117 
4719.000000	65.278649 
4718.000000	65.362834 
4717.000000	65.466594 
4716.000000	65.581107 
4715.000000	65.696310 
4714.000000	65.801715 
4713.000000	65.887808 
4712.000000	65.946769 
4711.000000	65.973424 
4710.000000	65.965318 
4709.000000	65.922665 
4708.000000	65.849256 
4707.000000	65.751314 
4706.000000	65.637373 
4705.000000	65.516805 
4704.000000	65.399289 
4703.000000	65.293145 
4702.000000	65.204858 
4701.000000	65.137887 
4700.000000	65.092754 
4699.000000	65.067291 
4698.000000	65.056872 
4697.000000	65.055990 
4696.000000	65.058612 
4695.000000	65.060210 
4694.000000	65.057659 
4693.000000	65.050363 
4692.000000	65.039110 
4691.000000	65.026354 
4690.000000	65.014839 
4689.000000	65.007019 
4688.000000	65.004038 
4687.000000	65.005993 
4686.000000	65.011978 
4685.000000	65.020155 
4684.000000	65.028572 
4683.000000	65.035843 
4682.000000	65.041565 
4681.000000	65.046119 
4680.000000	65.050363 
4679.000000	65.055227 
4678.000000	65.061306 
4677.000000	65.068483 
4676.000000	65.076088 
4675.000000	65.082883 
4674.000000	65.087699 
4673.000000	65.090250 
4672.000000	65.091300 
4671.000000	65.092515 
4670.000000	65.096426 
4669.000000	65.105748 
4668.000000	65.122485 
4667.000000	65.147161 
4666.000000	65.178418 
4665.000000	65.213179 
4664.000000	65.246939 
4663.000000	65.274834 
4662.000000	65.292501 
4661.000000	65.297079 
4660.000000	65.287709 
4659.000000	65.266013 
4658.000000	65.235590 
4657.000000	65.201282 
4656.000000	65.168213 
4655.000000	65.140604 
4654.000000	65.121388 
4653.000000	65.111446 
4652.000000	65.110039 
4651.000000	65.114521 
4650.000000	65.121316 
4649.000000	65.126037 
4648.000000	65.124440 
4647.000000	65.113019 
4646.000000	65.089035 
4645.000000	65.051889 
4644.000000	65.003013 
4643.000000	64.945983 
4642.000000	64.885950 
4641.000000	64.828824 
4640.000000	64.780211 
4639.000000	64.743924 
4638.000000	64.721512 
4637.000000	64.711713 
4636.000000	64.711022 
4635.000000	64.714550 
4634.000000	64.717268 
4633.000000	64.715862 
4632.000000	64.709615 
4631.000000	64.700436 
4630.000000	64.692020 
4629.000000	64.688515 
4628.000000	64.693188 
4627.000000	64.707136 
4626.000000	64.728975 
4625.000000	64.754962 
4624.000000	64.779806 
4623.000000	64.798879 
4622.000000	64.808511 
4621.000000	64.807033 
4620.000000	64.794802 
4619.000000	64.773654 
4618.000000	64.746809 
4617.000000	64.718055 
4616.000000	64.691352 
4615.000000	64.669919 
4614.000000	64.655947 
4613.000000	64.650583 
4612.000000	64.653062 
4611.000000	64.661693 
4610.000000	64.672851 
4609.000000	64.681601 
4608.000000	64.682722 
4607.000000	64.671707 
4606.000000	64.646434 
4605.000000	64.607787 
4604.000000	64.560437 
4603.000000	64.511919 
4602.000000	64.471530 
4601.000000	64.448475 
4600.000000	64.449644 
4599.000000	64.477753 
4598.000000	64.531016 
4597.000000	64.602589 
4596.000000	64.682626 
4595.000000	64.758968 
4594.000000	64.819669 
4593.000000	64.854812 
4592.000000	64.857840 
4591.000000	64.827084 
4590.000000	64.765238 
4589.000000	64.679956 
4588.000000	64.581775 
4587.000000	64.483547 
4586.000000	64.398169 
4585.000000	64.336633 
4584.000000	64.306831 
4583.000000	64.310908 
4582.000000	64.345669 
4581.000000	64.402341 
4580.000000	64.468669 
4579.000000	64.531064 
4578.000000	64.577603 
4577.000000	64.600324 
4576.000000	64.596796 
4575.000000	64.570307 
4574.000000	64.528656 
4573.000000	64.482307 
4572.000000	64.441537 
4571.000000	64.414405 
4570.000000	64.404892 
4569.000000	64.412999 
4568.000000	64.434552 
4567.000000	64.463758 
4566.000000	64.493727 
4565.000000	64.518666 
4564.000000	64.534354 
4563.000000	64.538955 
4562.000000	64.532995 
4561.000000	64.517760 
4560.000000	64.496088 
4559.000000	64.471149 
4558.000000	64.446759 
4557.000000	64.426732 
4556.000000	64.414405 
4555.000000	64.412069 
4554.000000	64.420700 
4553.000000	64.439797 
4552.000000	64.467358 
4551.000000	64.500379 
4550.000000	64.535498 
4549.000000	64.569544 
4548.000000	64.600300 
4547.000000	64.626145 
4546.000000	64.646625 
4545.000000	64.661478 
4544.000000	64.670538 
4543.000000	64.672756 
4542.000000	64.666795 
4541.000000	64.650630 
4540.000000	64.622545 
4539.000000	64.581799 
4538.000000	64.529347 
4537.000000	64.468431 
4536.000000	64.404726 
4535.000000	64.345335 
4534.000000	64.297318 
4533.000000	64.266133 
4532.000000	64.254641 
4531.000000	64.261865 
4530.000000	64.282727 
4529.000000	64.309859 
4528.000000	64.335083 
4527.000000	64.351797 
4526.000000	64.356327 
4525.000000	64.349269 
4524.000000	64.335083 
4523.000000	64.321446 
4522.000000	64.317226 
4521.000000	64.330339 
4520.000000	64.365363 
4519.000000	64.423012 
4518.000000	64.498710 
4517.000000	64.583110 
4516.000000	64.663338 
4515.000000	64.726281 
4514.000000	64.760565 
4513.000000	64.759230 
4512.000000	64.720988 
4511.000000	64.650774 
4510.000000	64.558029 
4509.000000	64.455151 
4508.000000	64.353871 
4507.000000	64.263534 
4506.000000	64.188742 
4505.000000	64.129710 
4504.000000	64.082717 
4503.000000	64.042282 
4502.000000	64.003562 
4501.000000	63.964533 
4500.000000	63.926839 
4499.000000	63.894963 
4498.000000	63.875770 
4497.000000	63.876390 
4496.000000	63.901662 
4495.000000	63.952898 
4494.000000	64.028668 
4493.000000	64.125132 
4492.000000	64.237117 
4491.000000	64.359021 
4490.000000	64.486193 
4489.000000	64.614200 
4488.000000	64.738512 
4487.000000	64.853429 
4486.000000	64.952707 
4485.000000	65.028524 
4484.000000	65.074157 
4483.000000	65.083527 
4482.000000	65.053629 
4481.000000	64.984917 
4480.000000	64.884042 
4479.000000	64.760661 
4478.000000	64.627194 
4477.000000	64.495420 
4476.000000	64.376044 
4475.000000	64.274930 
4474.000000	64.193129 
4473.000000	64.126944 
4472.000000	64.070081 
4471.000000	64.015436 
4470.000000	63.957548 
4469.000000	63.894176 
4468.000000	63.826370 
4467.000000	63.758540 
4466.000000	63.696670 
4465.000000	63.642525 
4464.000000	63.594603 
4463.000000	63.549685 
4462.000000	63.504266 
4461.000000	63.457918 
4460.000000	63.414716 
4459.000000	63.371729 
4458.000000	63.330626 
4457.000000	63.308405 
4456.000000	63.324689 
4455.000000	63.389611 
4454.000000	63.506221 
4453.000000	63.667058 
4452.000000	63.855886 
4451.000000	64.056324 
4450.000000	64.245653 
4449.000000	64.395093 
4448.000000	64.482879 
4447.000000	64.497971 
4446.000000	64.447617 
4445.000000	64.355134 
4444.000000	64.255738 
4443.000000	64.184927 
4442.000000	64.158511 
4441.000000	64.164829 
4440.000000	64.152741 
4439.000000	64.053297 
4438.000000	63.784074 
4437.000000	63.307452 
4436.000000	62.633299 
4435.000000	61.880755 
4434.000000	61.245918 
4433.000000	61.007523 
4432.000000	61.494898 
4431.000000	62.968182 
4430.000000	65.583586 
4429.000000	69.242310 
4428.000000	73.575806 
4427.000000	77.975559 
4426.000000	81.685900 
4425.000000	84.018659 
4424.000000	84.531354 
4423.000000	83.147573 
4422.000000	80.215477 
4421.000000	76.363515 
4420.000000	72.345709 
4419.000000	68.833899 
4418.000000	66.255712 
4417.000000	64.763164 
4416.000000	64.243078 
4415.000000	64.429616 
4414.000000	65.012955 
4413.000000	65.708708 
4412.000000	66.334152 
4411.000000	66.777372 
4410.000000	67.022752 
4409.000000	67.098641 
4408.000000	67.071604 
4407.000000	67.001938 
4406.000000	66.934871 
4405.000000	66.892504 
4404.000000	66.870522 
4403.000000	66.856336 
4402.000000	66.828632 
4401.000000	66.782641 
4400.000000	66.718196 
4399.000000	66.642236 
4398.000000	66.562271 
4397.000000	66.482973 
4396.000000	66.402029 
4395.000000	66.305017 
4394.000000	66.180729 
4393.000000	66.030144 
4392.000000	65.858554 
4391.000000	65.676522 
4390.000000	65.494203 
4389.000000	65.317249 
4388.000000	65.156102 
4387.000000	65.023851 
4386.000000	64.921593 
4385.000000	64.840674 
4384.000000	64.771962 
4383.000000	64.706754 
4382.000000	64.639091 
4381.000000	64.567089 
4380.000000	64.488506 
4379.000000	64.403963 
4378.000000	64.316940 
4377.000000	64.232873 
4376.000000	64.157438 
4375.000000	64.095568 
4374.000000	64.048767 
4373.000000	64.016628 
4372.000000	63.995766 
4371.000000	63.983154 
4370.000000	63.976168 
4369.000000	63.975214 
4368.000000	63.983535 
4367.000000	64.006400 
4366.000000	64.048552 
4365.000000	64.112997 
4364.000000	64.198875 
4363.000000	64.300203 
4362.000000	64.405894 
4361.000000	64.502406 
4360.000000	64.576411 
4359.000000	64.616537 
4358.000000	64.616131 
4357.000000	64.575219 
4356.000000	64.500308 
4355.000000	64.402389 
4354.000000	64.294934 
4353.000000	64.191651 
4352.000000	64.104104 
4351.000000	64.040088 
4350.000000	64.003062 
4349.000000	63.993191 
4348.000000	64.007806 
4347.000000	64.042782 
4346.000000	64.093446 
4345.000000	64.155149 
4344.000000	64.223289 
4343.000000	64.292430 
4342.000000	64.357519 
4341.000000	64.413166 
4340.000000	64.455389 
4339.000000	64.481854 
4338.000000	64.492988 
4337.000000	64.492034 
4336.000000	64.484238 
4335.000000	64.475655 
4334.000000	64.471435 
4333.000000	64.474511 
4332.000000	64.484620 
4331.000000	64.498233 
4330.000000	64.509820 
4329.000000	64.513158 
4328.000000	64.503550 
4327.000000	64.478969 
4326.000000	64.440560 
4325.000000	64.392495 
4324.000000	64.340353 
4323.000000	64.290165 
4322.000000	64.246845 
4321.000000	64.213776 
4320.000000	64.192032 
4319.000000	64.181232 
4318.000000	64.180612 
4317.000000	64.189457 
4316.000000	64.207220 
4315.000000	64.233851 
4314.000000	64.268946 
4313.000000	64.312195 
4312.000000	64.362502 
4311.000000	64.418244 
4310.000000	64.476799 
4309.000000	64.535641 
4308.000000	64.592647 
4307.000000	64.646029 
4306.000000	64.694476 
4305.000000	64.736890 
4304.000000	64.772295 
4303.000000	64.799547 
4302.000000	64.817619 
4301.000000	64.825987 
4300.000000	64.824986 
4299.000000	64.816188 
4298.000000	64.802312 
4297.000000	64.786839 
4296.000000	64.773488 
4295.000000	64.765429 
4294.000000	64.765334 
4293.000000	64.774942 
4292.000000	64.795231 
4291.000000	64.826631 
4290.000000	64.868521 
4289.000000	64.919543 
4288.000000	64.977049 
4287.000000	65.037202 
4286.000000	65.094947 
4285.000000	65.144515 
4284.000000	65.180230 
4283.000000	65.197372 
4282.000000	65.193724 
4281.000000	65.170121 
4280.000000	65.130424 
4279.000000	65.080785 
4278.000000	65.028524 
4277.000000	64.980340 
4276.000000	64.940977 
4275.000000	64.912366 
4274.000000	64.894104 
4273.000000	64.883732 
4272.000000	64.878225 
4271.000000	64.874649 
4270.000000	64.870834 
4269.000000	64.865636 
4268.000000	64.858531 
4267.000000	64.849781 
4266.000000	64.839744 
4265.000000	64.829182 
4264.000000	64.818763 
4263.000000	64.809155 
4262.000000	64.800882 
4261.000000	64.794301 
4260.000000	64.789748 
4259.000000	64.787173 
4258.000000	64.786195 
4257.000000	64.785909 
4256.000000	64.784812 
4255.000000	64.781188 
4254.000000	64.773583 
4253.000000	64.761137 
4252.000000	64.744377 
4251.000000	64.725279 
4250.000000	64.707350 
4249.000000	64.695310 
4248.000000	64.693975 
4247.000000	64.706873 
4246.000000	64.735341 
4245.000000	64.778041 
4244.000000	64.830732 
4243.000000	64.886951 
4242.000000	64.939332 
4241.000000	64.981222 
4240.000000	65.008163 
4239.000000	65.019202 
4238.000000	65.016913 
4237.000000	65.006494 
4236.000000	64.994311 
4235.000000	64.986252 
4234.000000	64.986038 
4233.000000	64.994335 
4232.000000	65.008902 
4231.000000	65.025377 
4230.000000	65.038943 
4229.000000	65.046119 
4228.000000	65.045642 
4227.000000	65.038943 
4226.000000	65.029859 
4225.000000	65.023422 
4224.000000	65.024805 
4223.000000	65.037846 
4222.000000	65.064120 
4221.000000	65.102267 
4220.000000	65.148425 
4219.000000	65.196394 
4218.000000	65.239596 
4217.000000	65.271759 
4216.000000	65.288138 
4215.000000	65.285944 
4214.000000	65.265107 
4213.000000	65.227413 
4212.000000	65.176105 
4211.000000	65.115213 
4210.000000	65.048909 
4209.000000	64.981365 
4208.000000	64.917087 
4207.000000	64.860343 
4206.000000	64.814853 
4205.000000	64.783692 
4204.000000	64.768958 
4203.000000	64.770984 
4202.000000	64.787864 
4201.000000	64.815807 
4200.000000	64.849352 
4199.000000	64.882683 
4198.000000	64.910483 
4197.000000	64.929080 
4196.000000	64.937353 
4195.000000	64.936923 
4194.000000	64.931869 
4193.000000	64.927315 
4192.000000	64.928531 
4191.000000	64.939546 
4190.000000	64.962434 
4189.000000	64.997482 
4188.000000	65.042567 
4187.000000	65.094566 
4186.000000	65.148544 
4185.000000	65.199637 
4184.000000	65.242218 
4183.000000	65.271234 
4182.000000	65.281987 
4181.000000	65.270948 
4180.000000	65.236210 
4179.000000	65.178418 
4178.000000	65.100884 
4177.000000	65.009355 
4176.000000	64.912438 
4175.000000	64.820480 
4174.000000	64.744281 
4173.000000	64.693498 
4172.000000	64.675354 
4171.000000	64.693450 
4170.000000	64.747118 
4169.000000	64.831352 
4168.000000	64.937138 
4167.000000	65.053081 
4166.000000	65.166449 
4165.000000	65.265536 
4164.000000	65.340590 
4163.000000	65.385723 
4162.000000	65.399336 
4161.000000	65.384292 
4160.000000	65.347266 
4159.000000	65.296530 
4158.000000	65.240955 
4157.000000	65.187668 
4156.000000	65.141510 
4155.000000	65.104675 
4154.000000	65.077638 
4153.000000	65.059757 
4152.000000	65.050482 
4151.000000	65.049791 
4150.000000	65.058541 
4149.000000	65.078186 
4148.000000	65.109539 
4147.000000	65.152573 
4146.000000	65.205359 
4145.000000	65.264415 
4144.000000	65.324783 
4143.000000	65.380644 
4142.000000	65.426731 
4141.000000	65.459084 
4140.000000	65.476012 
4139.000000	65.478467 
4138.000000	65.469384 
4137.000000	65.453171 
4136.000000	65.434503 
4135.000000	65.418124 
4134.000000	65.406990 
4133.000000	65.402197 
4132.000000	65.402317 
4131.000000	65.404510 
4130.000000	65.404868 
4129.000000	65.399575 
4128.000000	65.386247 
4127.000000	65.364646 
4126.000000	65.337085 
4125.000000	65.308046 
4124.000000	65.282869 
4123.000000	65.266084 
4122.000000	65.260195 
4121.000000	65.265011 
4120.000000	65.277504 
4119.000000	65.292882 
4118.000000	65.305733 
4117.000000	65.311479 
4116.000000	65.307855 
4115.000000	65.295219 
4114.000000	65.276074 
4113.000000	65.254330 
4112.000000	65.234065 
4111.000000	65.218210 
4110.000000	65.207719 
4109.000000	65.201330 
4108.000000	65.196323 
4107.000000	65.189290 
4106.000000	65.177679 
4105.000000	65.160417 
4104.000000	65.138006 
4103.000000	65.112948 
4102.000000	65.088629 
4101.000000	65.068984 
4100.000000	65.057134 
4099.000000	65.055155 
4098.000000	65.063428 
4097.000000	65.080928 
4096.000000	65.105509 
4095.000000	65.134286 
4094.000000	65.164303 
4093.000000	65.192675 
4092.000000	65.216779 
4091.000000	65.234637 
4090.000000	65.244841 
4089.000000	65.246486 
4088.000000	65.239405 
4087.000000	65.224123 
4086.000000	65.202093 
4085.000000	65.175724 
4084.000000	65.148162 
4083.000000	65.123033 
4082.000000	65.103793 
4081.000000	65.093255 
4080.000000	65.092968 
4079.000000	65.103220 
4078.000000	65.122699 
4077.000000	65.148591 
4076.000000	65.177035 
4075.000000	65.203762 
4074.000000	65.224933 
4073.000000	65.237402 
4072.000000	65.239644 
4071.000000	65.231609 
4070.000000	65.215229 
4069.000000	65.193843 
4068.000000	65.171790 
4067.000000	65.153646 
4066.000000	65.143322 
4065.000000	65.143513 
4064.000000	65.154767 
4063.000000	65.175366 
4062.000000	65.201616 
4061.000000	65.228724 
4060.000000	65.251350 
4059.000000	65.264964 
4058.000000	65.267038 
4057.000000	65.257692 
4056.000000	65.239667 
4055.000000	65.217852 
4054.000000	65.197944 
4053.000000	65.185403 
4052.000000	65.184283 
4051.000000	65.196180 
4050.000000	65.219855 
4049.000000	65.251588 
4048.000000	65.286397 
4047.000000	65.318751 
4046.000000	65.343976 
4045.000000	65.359139 
4044.000000	65.363311 
4043.000000	65.357351 
4042.000000	65.343451 
4041.000000	65.324330 
4040.000000	65.302562 
4039.000000	65.279865 
4038.000000	65.256929 
4037.000000	65.233683 
4036.000000	65.209674 
4035.000000	65.184354 
4034.000000	65.157532 
4033.000000	65.129518 
4032.000000	65.101552 
4031.000000	65.075564 
4030.000000	65.054321 
4029.000000	65.040445 
4028.000000	65.036320 
4027.000000	65.043401 
4026.000000	65.062165 
4025.000000	65.091466 
4024.000000	65.129017 
4023.000000	65.171241 
4022.000000	65.213918 
4021.000000	65.252923 
4020.000000	65.284776 
4019.000000	65.306997 
4018.000000	65.318727 
4017.000000	65.320634 
4016.000000	65.314960 
4015.000000	65.305137 
4014.000000	65.295028 
4013.000000	65.288233 
4012.000000	65.287375 
4011.000000	65.293526 
4010.000000	65.305852 
4009.000000	65.321803 
4008.000000	65.337228 
4007.000000	65.347313 
4006.000000	65.347719 
4005.000000	65.335869 
4004.000000	65.311646 
4003.000000	65.277934 
4002.000000	65.240192 
4001.000000	65.205478 
4000.000000	65.180850 
3999.000000	65.171718 
3998.000000	65.180802 
3997.000000	65.207123 
3996.000000	65.246963 
3995.000000	65.293955 
3994.000000	65.340971 
3993.000000	65.381217 
3992.000000	65.409827 
3991.000000	65.424084 
3990.000000	65.423607 
3989.000000	65.409970 
3988.000000	65.386199 
3987.000000	65.355801 
3986.000000	65.322089 
3985.000000	65.288043 
3984.000000	65.255951 
3983.000000	65.227675 
3982.000000	65.204739 
3981.000000	65.188026 
3980.000000	65.177941 
3979.000000	65.173935 
3978.000000	65.174698 
3977.000000	65.178418 
3976.000000	65.183091 
3975.000000	65.186500 
3974.000000	65.186905 
3973.000000	65.182995 
3972.000000	65.174198 
3971.000000	65.160632 
3970.000000	65.143132 
3969.000000	65.123033 
3968.000000	65.101838 
3967.000000	65.081214 
3966.000000	65.062427 
3965.000000	65.046286 
3964.000000	65.033245 
3963.000000	65.023159 
3962.000000	65.016031 
3961.000000	65.012097 
3960.000000	65.012121 
3959.000000	65.017127 
3958.000000	65.028238 
3957.000000	65.046095 
3956.000000	65.070390 
3955.000000	65.099525 
3954.000000	65.130162 
3953.000000	65.157580 
3952.000000	65.176773 
3951.000000	65.183544 
3950.000000	65.175700 
3949.000000	65.153884 
3948.000000	65.121936 
3947.000000	65.085864 
3946.000000	65.052461 
3945.000000	65.027737 
3944.000000	65.015554 
3943.000000	65.016436 
3942.000000	65.027952 
3941.000000	65.044999 
3940.000000	65.061688 
3939.000000	65.072345 
3938.000000	65.072894 
3937.000000	65.061855 
3936.000000	65.040373 
3935.000000	65.012001 
3934.000000	64.981603 
3933.000000	64.954566 
3932.000000	64.935469 
3931.000000	64.927554 
3930.000000	64.932155 
3929.000000	64.948511 
3928.000000	64.974331 
3927.000000	65.005970 
3926.000000	65.039348 
3925.000000	65.070319 
3924.000000	65.095567 
3923.000000	65.113306 
3922.000000	65.123558 
3921.000000	65.127611 
3920.000000	65.127873 
3919.000000	65.127277 
3918.000000	65.128564 
3917.000000	65.133452 
3916.000000	65.142631 
3915.000000	65.155577 
3914.000000	65.170955 
3913.000000	65.187358 
3912.000000	65.203595 
3911.000000	65.219020 
3910.000000	65.233445 
3909.000000	65.247201 
3908.000000	65.260720 
3907.000000	65.274167 
3906.000000	65.287280 
3905.000000	65.299391 
3904.000000	65.309572 
3903.000000	65.316724 
3902.000000	65.320038 
3901.000000	65.319132 
3900.000000	65.313792 
3899.000000	65.303802 
3898.000000	65.288662 
3897.000000	65.267491 
3896.000000	65.239143 
3895.000000	65.202713 
3894.000000	65.157866 
3893.000000	65.105628 
3892.000000	65.048980 
3891.000000	64.992427 
3890.000000	64.941549 
3889.000000	64.901900 
3888.000000	64.877581 
3887.000000	64.870476 
3886.000000	64.879322 
3885.000000	64.900469 
3884.000000	64.928507 
3883.000000	64.957809 
3882.000000	64.983558 
3881.000000	65.003275 
3880.000000	65.016746 
3879.000000	65.026021 
3878.000000	65.034103 
3877.000000	65.043854 
3876.000000	65.056991 
3875.000000	65.073466 
3874.000000	65.091586 
3873.000000	65.108489 
3872.000000	65.121054 
3871.000000	65.127301 
3870.000000	65.126395 
3869.000000	65.119004 
3868.000000	65.106940 
3867.000000	65.092515 
3866.000000	65.078067 
3865.000000	65.065479 
3864.000000	65.055847 
3863.000000	65.049862 
3862.000000	65.047383 
3861.000000	65.047788 
3860.000000	65.049982 
3859.000000	65.052795 
3858.000000	65.055108 
3857.000000	65.055751 
3856.000000	65.054178 
3855.000000	65.050268 
3854.000000	65.044569 
3853.000000	65.038228 
3852.000000	65.032649 
3851.000000	65.029215 
3850.000000	65.029263 
3849.000000	65.033650 
3848.000000	65.042591 
3847.000000	65.055680 
3846.000000	65.072107 
3845.000000	65.090775 
3844.000000	65.110516 
3843.000000	65.130233 
3842.000000	65.148997 
3841.000000	65.166044 
3840.000000	65.180468 
3839.000000	65.191435 
3838.000000	65.198254 
3837.000000	65.200543 
3836.000000	65.198469 
3835.000000	65.192699 
3834.000000	65.184426 
3833.000000	65.175008 
3832.000000	65.166020 
3831.000000	65.158772 
3830.000000	65.154170 
3829.000000	65.152525 
3828.000000	65.153551 
3827.000000	65.156626 
3826.000000	65.160989 
3825.000000	65.166020 
3824.000000	65.171408 
3823.000000	65.177488 
3822.000000	65.185022 
3821.000000	65.194773 
3820.000000	65.206861 
3819.000000	65.220403 
3818.000000	65.233254 
3817.000000	65.242171 
3816.000000	65.243577 
3815.000000	65.234565 
3814.000000	65.213942 
3813.000000	65.182852 
3812.000000	65.145039 
3811.000000	65.106225 
3810.000000	65.073037 
3809.000000	65.051627 
3808.000000	65.046000 
3807.000000	65.057253 
3806.000000	65.083098 
3805.000000	65.118718 
3804.000000	65.157556 
3803.000000	65.192890 
3802.000000	65.219187 
3801.000000	65.233254 
3800.000000	65.234351 
3799.000000	65.224027 
3798.000000	65.205073 
3797.000000	65.180683 
3796.000000	65.153646 
3795.000000	65.126085 
3794.000000	65.099215 
3793.000000	65.073704 
3792.000000	65.049862 
3791.000000	65.028095 
3790.000000	65.009117 
3789.000000	64.993858 
3788.000000	64.983034 
3787.000000	64.977383 
3786.000000	64.976835 
3785.000000	64.981460 
3784.000000	64.990711 
3783.000000	65.004634 
3782.000000	65.023112 
3781.000000	65.046763 
3780.000000	65.076541 
3779.000000	65.113139 
3778.000000	65.156817 
3777.000000	65.206193 
3776.000000	65.258336 
3775.000000	65.308427 
3774.000000	65.350890 
3773.000000	65.379905 
3772.000000	65.390729 
3771.000000	65.380787 
3770.000000	65.350461 
3769.000000	65.303111 
3768.000000	65.244984 
3767.000000	65.183854 
3766.000000	65.128016 
3765.000000	65.085077 
3764.000000	65.060472 
3763.000000	65.057206 
3762.000000	65.074992 
3761.000000	65.110850 
3760.000000	65.159130 
3759.000000	65.212702 
3758.000000	65.263772 
3757.000000	65.304899 
3756.000000	65.330362 
3755.000000	65.336394 
3754.000000	65.322399 
3753.000000	65.290641 
3752.000000	65.246415 
3751.000000	65.196800 
3750.000000	65.149712 
3749.000000	65.112781 
3748.000000	65.091514 
3747.000000	65.088653 
3746.000000	65.103578 
3745.000000	65.132808 
3744.000000	65.170335 
3743.000000	65.209078 
3742.000000	65.242147 
3741.000000	65.264296 
3740.000000	65.272450 
3739.000000	65.266180 
3738.000000	65.247344 
3737.000000	65.219521 
3736.000000	65.187239 
3735.000000	65.155005 
3734.000000	65.126395 
3733.000000	65.103602 
3732.000000	65.087747 
3731.000000	65.078783 
3730.000000	65.076160 
3729.000000	65.078973 
3728.000000	65.086197 
3727.000000	65.096998 
3726.000000	65.110754 
3725.000000	65.126848 
3724.000000	65.144228 
3723.000000	65.161395 
3722.000000	65.176296 
3721.000000	65.186715 
3720.000000	65.190529 
3719.000000	65.186142 
3718.000000	65.172958 
3717.000000	65.151667 
3716.000000	65.124368 
3715.000000	65.094256 
3714.000000	65.064978 
3713.000000	65.040040 
3712.000000	65.022087 
3711.000000	65.012454 
3710.000000	65.011119 
3709.000000	65.016555 
3708.000000	65.026402 
3707.000000	65.037775 
3706.000000	65.048050 
3705.000000	65.055394 
3704.000000	65.059232 
3703.000000	65.059995 
3702.000000	65.058803 
3701.000000	65.057325 
3700.000000	65.057229 
3699.000000	65.059351 
3698.000000	65.063714 
3697.000000	65.069532 
3696.000000	65.075492 
3695.000000	65.080046 
3694.000000	65.081882 
3693.000000	65.080451 
3692.000000	65.075969 
3691.000000	65.069556 
3690.000000	65.062689 
3689.000000	65.056824 
3688.000000	65.053105 
3687.000000	65.052032 
3686.000000	65.053486 
3685.000000	65.056943 
3684.000000	65.062022 
3683.000000	65.068793 
3682.000000	65.077900 
3681.000000	65.090537 
3680.000000	65.107870 
3679.000000	65.130758 
3678.000000	65.158987 
3677.000000	65.191411 
3676.000000	65.226173 
3675.000000	65.261125 
3674.000000	65.294194 
3673.000000	65.323948 
3672.000000	65.349936 
3671.000000	65.372514 
3670.000000	65.392446 
3669.000000	65.410256 
3668.000000	65.426158 
3667.000000	65.439486 
3666.000000	65.449023 
3665.000000	65.453219 
3664.000000	65.450906 
3663.000000	65.441703 
3662.000000	65.426492 
3661.000000	65.407204 
3660.000000	65.386629 
3659.000000	65.367627 
3658.000000	65.352559 
3657.000000	65.342640 
3656.000000	65.337800 
3655.000000	65.336656 
3654.000000	65.336871 
3653.000000	65.335965 
3652.000000	65.331411 
3651.000000	65.321540 
3650.000000	65.305662 
3649.000000	65.284204 
3648.000000	65.258526 
3647.000000	65.230369 
3646.000000	65.201544 
3645.000000	65.173745 
3644.000000	65.148234 
3643.000000	65.125823 
3642.000000	65.107011 
3641.000000	65.092325 
3640.000000	65.082287 
3639.000000	65.077447 
3638.000000	65.078115 
3637.000000	65.084218 
3636.000000	65.094923 
3635.000000	65.108585 
3634.000000	65.123105 
3633.000000	65.136027 
3632.000000	65.145254 
3631.000000	65.149211 
3630.000000	65.147471 
3629.000000	65.140771 
3628.000000	65.130782 
3627.000000	65.119647 
3626.000000	65.109300 
3625.000000	65.100932 
3624.000000	65.094947 
3623.000000	65.090918 
3622.000000	65.087652 
3621.000000	65.083885 
3620.000000	65.078735 
3619.000000	65.072393 
3618.000000	65.065860 
3617.000000	65.060997 
3616.000000	65.060019 
3615.000000	65.064787 
3614.000000	65.076303 
3613.000000	65.094232 
3612.000000	65.117001 
3611.000000	65.141916 
3610.000000	65.165781 
3609.000000	65.185308 
3608.000000	65.197992 
3607.000000	65.201997 
3606.000000	65.196728 
3605.000000	65.182423 
3604.000000	65.160393 
3603.000000	65.132570 
3602.000000	65.101599 
3601.000000	65.070605 
3600.000000	65.042901 
3599.000000	65.021991 
3598.000000	65.010881 
3597.000000	65.011763 
3596.000000	65.025234 
3595.000000	65.050244 
3594.000000	65.083909 
3593.000000	65.121674 
3592.000000	65.158247 
3591.000000	65.188336 
3590.000000	65.207624 
3589.000000	65.213751 
3588.000000	65.206503 
3587.000000	65.187764 
3586.000000	65.161085 
3585.000000	65.130734 
3584.000000	65.100908 
3583.000000	65.074992 
3582.000000	65.055036 
3581.000000	65.041804 
3580.000000	65.034794 
3579.000000	65.032863 
3578.000000	65.034413 
3577.000000	65.038084 
3576.000000	65.042901 
3575.000000	65.048313 
3574.000000	65.054035 
3573.000000	65.059924 
3572.000000	65.065479 
3571.000000	65.070199 
3570.000000	65.073442 
3569.000000	65.074515 
3568.000000	65.073204 
3567.000000	65.069723 
3566.000000	65.065002 
3565.000000	65.060162 
3564.000000	65.056610 
3563.000000	65.055394 
3562.000000	65.057110 
3561.000000	65.061545 
3560.000000	65.067934 
3559.000000	65.074992 
3558.000000	65.081334 
3557.000000	65.085935 
3556.000000	65.088415 
3555.000000	65.089249 
3554.000000	65.089535 
3553.000000	65.090608 
3552.000000	65.093421 
3551.000000	65.098547 
3550.000000	65.105843 
3549.000000	65.114426 
3548.000000	65.122914 
3547.000000	65.129899 
3546.000000	65.134167 
3545.000000	65.134668 
3544.000000	65.130925 
3543.000000	65.122723 
3542.000000	65.110611 
3541.000000	65.095686 
3540.000000	65.079689 
3539.000000	65.064811 
3538.000000	65.053343 
3537.000000	65.047240 
3536.000000	65.047836 
3535.000000	65.055465 
3534.000000	65.069293 
3533.000000	65.087628 
3532.000000	65.108060 
3531.000000	65.128040 
3530.000000	65.145254 
3529.000000	65.157771 
3528.000000	65.164613 
3527.000000	65.165638 
3526.000000	65.161728 
3525.000000	65.154409 
3524.000000	65.145730 
3523.000000	65.137696 
3522.000000	65.132331 
3521.000000	65.131044 
3520.000000	65.134572 
3519.000000	65.142822 
3518.000000	65.154719 
3517.000000	65.168499 
3516.000000	65.181922 
3515.000000	65.192675 
3514.000000	65.198636 
3513.000000	65.198636 
3512.000000	65.192389 
3511.000000	65.180611 
3510.000000	65.165019 
3509.000000	65.147805 
3508.000000	65.131497 
3507.000000	65.118694 
3506.000000	65.111470 
3505.000000	65.111160 
3504.000000	65.118432 
3503.000000	65.132904 
3502.000000	65.153169 
3501.000000	65.176820 
3500.000000	65.200829 
3499.000000	65.221762 
3498.000000	65.236449 
3497.000000	65.242314 
3496.000000	65.237832 
3495.000000	65.223050 
3494.000000	65.199589 
3493.000000	65.170383 
3492.000000	65.139222 
3491.000000	65.109968 
3490.000000	65.085935 
3489.000000	65.069317 
3488.000000	65.061235 
3487.000000	65.061283 
3486.000000	65.068221 
3485.000000	65.080189 
3484.000000	65.095496 
3483.000000	65.112662 
3482.000000	65.130901 
3481.000000	65.149569 
3480.000000	65.168333 
3479.000000	65.186738 
3478.000000	65.204143 
3477.000000	65.219569 
3476.000000	65.232014 
3475.000000	65.240597 
3474.000000	65.244460 
3473.000000	65.243268 
3472.000000	65.236759 
3471.000000	65.224981 
3470.000000	65.207886 
3469.000000	65.185523 
3468.000000	65.158271 
3467.000000	65.127182 
3466.000000	65.094184 
3465.000000	65.062308 
3464.000000	65.035414 
3463.000000	65.017676 
3462.000000	65.012621 
3461.000000	65.022373 
3460.000000	65.046691 
3459.000000	65.082859 
3458.000000	65.125870 
3457.000000	65.169501 
3456.000000	65.207386 
3455.000000	65.234541 
3454.000000	65.248274 
3453.000000	65.248560 
3452.000000	65.237760 
3451.000000	65.219640 
3450.000000	65.198397 
3449.000000	65.177345 
3448.000000	65.158414 
3447.000000	65.141820 
3446.000000	65.126585 
3445.000000	65.111231 
3444.000000	65.094757 
3443.000000	65.076971 
3442.000000	65.059041 
3441.000000	65.042972 
3440.000000	65.031051 
3439.000000	65.024948 
3438.000000	65.025258 
3437.000000	65.031051 
3436.000000	65.040135 
3435.000000	65.049672 
3434.000000	65.057182 
3433.000000	65.060734 
3432.000000	65.060257 
3431.000000	65.056967 
3430.000000	65.053439 
3429.000000	65.052771 
3428.000000	65.057754 
3427.000000	65.069985 
3426.000000	65.089464 
3425.000000	65.114569 
3424.000000	65.142154 
3423.000000	65.168237 
3422.000000	65.188884 
3421.000000	65.201044 
3420.000000	65.203118 
3419.000000	65.195298 
3418.000000	65.179443 
3417.000000	65.158534 
3416.000000	65.136289 
3415.000000	65.116262 
3414.000000	65.101242 
3413.000000	65.092730 
3412.000000	65.090799 
3411.000000	65.094375 
3410.000000	65.101504 
3409.000000	65.109968 
3408.000000	65.117859 
3407.000000	65.123915 
3406.000000	65.127611 
3405.000000	65.129327 
3404.000000	65.129995 
3403.000000	65.130567 
3402.000000	65.131998 
3401.000000	65.134644 
3400.000000	65.138387 
3399.000000	65.142416 
3398.000000	65.145635 
3397.000000	65.146756 
3396.000000	65.144920 
3395.000000	65.139627 
3394.000000	65.131139 
3393.000000	65.120434 
3392.000000	65.109062 
3391.000000	65.098690 
3390.000000	65.090823 
3389.000000	65.086317 
3388.000000	65.085339 
3387.000000	65.087056 
3386.000000	65.089774 
3385.000000	65.091586 
3384.000000	65.090727 
3383.000000	65.086054 
3382.000000	65.077757 
3381.000000	65.067076 
3380.000000	65.056300 
3379.000000	65.048313 
3378.000000	65.045499 
3377.000000	65.049338 
3376.000000	65.059804 
3375.000000	65.075469 
3374.000000	65.093731 
3373.000000	65.111327 
3372.000000	65.125036 
3371.000000	65.132427 
3370.000000	65.132522 
3369.000000	65.125823 
3368.000000	65.114426 
3367.000000	65.101432 
3366.000000	65.090465 
3365.000000	65.084648 
3364.000000	65.086364 
3363.000000	65.096712 
3362.000000	65.115451 
3361.000000	65.140962 
3360.000000	65.170907 
3359.000000	65.202617 
3358.000000	65.233540 
3357.000000	65.261745 
3356.000000	65.285944 
3355.000000	65.305399 
3354.000000	65.319991 
3353.000000	65.329790 
3352.000000	65.334868 
3351.000000	65.335011 
3350.000000	65.330219 
3349.000000	65.320539 
3348.000000	65.306758 
3347.000000	65.290188 
3346.000000	65.273022 
3345.000000	65.257596 
3344.000000	65.246224 
3343.000000	65.240240 
3342.000000	65.239834 
3341.000000	65.243649 
3340.000000	65.249228 
3339.000000	65.253400 
3338.000000	65.253043 
3337.000000	65.245985 
3336.000000	65.231513 
3335.000000	65.210676 
3334.000000	65.185952 
3333.000000	65.160942 
3332.000000	65.139532 
3331.000000	65.125226 
3330.000000	65.120196 
3329.000000	65.125298 
3328.000000	65.139484 
3327.000000	65.160512 
3326.000000	65.184974 
3325.000000	65.209126 
3324.000000	65.229368 
3323.000000	65.242600 
3322.000000	65.246725 
3321.000000	65.240812 
3320.000000	65.225410 
3319.000000	65.202212 
3318.000000	65.174221 
3317.000000	65.145254 
3316.000000	65.119624 
3315.000000	65.101361 
3314.000000	65.093326 
3313.000000	65.096807 
3312.000000	65.110874 
3311.000000	65.132832 
3310.000000	65.158224 
3309.000000	65.181970 
3308.000000	65.199518 
3307.000000	65.207886 
3306.000000	65.206170 
3305.000000	65.195798 
3304.000000	65.180349 
3303.000000	65.164422 
3302.000000	65.152645 
3301.000000	65.148448 
3300.000000	65.153264 
3299.000000	65.166163 
3298.000000	65.184020 
3297.000000	65.202212 
3296.000000	65.215992 
3295.000000	65.221548 
3294.000000	65.216803 
3293.000000	65.201854 
3292.000000	65.178728 
3291.000000	65.150928 
3290.000000	65.122222 
3289.000000	65.095925 
3288.000000	65.074110 
3287.000000	65.057659 
3286.000000	65.046453 
3285.000000	65.040016 
3284.000000	65.037965 
3283.000000	65.040612 
3282.000000	65.048766 
3281.000000	65.063333 
3280.000000	65.084958 
3279.000000	65.113091 
3278.000000	65.145921 
3277.000000	65.179967 
3276.000000	65.211033 
3275.000000	65.234971 
3274.000000	65.248870 
3273.000000	65.251731 
3272.000000	65.244960 
3271.000000	65.232157 
3270.000000	65.218091 
3269.000000	65.207719 
3268.000000	65.204763 
3267.000000	65.211033 
3266.000000	65.225362 
3265.000000	65.244555 
3264.000000	65.263485 
3263.000000	65.277171 
3262.000000	65.281510 
3261.000000	65.274262 
3260.000000	65.255737 
3259.000000	65.228486 
3258.000000	65.196704 
3257.000000	65.165209 
3256.000000	65.138483 
3255.000000	65.119552 
3254.000000	65.109777 
3253.000000	65.108776 
3252.000000	65.114760 
3251.000000	65.125346 
3250.000000	65.137791 
3249.000000	65.149950 
3248.000000	65.160465 
3247.000000	65.168976 
3246.000000	65.175628 
3245.000000	65.180778 
3244.000000	65.184831 
3243.000000	65.187859 
3242.000000	65.189504 
3241.000000	65.188860 
3240.000000	65.184998 
3239.000000	65.176892 
3238.000000	65.164208 
3237.000000	65.147066 
3236.000000	65.126323 
3235.000000	65.103435 
3234.000000	65.080356 
3233.000000	65.059280 
3232.000000	65.042209 
3231.000000	65.030741 
3230.000000	65.025806 
3229.000000	65.027403 
3228.000000	65.034484 
3227.000000	65.045285 
3226.000000	65.057516 
3225.000000	65.068531 
3224.000000	65.075945 
3223.000000	65.077948 
3222.000000	65.073466 
3221.000000	65.062141 
3220.000000	65.044450 
3219.000000	65.021443 
3218.000000	64.994788 
3217.000000	64.966607 
3216.000000	64.939212 
3215.000000	64.914894 
3214.000000	64.895606 
3213.000000	64.882850 
3212.000000	64.877510 
3211.000000	64.879441 
3210.000000	64.887976 
3209.000000	64.901781 
3208.000000	64.919686 
3207.000000	64.940381 
3206.000000	64.963245 
3205.000000	64.987850 
3204.000000	65.014314 
3203.000000	65.042734 
3202.000000	65.072751 
3201.000000	65.103316 
3200.000000	65.132665 
3199.000000	65.158772 
3198.000000	65.179800 
3197.000000	65.194535 
3196.000000	65.203142 
3195.000000	65.206742 
3194.000000	65.207386 
3193.000000	65.207028 
3192.000000	65.207290 
3191.000000	65.208458 
3190.000000	65.209388 
3189.000000	65.207767 
3188.000000	65.201044 
3187.000000	65.186882 
3186.000000	65.164327 
3185.000000	65.134048 
3184.000000	65.098428 
3183.000000	65.061473 
3182.000000	65.027809 
3181.000000	65.001988 
3180.000000	64.987230 
3179.000000	64.985227 
3178.000000	64.995837 
3177.000000	65.017247 
3176.000000	65.046191 
3175.000000	65.078759 
3174.000000	65.111184 
3173.000000	65.139913 
3172.000000	65.162324 
3171.000000	65.177011 
3170.000000	65.183854 
3169.000000	65.183925 
3168.000000	65.179038 
3167.000000	65.171885 
3166.000000	65.165090 
3165.000000	65.161299 
3164.000000	65.161895 
3163.000000	65.167546 
3162.000000	65.177106 
3161.000000	65.188598 
3160.000000	65.198802 
3159.000000	65.204596 
3158.000000	65.202879 
3157.000000	65.191698 
3156.000000	65.170192 
3155.000000	65.139269 
3154.000000	65.101122 
3153.000000	65.058970 
3152.000000	65.016579 
3151.000000	64.977645 
3150.000000	64.945411 
3149.000000	64.922046 
3148.000000	64.908432 
3147.000000	64.904141 
3146.000000	64.907455 
3145.000000	64.915966 
3144.000000	64.927029 
3143.000000	64.938402 
3142.000000	64.948606 
3141.000000	64.957213 
3140.000000	64.964962 
3139.000000	64.973378 
3138.000000	64.984273 
3137.000000	64.998698 
3136.000000	65.016698 
3135.000000	65.036606 
3134.000000	65.055632 
3133.000000	65.070080 
3132.000000	65.076327 
3131.000000	65.071773 
3130.000000	65.055632 
3129.000000	65.029311 
3128.000000	64.996337 
3127.000000	64.961481 
3126.000000	64.929866 
3125.000000	64.906001 
3124.000000	64.892721 
3123.000000	64.890909 
3122.000000	64.899539 
3121.000000	64.916133 
3120.000000	64.937424 
3119.000000	64.960432 
3118.000000	64.982843 
3117.000000	65.003252 
3116.000000	65.021204 
3115.000000	65.036749 
3114.000000	65.050435 
3113.000000	65.062689 
3112.000000	65.073895 
3111.000000	65.084338 
3110.000000	65.094161 
3109.000000	65.103626 
3108.000000	65.112733 
3107.000000	65.121746 
3106.000000	65.130329 
3105.000000	65.138101 
3104.000000	65.144062 
3103.000000	65.147233 
3102.000000	65.146374 
3101.000000	65.140748 
3100.000000	65.130043 
3099.000000	65.114712 
3098.000000	65.095782 
3097.000000	65.074491 
3096.000000	65.052151 
3095.000000	65.030002 
3094.000000	65.008926 
3093.000000	64.989566 
3092.000000	64.972591 
3091.000000	64.958858 
3090.000000	64.949631 
3089.000000	64.946532 
3088.000000	64.951157 
3087.000000	64.964723 
3086.000000	64.987754 
3085.000000	65.019536 
3084.000000	65.057849 
3083.000000	65.099167 
3082.000000	65.139245 
3081.000000	65.173578 
3080.000000	65.198183 
3079.000000	65.210556 
3078.000000	65.209937 
3077.000000	65.197610 
3076.000000	65.176653 
3075.000000	65.151309 
3074.000000	65.126252 
3073.000000	65.105605 
3072.000000	65.092563 
3071.000000	65.088653 
3070.000000	65.093588 
3069.000000	65.105509 
3068.000000	65.121674 
3067.000000	65.138769 
3066.000000	65.153837 
3065.000000	65.164804 
3064.000000	65.170669 
3063.000000	65.171504 
3062.000000	65.168213 
3061.000000	65.162253 
3060.000000	65.155148 
3059.000000	65.148067 
3058.000000	65.141701 
3057.000000	65.136122 
3056.000000	65.130758 
3055.000000	65.124750 
3054.000000	65.117287 
3053.000000	65.107679 
3052.000000	65.095925 
3051.000000	65.082740 
3050.000000	65.069556 
3049.000000	65.058016 
3048.000000	65.049576 
3047.000000	65.045189 
3046.000000	65.044975 
3045.000000	65.048098 
3044.000000	65.052795 
3043.000000	65.056800 
3042.000000	65.058135 
3041.000000	65.055513 
3040.000000	65.048718 
3039.000000	65.038561 
3038.000000	65.026760 
3037.000000	65.015316 
3036.000000	65.005874 
3035.000000	64.999055 
3034.000000	64.994454 
3033.000000	64.990711 
3032.000000	64.986181 
3031.000000	64.979410 
3030.000000	64.969873 
3029.000000	64.957952 
3028.000000	64.945006 
3027.000000	64.932918 
3026.000000	64.923286 
3025.000000	64.917373 
3024.000000	64.915585 
3023.000000	64.917922 
3022.000000	64.923691 
3021.000000	64.932250 
3020.000000	64.943075 
3019.000000	64.956045 
3018.000000	64.971256 
3017.000000	64.988732 
3016.000000	65.008068 
3015.000000	65.028500 
3014.000000	65.048718 
3013.000000	65.067243 
3012.000000	65.082836 
3011.000000	65.094923 
3010.000000	65.103673 
3009.000000	65.110111 
3008.000000	65.115642 
3007.000000	65.121698 
3006.000000	65.128898 
3005.000000	65.137243 
3004.000000	65.145516 
3003.000000	65.151977 
3002.000000	65.154504 
3001.000000	65.151405 
3000.000000	65.141630 
2999.000000	65.125346 
2998.000000	65.104007 
2997.000000	65.079879 
2996.000000	65.056061 
2995.000000	65.035581 
2994.000000	65.021491 
2993.000000	65.016007 
2992.000000	65.020442 
2991.000000	65.035057 
2990.000000	65.058898 
2989.000000	65.089988 
2988.000000	65.125322 
2987.000000	65.161132 
2986.000000	65.193247 
2985.000000	65.217804 
2984.000000	65.231513 
2983.000000	65.232348 
2982.000000	65.219783 
2981.000000	65.195083 
2980.000000	65.160870 
2979.000000	65.120863 
2978.000000	65.079164 
2977.000000	65.039515 
2976.000000	65.004754 
2975.000000	64.976549 
2974.000000	64.955639 
2973.000000	64.941692 
2972.000000	64.933991 
2971.000000	64.931511 
2970.000000	64.933300 
2969.000000	64.938545 
2968.000000	64.946198 
2967.000000	64.955258 
2966.000000	64.964175 
2965.000000	64.971375 
2964.000000	64.975237 
2963.000000	64.974498 
2962.000000	64.968585 
2961.000000	64.958047 
2960.000000	64.944338 
2959.000000	64.929723 
2958.000000	64.916753 
2957.000000	64.907622 
2956.000000	64.903664 
2955.000000	64.905190 
2954.000000	64.911508 
2953.000000	64.920949 
2952.000000	64.931488 
2951.000000	64.941215 
2950.000000	64.948725 
2949.000000	64.953279 
2948.000000	64.955163 
2947.000000	64.955139 
2946.000000	64.954400 
2945.000000	64.954280 
2944.000000	64.955806 
2943.000000	64.959430 
2942.000000	64.964842 
2941.000000	64.971637 
2940.000000	64.978861 
2939.000000	64.985442 
2938.000000	64.990472 
2937.000000	64.993405 
2936.000000	64.994096 
2935.000000	64.992833 
2934.000000	64.990425 
2933.000000	64.987754 
2932.000000	64.985966 
2931.000000	64.986205 
2930.000000	64.989304 
2929.000000	64.995741 
2928.000000	65.005326 
2927.000000	65.017199 
2926.000000	65.029859 
2925.000000	65.041518 
2924.000000	65.050148 
2923.000000	65.054106 
2922.000000	65.052318 
2921.000000	65.044784 
2920.000000	65.032529 
2919.000000	65.017580 
2918.000000	65.002608 
2917.000000	64.990377 
2916.000000	64.983582 
2915.000000	64.983963 
2914.000000	64.992141 
2913.000000	65.007352 
2912.000000	65.027642 
2911.000000	65.050196 
2910.000000	65.071797 
2909.000000	65.089440 
2908.000000	65.100955 
2907.000000	65.105462 
2906.000000	65.103340 
2905.000000	65.096044 
2904.000000	65.085792 
2903.000000	65.074968 
2902.000000	65.065646 
2901.000000	65.059041 
2900.000000	65.055465 
2899.000000	65.054321 
2898.000000	65.054488 
2897.000000	65.054726 
2896.000000	65.054011 
2895.000000	65.051937 
2894.000000	65.048718 
2893.000000	65.044927 
2892.000000	65.041136 
2891.000000	65.037894 
2890.000000	65.035104 
2889.000000	65.032291 
2888.000000	65.028452 
2887.000000	65.022611 
2886.000000	65.013980 
2885.000000	65.002226 
2884.000000	64.987683 
2883.000000	64.971327 
2882.000000	64.954638 
2881.000000	64.939355 
2880.000000	64.927101 
2879.000000	64.918947 
2878.000000	64.915466 
2877.000000	64.916682 
2876.000000	64.922165 
2875.000000	64.931082 
2874.000000	64.942622 
2873.000000	64.956212 
2872.000000	64.971518 
2871.000000	64.988374 
2870.000000	65.006780 
2869.000000	65.026617 
2868.000000	65.047693 
2867.000000	65.069413 
2866.000000	65.090966 
2865.000000	65.111160 
2864.000000	65.128993 
2863.000000	65.143418 
2862.000000	65.154027 
2861.000000	65.160369 
2860.000000	65.162873 
2859.000000	65.161752 
2858.000000	65.157246 
2857.000000	65.149235 
2856.000000	65.137648 
2855.000000	65.122103 
2854.000000	65.102338 
2853.000000	65.078473 
2852.000000	65.051364 
2851.000000	65.022349 
2850.000000	64.993238 
2849.000000	64.966130 
2848.000000	64.942812 
2847.000000	64.924478 
2846.000000	64.911556 
2845.000000	64.903593 
2844.000000	64.899611 
2843.000000	64.898324 
2842.000000	64.898681 
2841.000000	64.899945 
2840.000000	64.901781 
2839.000000	64.904236 
2838.000000	64.907526 
2837.000000	64.911603 
2836.000000	64.916348 
2835.000000	64.921426 
2834.000000	64.926695 
2833.000000	64.932179 
2832.000000	64.938330 
2831.000000	64.945912 
2830.000000	64.955854 
2829.000000	64.969038 
2828.000000	64.985537 
2827.000000	65.004348 
2826.000000	65.023612 
2825.000000	65.040850 
2824.000000	65.053582 
2823.000000	65.059947 
2822.000000	65.059375 
2821.000000	65.052723 
2820.000000	65.041875 
2819.000000	65.029382 
2818.000000	65.017580 
2817.000000	65.008282 
2816.000000	65.002036 
2815.000000	64.998483 
2814.000000	64.996528 
2813.000000	64.995074 
2812.000000	64.993309 
2811.000000	64.991235 
2810.000000	64.989614 
2809.000000	64.989829 
2808.000000	64.993214 
2807.000000	65.001082 
2806.000000	65.013813 
2805.000000	65.031290 
2804.000000	65.052771 
2803.000000	65.077137 
2802.000000	65.103292 
2801.000000	65.130114 
2800.000000	65.156364 
2799.000000	65.180850 
2798.000000	65.202188 
2797.000000	65.219068 
2796.000000	65.230321 
2795.000000	65.235280 
2794.000000	65.233826 
2793.000000	65.226316 
2792.000000	65.213775 
2791.000000	65.197396 
2790.000000	65.178394 
2789.000000	65.157818 
2788.000000	65.136623 
2787.000000	65.115714 
2786.000000	65.096163 
2785.000000	65.078902 
2784.000000	65.065169 
2783.000000	65.056371 
2782.000000	65.053820 
2781.000000	65.058469 
2780.000000	65.070629 
2779.000000	65.089726 
2778.000000	65.114235 
2777.000000	65.141868 
2776.000000	65.170049 
2775.000000	65.195965 
2774.000000	65.217375 
2773.000000	65.232729 
2772.000000	65.241122 
2771.000000	65.242481 
2770.000000	65.237212 
2769.000000	65.226101 
2768.000000	65.210103 
2767.000000	65.190124 
2766.000000	65.167260 
2765.000000	65.143013 
2764.000000	65.119123 
2763.000000	65.097856 
2762.000000	65.081787 
2761.000000	65.073442 
2760.000000	65.074896 
2759.000000	65.087294 
2758.000000	65.110301 
2757.000000	65.142083 
2756.000000	65.179514 
2755.000000	65.218329 
2754.000000	65.253853 
2753.000000	65.281915 
2752.000000	65.299344 
2751.000000	65.304589 
2750.000000	65.297913 
2749.000000	65.281081 
2748.000000	65.257143 
2747.000000	65.229701 
2746.000000	65.202260 
2745.000000	65.177464 
2744.000000	65.156888 
2743.000000	65.140724 
2742.000000	65.128183 
2741.000000	65.117669 
2740.000000	65.107393 
2739.000000	65.095877 
2738.000000	65.082502 
2737.000000	65.067338 
2736.000000	65.051412 
2735.000000	65.036034 
2734.000000	65.022897 
2733.000000	65.013241 
2732.000000	65.007901 
2731.000000	65.007066 
2730.000000	65.010452 
2729.000000	65.017271 
2728.000000	65.026736 
2727.000000	65.038037 
2726.000000	65.050530 
2725.000000	65.063595 
2724.000000	65.076589 
2723.000000	65.088820 
2722.000000	65.099382 
2721.000000	65.107107 
2720.000000	65.110754 
2719.000000	65.109348 
2718.000000	65.102243 
2717.000000	65.089559 
2716.000000	65.071940 
2715.000000	65.050697 
2714.000000	65.027761 
2713.000000	65.005445 
2712.000000	64.986062 
2711.000000	64.971637 
2710.000000	64.963746 
2709.000000	64.963293 
2708.000000	64.970064 
2707.000000	64.982962 
2706.000000	64.999938 
2705.000000	65.018725 
2704.000000	65.036988 
2703.000000	65.053009 
2702.000000	65.065789 
2701.000000	65.075159 
2700.000000	65.081691 
2699.000000	65.086221 
2698.000000	65.089583 
2697.000000	65.092062 
2696.000000	65.093469 
2695.000000	65.092921 
2694.000000	65.089392 
2693.000000	65.081882 
2692.000000	65.069985 
2691.000000	65.053939 
2690.000000	65.034914 
2689.000000	65.014576 
2688.000000	64.994978 
2687.000000	64.978027 
2686.000000	64.965248 
2685.000000	64.957690 
2684.000000	64.955687 
2683.000000	64.959001 
2682.000000	64.966797 
2681.000000	64.977717 
2680.000000	64.990043 
2679.000000	65.001583 
2678.000000	65.010452 
2677.000000	65.014982 
2676.000000	65.014362 
2675.000000	65.008711 
2674.000000	64.998984 
2673.000000	64.987015 
2672.000000	64.974880 
2671.000000	64.964580 
2670.000000	64.957547 
2669.000000	64.954328 
2668.000000	64.954710 
2667.000000	64.957785 
2666.000000	64.962434 
2665.000000	64.967918 
2664.000000	64.974045 
2663.000000	64.981222 
2662.000000	64.990305 
2661.000000	65.002226 
2660.000000	65.017342 
2659.000000	65.035271 
2658.000000	65.054798 
2657.000000	65.073919 
2656.000000	65.090560 
2655.000000	65.102863 
2654.000000	65.109825 
2653.000000	65.111231 
2652.000000	65.107774 
2651.000000	65.100741 
2650.000000	65.091729 
2649.000000	65.082192 
2648.000000	65.072965 
2647.000000	65.064525 
2646.000000	65.057349 
2645.000000	65.051722 
2644.000000	65.048050 
2643.000000	65.046787 
2642.000000	65.048265 
2641.000000	65.052485 
2640.000000	65.059018 
2639.000000	65.067076 
2638.000000	65.075445 
2637.000000	65.082931 
2636.000000	65.088605 
2635.000000	65.092015 
2634.000000	65.093207 
2633.000000	65.092563 
2632.000000	65.090823 
2631.000000	65.088486 
2630.000000	65.086078 
2629.000000	65.083718 
2628.000000	65.081167 
2627.000000	65.078067 
2626.000000	65.073585 
2625.000000	65.066933 
2624.000000	65.057158 
2623.000000	65.043449 
2622.000000	65.025115 
2621.000000	65.001821 
2620.000000	64.974069 
2619.000000	64.943242 
2618.000000	64.911937 
2617.000000	64.883661 
2616.000000	64.862251 
2615.000000	64.851284 
2614.000000	64.853096 
2613.000000	64.868140 
2612.000000	64.894652 
2611.000000	64.928674 
2610.000000	64.964938 
2609.000000	64.997768 
2608.000000	65.022683 
2607.000000	65.037345 
2606.000000	65.041875 
2605.000000	65.038704 
2604.000000	65.031766 
2603.000000	65.025043 
2602.000000	65.021562 
2601.000000	65.022277 
2600.000000	65.026140 
2599.000000	65.030264 
2598.000000	65.031290 
2597.000000	65.026307 
2596.000000	65.013813 
2595.000000	64.994215 
2594.000000	64.969801 
2593.000000	64.944076 
2592.000000	64.920687 
2591.000000	64.902901 
2590.000000	64.892363 
2589.000000	64.889264 
2588.000000	64.892482 
2587.000000	64.899849 
2586.000000	64.909195 
2585.000000	64.918565 
2584.000000	64.926552 
2583.000000	64.932298 
2582.000000	64.935350 
2581.000000	64.935493 
2580.000000	64.932632 
2579.000000	64.926648 
2578.000000	64.917469 
2577.000000	64.905524 
2576.000000	64.891695 
2575.000000	64.877343 
2574.000000	64.864253 
2573.000000	64.854359 
2572.000000	64.849376 
2571.000000	64.850425 
2570.000000	64.857816 
2569.000000	64.870643 
2568.000000	64.887285 
2567.000000	64.905452 
2566.000000	64.922904 
2565.000000	64.937686 
2564.000000	64.948630 
2563.000000	64.955520 
2562.000000	64.958977 
2561.000000	64.959979 
2560.000000	64.959836 
2559.000000	64.959692 
2558.000000	64.959931 
2557.000000	64.960336 
2556.000000	64.960098 
2555.000000	64.958071 
2554.000000	64.953231 
2553.000000	64.945054 
2552.000000	64.933657 
2551.000000	64.919877 
2550.000000	64.904856 
2549.000000	64.889860 
2548.000000	64.875984 
2547.000000	64.864039 
2546.000000	64.854550 
2545.000000	64.847993 
2544.000000	64.844727 
2543.000000	64.845252 
2542.000000	64.850163 
2541.000000	64.859986 
2540.000000	64.874887 
2539.000000	64.894485 
2538.000000	64.917874 
2537.000000	64.943575 
2536.000000	64.969754 
2535.000000	64.994382 
2534.000000	65.015745 
2533.000000	65.032577 
2532.000000	65.044212 
2531.000000	65.050649 
2530.000000	65.052247 
2529.000000	65.049862 
2528.000000	65.044450 
2527.000000	65.037274 
2526.000000	65.029740 
2525.000000	65.023255 
2524.000000	65.019083 
2523.000000	65.018248 
2522.000000	65.021133 
2521.000000	65.027332 
2520.000000	65.035653 
2519.000000	65.044403 
2518.000000	65.051484 
2517.000000	65.055131 
2516.000000	65.054130 
2515.000000	65.048003 
2514.000000	65.037155 
2513.000000	65.022850 
2512.000000	65.006947 
2511.000000	64.991378 
2510.000000	64.977955 
2509.000000	64.968156 
2508.000000	64.962863 
2507.000000	64.962410 
2506.000000	64.966583 
2505.000000	64.974665 
2504.000000	64.985561 
2503.000000	64.998030 
2502.000000	65.010523 
2501.000000	65.021252 
2500.000000	65.028500 
2499.000000	65.030765 
2498.000000	65.026926 
2497.000000	65.016531 
2496.000000	65.000081 
2495.000000	64.979195 
2494.000000	64.956331 
2493.000000	64.934444 
2492.000000	64.916658 
2491.000000	64.905667 
2490.000000	64.903068 
2489.000000	64.909291 
2488.000000	64.923381 
2487.000000	64.943289 
2486.000000	64.966225 
2485.000000	64.989328 
2484.000000	65.009927 
2483.000000	65.026235 
2482.000000	65.037441 
2481.000000	65.043735 
2480.000000	65.045785 
2479.000000	65.044665 
2478.000000	65.041613 
2477.000000	65.037226 
2476.000000	65.031766 
2475.000000	65.024852 
2474.000000	65.016007 
2473.000000	65.004682 
2472.000000	64.990496 
2471.000000	64.973568 
2470.000000	64.954376 
2469.000000	64.933753 
2468.000000	64.912676 
2467.000000	64.892077 
2466.000000	64.872694 
2465.000000	64.855003 
2464.000000	64.839315 
2463.000000	64.825916 
2462.000000	64.815068 
2461.000000	64.807081 
2460.000000	64.802551 
2459.000000	64.802002 
2458.000000	64.806222 
2457.000000	64.815783 
2456.000000	64.831161 
2455.000000	64.852237 
2454.000000	64.878344 
2453.000000	64.908313 
2452.000000	64.940476 
2451.000000	64.972496 
2450.000000	65.002036 
2449.000000	65.026855 
2448.000000	65.045142 
2447.000000	65.056037 
2446.000000	65.059685 
2445.000000	65.057301 
2444.000000	65.050888 
2443.000000	65.042948 
2442.000000	65.035843 
2441.000000	65.031433 
2440.000000	65.030717 
2439.000000	65.033674 
2438.000000	65.039658 
2437.000000	65.047430 
2436.000000	65.055823 
2435.000000	65.063810 
2434.000000	65.070605 
2433.000000	65.075683 
2432.000000	65.078783 
2431.000000	65.079760 
2430.000000	65.078067 
2429.000000	65.073347 
2428.000000	65.065312 
2427.000000	65.054011 
2426.000000	65.040087 
2425.000000	65.024781 
2424.000000	65.009927 
2423.000000	64.997458 
2422.000000	64.988946 
2421.000000	64.985084 
2420.000000	64.985346 
2419.000000	64.987969 
2418.000000	64.990258 
2417.000000	64.989018 
2416.000000	64.981126 
2415.000000	64.964437 
2414.000000	64.938306 
2413.000000	64.903664 
2412.000000	64.863252 
2411.000000	64.821290 
2410.000000	64.782786 
2409.000000	64.752602 
2408.000000	64.734745 
2407.000000	64.731502 
2406.000000	64.743161 
2405.000000	64.767527 
2404.000000	64.801096 
2403.000000	64.839267 
2402.000000	64.877820 
2401.000000	64.913010 
2400.000000	64.943099 
2399.000000	64.967966 
2398.000000	64.989042 
2397.000000	65.008544 
2396.000000	65.028405 
2395.000000	65.049600 
2394.000000	65.071511 
2393.000000	65.092158 
2392.000000	65.108466 
2391.000000	65.117263 
2390.000000	65.116143 
2389.000000	65.104436 
2388.000000	65.083336 
2387.000000	65.055656 
2386.000000	65.025329 
2385.000000	64.996600 
2384.000000	64.972949 
2383.000000	64.956450 
2382.000000	64.947843 
2381.000000	64.946103 
2380.000000	64.949274 
2379.000000	64.954710 
2378.000000	64.960050 
2377.000000	64.963436 
2376.000000	64.963698 
2375.000000	64.960336 
2374.000000	64.953470 
2373.000000	64.943814 
2372.000000	64.932203 
2371.000000	64.919781 
2370.000000	64.907670 
2369.000000	64.897179 
2368.000000	64.889574 
2367.000000	64.885973 
2366.000000	64.886999 
2365.000000	64.892816 
2364.000000	64.902973 
2363.000000	64.916253 
2362.000000	64.930987 
2361.000000	64.945197 
2360.000000	64.957189 
2359.000000	64.965534 
2358.000000	64.969539 
2357.000000	64.969420 
2356.000000	64.966034 
2355.000000	64.960765 
2354.000000	64.955234 
2353.000000	64.950585 
2352.000000	64.947628 
2351.000000	64.946651 
2350.000000	64.947509 
2349.000000	64.949941 
2348.000000	64.953422 
2347.000000	64.957880 
2346.000000	64.963245 
2345.000000	64.969515 
2344.000000	64.976572 
2343.000000	64.983892 
2342.000000	64.990496 
2341.000000	64.994955 
2340.000000	64.995741 
2339.000000	64.991593 
2338.000000	64.981722 
2337.000000	64.966130 
2336.000000	64.945697 
2335.000000	64.922094 
2334.000000	64.897370 
2333.000000	64.873528 
2332.000000	64.852356 
2331.000000	64.835047 
2330.000000	64.822411 
2329.000000	64.814949 
2328.000000	64.812707 
2327.000000	64.815545 
2326.000000	64.823269 
2325.000000	64.835309 
2324.000000	64.850735 
2323.000000	64.868187 
2322.000000	64.885926 
2321.000000	64.902305 
2320.000000	64.915633 
2319.000000	64.924860 
2318.000000	64.929580 
2317.000000	64.930224 
2316.000000	64.928030 
2315.000000	64.924693 
2314.000000	64.921951 
2313.000000	64.921307 
2312.000000	64.923691 
2311.000000	64.929413 
2310.000000	64.938235 
2309.000000	64.949464 
2308.000000	64.962077 
2307.000000	64.974904 
2306.000000	64.986658 
2305.000000	64.996051 
2304.000000	65.001964 
2303.000000	65.003371 
2302.000000	64.999604 
2301.000000	64.990639 
2300.000000	64.976906 
2299.000000	64.959692 
2298.000000	64.940667 
2297.000000	64.921808 
2296.000000	64.905261 
2295.000000	64.892888 
2294.000000	64.885973 
2293.000000	64.885091 
2292.000000	64.890170 
2291.000000	64.900565 
2290.000000	64.915037 
2289.000000	64.932060 
2288.000000	64.949989 
2287.000000	64.967083 
2286.000000	64.981770 
2285.000000	64.992666 
2284.000000	64.998841 
2283.000000	64.999818 
2282.000000	64.995741 
2281.000000	64.987468 
2280.000000	64.976334 
2279.000000	64.963793 
2278.000000	64.951467 
2277.000000	64.940428 
2276.000000	64.931321 
2275.000000	64.923930 
2274.000000	64.917635 
2273.000000	64.911413 
2272.000000	64.904379 
2271.000000	64.896321 
2270.000000	64.887499 
2269.000000	64.879155 
2268.000000	64.872908 
2267.000000	64.870429 
2266.000000	64.873003 
2265.000000	64.880967 
2264.000000	64.893436 
2263.000000	64.908456 
2262.000000	64.923357 
2261.000000	64.935183 
2260.000000	64.941573 
2259.000000	64.941096 
2258.000000	64.933681 
2257.000000	64.920663 
2256.000000	64.904427 
2255.000000	64.887785 
2254.000000	64.873385 
2253.000000	64.863014 
2252.000000	64.857482 
2251.000000	64.856457 
2250.000000	64.858579 
2249.000000	64.862155 
2248.000000	64.865469 
2247.000000	64.867234 
2246.000000	64.867186 
2245.000000	64.865684 
2244.000000	64.863896 
2243.000000	64.863109 
2242.000000	64.864516 
2241.000000	64.868664 
2240.000000	64.875435 
2239.000000	64.884018 
2238.000000	64.893031 
2237.000000	64.900946 
2236.000000	64.906191 
2235.000000	64.907860 
2234.000000	64.905452 
2233.000000	64.899039 
2232.000000	64.889192 
2231.000000	64.876747 
2230.000000	64.862656 
2229.000000	64.847922 
2228.000000	64.833450 
2227.000000	64.820241 
2226.000000	64.809012 
2225.000000	64.800453 
2224.000000	64.794993 
2223.000000	64.792752 
2222.000000	64.793276 
2221.000000	64.795780 
2220.000000	64.798951 
2219.000000	64.801478 
2218.000000	64.802193 
2217.000000	64.800524 
2216.000000	64.796543 
2215.000000	64.791059 
2214.000000	64.785289 
2213.000000	64.781022 
2212.000000	64.779710 
2211.000000	64.782738 
2210.000000	64.790892 
2209.000000	64.804601 
2208.000000	64.823746 
2207.000000	64.847731 
2206.000000	64.875602 
2205.000000	64.906215 
2204.000000	64.938068 
2203.000000	64.969587 
2202.000000	64.999246 
2201.000000	65.025591 
2200.000000	65.047383 
2199.000000	65.063619 
2198.000000	65.073609 
2197.000000	65.077114 
2196.000000	65.074324 
2195.000000	65.065622 
2194.000000	65.051722 
2193.000000	65.033721 
2192.000000	65.012764 
2191.000000	64.990282 
2190.000000	64.967417 
2189.000000	64.945673 
2188.000000	64.926052 
2187.000000	64.909243 
2186.000000	64.895486 
2185.000000	64.884519 
2184.000000	64.875912 
2183.000000	64.869022 
2182.000000	64.863348 
2181.000000	64.858365 
2180.000000	64.853835 
2179.000000	64.849758 
2178.000000	64.846205 
2177.000000	64.843177 
2176.000000	64.840722 
2175.000000	64.839005 
2174.000000	64.838075 
2173.000000	64.838075 
2172.000000	64.839100 
2171.000000	64.841127 
2170.000000	64.844083 
2169.000000	64.847779 
2168.000000	64.852023 
2167.000000	64.856839 
2166.000000	64.862394 
2165.000000	64.869022 
2164.000000	64.877128 
2163.000000	64.886879 
2162.000000	64.898443 
2161.000000	64.911270 
2160.000000	64.924430 
2159.000000	64.936351 
2158.000000	64.945363 
2157.000000	64.949631 
2156.000000	64.947485 
2155.000000	64.937949 
2154.000000	64.920997 
2153.000000	64.897799 
2152.000000	64.870595 
2151.000000	64.842581 
2150.000000	64.817309 
2149.000000	64.798021 
2148.000000	64.786982 
2147.000000	64.784908 
2146.000000	64.790987 
2145.000000	64.802861 
2144.000000	64.817142 
2143.000000	64.830350 
2142.000000	64.839696 
2141.000000	64.843750 
2140.000000	64.842939 
2139.000000	64.838910 
2138.000000	64.834332 
2137.000000	64.831805 
2136.000000	64.833188 
2135.000000	64.838862 
2134.000000	64.847803 
2133.000000	64.858055 
2132.000000	64.867186 
2131.000000	64.873170 
2130.000000	64.874887 
2129.000000	64.872241 
2128.000000	64.866352 
2127.000000	64.858746 
2126.000000	64.851546 
2125.000000	64.846611 
2124.000000	64.845490 
2123.000000	64.849042 
2122.000000	64.857649 
2121.000000	64.871025 
2120.000000	64.888429 
2119.000000	64.908647 
2118.000000	64.929890 
2117.000000	64.950013 
2116.000000	64.966535 
2115.000000	64.977192 
2114.000000	64.980196 
2113.000000	64.974784 
2112.000000	64.961266 
2111.000000	64.941287 
2110.000000	64.917206 
2109.000000	64.891982 
2108.000000	64.868521 
2107.000000	64.849185 
2106.000000	64.835429 
2105.000000	64.827871 
2104.000000	64.826226 
2103.000000	64.829468 
2102.000000	64.836144 
2101.000000	64.844560 
2100.000000	64.852952 
2099.000000	64.859819 
2098.000000	64.864206 
2097.000000	64.865732 
2096.000000	64.864540 
2095.000000	64.861345 
2094.000000	64.857292 
2093.000000	64.853620 
2092.000000	64.851284 
2091.000000	64.850497 
2090.000000	64.850640 
2089.000000	64.850139 
2088.000000	64.847135 
2087.000000	64.839935 
2086.000000	64.827942 
2085.000000	64.811778 
2084.000000	64.793562 
2083.000000	64.776349 
2082.000000	64.763450 
2081.000000	64.757537 
2080.000000	64.760160 
2079.000000	64.771246 
2078.000000	64.788961 
2077.000000	64.810466 
2076.000000	64.832162 
2075.000000	64.850592 
2074.000000	64.862990 
2073.000000	64.867877 
2072.000000	64.865231 
2071.000000	64.856314 
2070.000000	64.843344 
2069.000000	64.829015 
2068.000000	64.815711 
2067.000000	64.805150 
2066.000000	64.798116 
2065.000000	64.794540 
2064.000000	64.793586 
2063.000000	64.794206 
2062.000000	64.795279 
2061.000000	64.796113 
2060.000000	64.796614 
2059.000000	64.797043 
2058.000000	64.797973 
2057.000000	64.800024 
2056.000000	64.803218 
2055.000000	64.807343 
2054.000000	64.811635 
2053.000000	64.815115 
2052.000000	64.816832 
2051.000000	64.816141 
2050.000000	64.813208 
2049.000000	64.808678 
2048.000000	64.803695 
2047.000000	64.799451 
2046.000000	64.797019 
2045.000000	64.796924 
2044.000000	64.799165 
2043.000000	64.803028 
2042.000000	64.807438 
2041.000000	64.811301 
2040.000000	64.813637 
2039.000000	64.813923 
2038.000000	64.812159 
2037.000000	64.808678 
2036.000000	64.804267 
2035.000000	64.799666 
2034.000000	64.795684 
2033.000000	64.792823 
2032.000000	64.791464 
2031.000000	64.791703 
2030.000000	64.793562 
2029.000000	64.796972 
2028.000000	64.801979 
2027.000000	64.808464 
2026.000000	64.816379 
2025.000000	64.825677 
2024.000000	64.836215 
2023.000000	64.847612 
2022.000000	64.859461 
2021.000000	64.871191 
2020.000000	64.882230 
2019.000000	64.892029 
2018.000000	64.900088 
2017.000000	64.906120 
2016.000000	64.909982 
2015.000000	64.911723 
2014.000000	64.911556 
2013.000000	64.909648 
2012.000000	64.906144 
2011.000000	64.901208 
2010.000000	64.895033 
2009.000000	64.887690 
2008.000000	64.879560 
2007.000000	64.871120 
2006.000000	64.863014 
2005.000000	64.855980 
2004.000000	64.850735 
2003.000000	64.847612 
2002.000000	64.846491 
2001.000000	64.846372 
2000.000000	64.845991 
1999.000000	64.843463 
1998.000000	64.837384 
1997.000000	64.826583 
1996.000000	64.810943 
1995.000000	64.791345 
1994.000000	64.769577 
1993.000000	64.748191 
1992.000000	64.729762 
1991.000000	64.716601 
1990.000000	64.710378 
1989.000000	64.711761 
1988.000000	64.720296 
1987.000000	64.734625 
1986.000000	64.752840 
1985.000000	64.772725 
1984.000000	64.792180 
1983.000000	64.809370 
1982.000000	64.823007 
1981.000000	64.832353 
1980.000000	64.837455 
1979.000000	64.838767 
1978.000000	64.837288 
1977.000000	64.834427 
1976.000000	64.831399 
1975.000000	64.829421 
1974.000000	64.829111 
1973.000000	64.830684 
1972.000000	64.833688 
1971.000000	64.837241 
1970.000000	64.840030 
1969.000000	64.840865 
1968.000000	64.838695 
1967.000000	64.832878 
1966.000000	64.823031 
1965.000000	64.809346 
1964.000000	64.792418 
1963.000000	64.773082 
1962.000000	64.752435 
1961.000000	64.731764 
1960.000000	64.712500 
1959.000000	64.696240 
1958.000000	64.684557 
1957.000000	64.678812 
1956.000000	64.679956 
1955.000000	64.688158 
1954.000000	64.702677 
1953.000000	64.721655 
1952.000000	64.742517 
1951.000000	64.762258 
1950.000000	64.777898 
1949.000000	64.787244 
1948.000000	64.789199 
1947.000000	64.784193 
1946.000000	64.773869 
1945.000000	64.760923 
1944.000000	64.748215 
1943.000000	64.738225 
1942.000000	64.732718 
1941.000000	64.732098 
1940.000000	64.735746 
1939.000000	64.742064 
1938.000000	64.749121 
1937.000000	64.755010 
1936.000000	64.758658 
1935.000000	64.759612 
1934.000000	64.758181 
1933.000000	64.755320 
1932.000000	64.752221 
1931.000000	64.749836 
1930.000000	64.748883 
1929.000000	64.749574 
1928.000000	64.751482 
1927.000000	64.753937 
1926.000000	64.756083 
1925.000000	64.756989 
1924.000000	64.755749 
1923.000000	64.751815 
1922.000000	64.745116 
1921.000000	64.736151 
1920.000000	64.725971 
1919.000000	64.716053 
1918.000000	64.708065 
1917.000000	64.703583 
1916.000000	64.703607 
1915.000000	64.708423 
1914.000000	64.717197 
1913.000000	64.728403 
1912.000000	64.739990 
1911.000000	64.749670 
1910.000000	64.755535 
1909.000000	64.756536 
1908.000000	64.752554 
1907.000000	64.744257 
1906.000000	64.733099 
1905.000000	64.720869 
1904.000000	64.709210 
1903.000000	64.699411 
1902.000000	64.692354 
1901.000000	64.688491 
1900.000000	64.688110 
1899.000000	64.691352 
1898.000000	64.698338 
1897.000000	64.709019 
1896.000000	64.723277 
1895.000000	64.740705 
1894.000000	64.760398 
1893.000000	64.781308 
1892.000000	64.802002 
1891.000000	64.820885 
1890.000000	64.836478 
1889.000000	64.847350 
1888.000000	64.852690 
1887.000000	64.851903 
1886.000000	64.844822 
1885.000000	64.831829 
1884.000000	64.813876 
1883.000000	64.792370 
1882.000000	64.769053 
1881.000000	64.745807 
1880.000000	64.724683 
1879.000000	64.707303 
1878.000000	64.694809 
1877.000000	64.687490 
1876.000000	64.684891 
1875.000000	64.685845 
1874.000000	64.688849 
1873.000000	64.692354 
1872.000000	64.695072 
1871.000000	64.696145 
1870.000000	64.695239 
1869.000000	64.692330 
1868.000000	64.687728 
1867.000000	64.681696 
1866.000000	64.674496 
1865.000000	64.666199 
1864.000000	64.657044 
1863.000000	64.647626 
1862.000000	64.639019 
1861.000000	64.632630 
1860.000000	64.630103 
1859.000000	64.632844 
1858.000000	64.641618 
1857.000000	64.656043 
1856.000000	64.674592 
1855.000000	64.694714 
1854.000000	64.713311 
1853.000000	64.727473 
1852.000000	64.735126 
1851.000000	64.735531 
1850.000000	64.729475 
1849.000000	64.719176 
1848.000000	64.707708 
1847.000000	64.698076 
1846.000000	64.692783 
1845.000000	64.693045 
1844.000000	64.698576 
1843.000000	64.707684 
1842.000000	64.717864 
1841.000000	64.726138 
1840.000000	64.729976 
1839.000000	64.727687 
1838.000000	64.718842 
1837.000000	64.704298 
1836.000000	64.686036 
1835.000000	64.666652 
1834.000000	64.648938 
1833.000000	64.635252 
1832.000000	64.627075 
1831.000000	64.624857 
1830.000000	64.627909 
1829.000000	64.634776 
1828.000000	64.643645 
1827.000000	64.652657 
1826.000000	64.660406 
1825.000000	64.666104 
1824.000000	64.669680 
1823.000000	64.671468 
1822.000000	64.672040 
1821.000000	64.672017 
1820.000000	64.671921 
1819.000000	64.671850 
1818.000000	64.671683 
1817.000000	64.671206 
1816.000000	64.670276 
1815.000000	64.668965 
1814.000000	64.667630 
1813.000000	64.667034 
1812.000000	64.668035 
1811.000000	64.671397 
1810.000000	64.677500 
1809.000000	64.686298 
1808.000000	64.697051 
1807.000000	64.708518 
1806.000000	64.719176 
1805.000000	64.727401 
1804.000000	64.731931 
1803.000000	64.732217 
1802.000000	64.728593 
1801.000000	64.722084 
1800.000000	64.714264 
1799.000000	64.706993 
1798.000000	64.701676 
1797.000000	64.699006 
1796.000000	64.698743 
1795.000000	64.699721 
1794.000000	64.700365 
1793.000000	64.698934 
1792.000000	64.694070 
1791.000000	64.685201 
1790.000000	64.672660 
1789.000000	64.657449 
1788.000000	64.640903 
1787.000000	64.624571 
1786.000000	64.609766 
1785.000000	64.597415 
1784.000000	64.587974 
1783.000000	64.581346 
1782.000000	64.577364 
1781.000000	64.575743 
1780.000000	64.576077 
1779.000000	64.578247 
1778.000000	64.582157 
1777.000000	64.588069 
1776.000000	64.595937 
1775.000000	64.605832 
1774.000000	64.617681 
1773.000000	64.631342 
1772.000000	64.646387 
1771.000000	64.662241 
1770.000000	64.678049 
1769.000000	64.692807 
1768.000000	64.705300 
1767.000000	64.714312 
1766.000000	64.718794 
1765.000000	64.718031 
1764.000000	64.711785 
1763.000000	64.700102 
1762.000000	64.683341 
1761.000000	64.662241 
1760.000000	64.637732 
1759.000000	64.610958 
1758.000000	64.583158 
1757.000000	64.555692 
1756.000000	64.529848 
1755.000000	64.506721 
1754.000000	64.487433 
1753.000000	64.472651 
1752.000000	64.462566 
1751.000000	64.456987 
1750.000000	64.455246 
1749.000000	64.456248 
1748.000000	64.458751 
1747.000000	64.461398 
1746.000000	64.463067 
1745.000000	64.462876 
1744.000000	64.460468 
1743.000000	64.456009 
1742.000000	64.450097 
1741.000000	64.443707 
1740.000000	64.438128 
1739.000000	64.434719 
1738.000000	64.434766 
1737.000000	64.438986 
1736.000000	64.447474 
1735.000000	64.459395 
1734.000000	64.473176 
1733.000000	64.486885 
1732.000000	64.498257 
1731.000000	64.505505 
1730.000000	64.507532 
1729.000000	64.504241 
1728.000000	64.496421 
1727.000000	64.485716 
1726.000000	64.474225 
1725.000000	64.464116 
1724.000000	64.457106 
1723.000000	64.454412 
1722.000000	64.456486 
1721.000000	64.463067 
1720.000000	64.473176 
1719.000000	64.485549 
1718.000000	64.498734 
1717.000000	64.511418 
1716.000000	64.522862 
1715.000000	64.532685 
1714.000000	64.540982 
1713.000000	64.548397 
1712.000000	64.555644 
1711.000000	64.563703 
1710.000000	64.573216 
1709.000000	64.584612 
1708.000000	64.597582 
1707.000000	64.611506 
1706.000000	64.624929 
1705.000000	64.636325 
1704.000000	64.643859 
1703.000000	64.645981 
1702.000000	64.642000 
1701.000000	64.631819 
1700.000000	64.616489 
1699.000000	64.597988 
1698.000000	64.578962 
1697.000000	64.562129 
1696.000000	64.549851 
1695.000000	64.543581 
1694.000000	64.543485 
1693.000000	64.548516 
1692.000000	64.556431 
1691.000000	64.564538 
1690.000000	64.570236 
1689.000000	64.571762 
1688.000000	64.568495 
1687.000000	64.560937 
1686.000000	64.550781 
1685.000000	64.540290 
1684.000000	64.531683 
1683.000000	64.526724 
1682.000000	64.526343 
1681.000000	64.530563 
1680.000000	64.538717 
1679.000000	64.549732 
1678.000000	64.562344 
1677.000000	64.575648 
1676.000000	64.588928 
1675.000000	64.601826 
1674.000000	64.614248 
1673.000000	64.626169 
1672.000000	64.637255 
1671.000000	64.647150 
1670.000000	64.655494 
1669.000000	64.661884 
1668.000000	64.665985 
1667.000000	64.667654 
1666.000000	64.666914 
1665.000000	64.663672 
1664.000000	64.657998 
1663.000000	64.649653 
1662.000000	64.638519 
1661.000000	64.624476 
1660.000000	64.607858 
1659.000000	64.589357 
1658.000000	64.570164 
1657.000000	64.552092 
1656.000000	64.537119 
1655.000000	64.527273 
1654.000000	64.524197 
1653.000000	64.528799 
1652.000000	64.540767 
1651.000000	64.558506 
1650.000000	64.579272 
1649.000000	64.599657 
1648.000000	64.616084 
1647.000000	64.625525 
1646.000000	64.625811 
1645.000000	64.616203 
1644.000000	64.597225 
1643.000000	64.570593 
1642.000000	64.538764 
1641.000000	64.504361 
1640.000000	64.470219 
1639.000000	64.438843 
1638.000000	64.412355 
1637.000000	64.392447 
1636.000000	64.380383 
1635.000000	64.376950 
1634.000000	64.382123 
1633.000000	64.395213 
1632.000000	64.414548 
1631.000000	64.437985 
1630.000000	64.462661 
1629.000000	64.485907 
1628.000000	64.505267 
1627.000000	64.519214 
1626.000000	64.527297 
1625.000000	64.530324 
1624.000000	64.530014 
1623.000000	64.528369 
1622.000000	64.527344 
1621.000000	64.528250 
1620.000000	64.531421 
1619.000000	64.536333 
1618.000000	64.541792 
1617.000000	64.546298 
1616.000000	64.548778 
1615.000000	64.548826 
1614.000000	64.546990 
1613.000000	64.544320 
1612.000000	64.542245 
1611.000000	64.541721 
1610.000000	64.543247 
1609.000000	64.546227 
1608.000000	64.549160 
1607.000000	64.550352 
1606.000000	64.548110 
1605.000000	64.541578 
1604.000000	64.531016 
1603.000000	64.517807 
1602.000000	64.504289 
1601.000000	64.492940 
1600.000000	64.485788 
1599.000000	64.483737 
1598.000000	64.486145 
1597.000000	64.490890 
1596.000000	64.494895 
1595.000000	64.494776 
1594.000000	64.487862 
1593.000000	64.472723 
1592.000000	64.450049 
1591.000000	64.421987 
1590.000000	64.392256 
1589.000000	64.365077 
1588.000000	64.344501 
1587.000000	64.333391 
1586.000000	64.333224 
1585.000000	64.343667 
1584.000000	64.362955 
1583.000000	64.388203 
1582.000000	64.416122 
1581.000000	64.443516 
1580.000000	64.467811 
1579.000000	64.487242 
1578.000000	64.501070 
1577.000000	64.509463 
1576.000000	64.513421 
1575.000000	64.514374 
1574.000000	64.513969 
1573.000000	64.513826 
1572.000000	64.515376 
1571.000000	64.519476 
1570.000000	64.526271 
1569.000000	64.535093 
1568.000000	64.544916 
1567.000000	64.554286 
1566.000000	64.561820 
1565.000000	64.566230 
1564.000000	64.566826 
1563.000000	64.563322 
1562.000000	64.555835 
1561.000000	64.544820 
1560.000000	64.530849 
1559.000000	64.514541 
1558.000000	64.496469 
1557.000000	64.477396 
1556.000000	64.458370 
1555.000000	64.440488 
1554.000000	64.425110 
1553.000000	64.413404 
1552.000000	64.406251 
1551.000000	64.403772 
1550.000000	64.405560 
1549.000000	64.410376 
1548.000000	64.416551 
1547.000000	64.422512 
1546.000000	64.427232 
1545.000000	64.430403 
1544.000000	64.432454 
1543.000000	64.434170 
1542.000000	64.436435 
1541.000000	64.439773 
1540.000000	64.444184 
1539.000000	64.449119 
1538.000000	64.453792 
1537.000000	64.457392 
1536.000000	64.459490 
1535.000000	64.460349 
1534.000000	64.460730 
1533.000000	64.461803 
1532.000000	64.464855 
1531.000000	64.470696 
1530.000000	64.479613 
1529.000000	64.491248 
1528.000000	64.504647 
1527.000000	64.518570 
1526.000000	64.531993 
1525.000000	64.544248 
1524.000000	64.554977 
1523.000000	64.564418 
1522.000000	64.573025 
1521.000000	64.581298 
1520.000000	64.589881 
1519.000000	64.599156 
1518.000000	64.609432 
1517.000000	64.620494 
1516.000000	64.631867 
1515.000000	64.642357 
1514.000000	64.650654 
1513.000000	64.655256 
1512.000000	64.654850 
1511.000000	64.648556 
1510.000000	64.636445 
1509.000000	64.619493 
1508.000000	64.599394 
1507.000000	64.578604 
1506.000000	64.559721 
1505.000000	64.545083 
1504.000000	64.536404 
1503.000000	64.534544 
1502.000000	64.539289 
1501.000000	64.549708 
1500.000000	64.564418 
1499.000000	64.581704 
1498.000000	64.599704 
1497.000000	64.616680 
1496.000000	64.631080 
1495.000000	64.641189 
1494.000000	64.645504 
1493.000000	64.642715 
1492.000000	64.631915 
1491.000000	64.613056 
1490.000000	64.587187 
1489.000000	64.556264 
1488.000000	64.523196 
1487.000000	64.491462 
1486.000000	64.464688 
1485.000000	64.445996 
1484.000000	64.437389 
1483.000000	64.439439 
1482.000000	64.450955 
1481.000000	64.469289 
1480.000000	64.490675 
1479.000000	64.510798 
1478.000000	64.525842 
1477.000000	64.532995 
1476.000000	64.531087 
1475.000000	64.520478 
1474.000000	64.502978 
1473.000000	64.481043 
1472.000000	64.457392 
1471.000000	64.434432 
1470.000000	64.414048 
1469.000000	64.397525 
1468.000000	64.385581 
1467.000000	64.378762 
1466.000000	64.377427 
1465.000000	64.382123 
1464.000000	64.393162 
1463.000000	64.410781 
1462.000000	64.434909 
1461.000000	64.465045 
1460.000000	64.500117 
1459.000000	64.538025 
1458.000000	64.576029 
1457.000000	64.610624 
1456.000000	64.638185 
1455.000000	64.655399 
1454.000000	64.659667 
1453.000000	64.649701 
1452.000000	64.625859 
1451.000000	64.590358 
1450.000000	64.547061 
1449.000000	64.500737 
1448.000000	64.456629 
1447.000000	64.419674 
1446.000000	64.393901 
1445.000000	64.381694 
1444.000000	64.383578 
1443.000000	64.398288 
1442.000000	64.422917 
1441.000000	64.453530 
1440.000000	64.485764 
1439.000000	64.515209 
1438.000000	64.538240 
1437.000000	64.552402 
1436.000000	64.556646 
1435.000000	64.551591 
1434.000000	64.539194 
1433.000000	64.522552 
1432.000000	64.504861 
1431.000000	64.489364 
1430.000000	64.477992 
1429.000000	64.471721 
1428.000000	64.469885 
1427.000000	64.470887 
1426.000000	64.472389 
1425.000000	64.471960 
1424.000000	64.467549 
1423.000000	64.457988 
1422.000000	64.443063 
1421.000000	64.423513 
1420.000000	64.400887 
1419.000000	64.376878 
1418.000000	64.353418 
1417.000000	64.332175 
1416.000000	64.314579 
1415.000000	64.301490 
1414.000000	64.293432 
1413.000000	64.290499 
1412.000000	64.292359 
1411.000000	64.298343 
1410.000000	64.307212 
1409.000000	64.317417 
1408.000000	64.327263 
1407.000000	64.335155 
1406.000000	64.339637 
1405.000000	64.339923 
1404.000000	64.335656 
1403.000000	64.327216 
1402.000000	64.315676 
1401.000000	64.302444 
1400.000000	64.289212 
1399.000000	64.277720 
1398.000000	64.269304 
1397.000000	64.265012 
1396.000000	64.265203 
1395.000000	64.269804 
1394.000000	64.278125 
1393.000000	64.289021 
1392.000000	64.301180 
1391.000000	64.313149 
1390.000000	64.323663 
1389.000000	64.331722 
1388.000000	64.336657 
1387.000000	64.338350 
1386.000000	64.337158 
1385.000000	64.333653 
1384.000000	64.328718 
1383.000000	64.323306 
1382.000000	64.318394 
1381.000000	64.314794 
1380.000000	64.313220 
1379.000000	64.314126 
1378.000000	64.317440 
1377.000000	64.323019 
1376.000000	64.330029 
1375.000000	64.337491 
1374.000000	64.344167 
1373.000000	64.348912 
1372.000000	64.350819 
1371.000000	64.349412 
1370.000000	64.344644 
1369.000000	64.336824 
1368.000000	64.326715 
1367.000000	64.315271 
1366.000000	64.303755 
1365.000000	64.293289 
1364.000000	64.285039 
1363.000000	64.279937 
1362.000000	64.278626 
1361.000000	64.281344 
1360.000000	64.287686 
1359.000000	64.296603 
1358.000000	64.306473 
1357.000000	64.315271 
1356.000000	64.320898 
1355.000000	64.321613 
1354.000000	64.316558 
1353.000000	64.305973 
1352.000000	64.291214 
1351.000000	64.274549 
1350.000000	64.258646 
1349.000000	64.246249 
1348.000000	64.239406 
1347.000000	64.239287 
1346.000000	64.246010 
1345.000000	64.258742 
1344.000000	64.276075 
1343.000000	64.296126 
1342.000000	64.316987 
1341.000000	64.336919 
1340.000000	64.354324 
1339.000000	64.367866 
1338.000000	64.376640 
1337.000000	64.380145 
1336.000000	64.378499 
1335.000000	64.372515 
1334.000000	64.363527 
1333.000000	64.353728 
1332.000000	64.345264 
1331.000000	64.339947 
1330.000000	64.338684 
1329.000000	64.341163 
1328.000000	64.345812 
1327.000000	64.350175 
1326.000000	64.351511 
1325.000000	64.347481 
1324.000000	64.337038 
1323.000000	64.320659 
1322.000000	64.300704 
1321.000000	64.280390 
1320.000000	64.263439 
1319.000000	64.252924 
1318.000000	64.250707 
1317.000000	64.256739 
1316.000000	64.269280 
1315.000000	64.285540 
1314.000000	64.302420 
1313.000000	64.317178 
1312.000000	64.328241 
1311.000000	64.335370 
1310.000000	64.339447 
1309.000000	64.342093 
1308.000000	64.345097 
1307.000000	64.349794 
1306.000000	64.356803 
1305.000000	64.365911 
1304.000000	64.376401 
1303.000000	64.387106 
1302.000000	64.397192 
1301.000000	64.406037 
1300.000000	64.413571 
1299.000000	64.419865 
1298.000000	64.425182 
1297.000000	64.429664 
1296.000000	64.433121 
1295.000000	64.434933 
1294.000000	64.434361 
1293.000000	64.430308 
1292.000000	64.421939 
1291.000000	64.408493 
1290.000000	64.389944 
1289.000000	64.366984 
1288.000000	64.341139 
1287.000000	64.314556 
1286.000000	64.289927 
1285.000000	64.269804 
1284.000000	64.256310 
1283.000000	64.250755 
1282.000000	64.253211 
1281.000000	64.262485 
1280.000000	64.276385 
1279.000000	64.291906 
1278.000000	64.306044 
1277.000000	64.316177 
1276.000000	64.320683 
1275.000000	64.319205 
1274.000000	64.312553 
1273.000000	64.302539 
1272.000000	64.291453 
1271.000000	64.281678 
1270.000000	64.274859 
1269.000000	64.272069 
1268.000000	64.273262 
1267.000000	64.277577 
1266.000000	64.283442 
1265.000000	64.289069 
1264.000000	64.292693 
1263.000000	64.293146 
1262.000000	64.290094 
1261.000000	64.283990 
1260.000000	64.276194 
1259.000000	64.268445 
1258.000000	64.262676 
1257.000000	64.260411 
1256.000000	64.262557 
1255.000000	64.269065 
1254.000000	64.278960 
1253.000000	64.290785 
1252.000000	64.302659 
1251.000000	64.313054 
1250.000000	64.321136 
1249.000000	64.326858 
1248.000000	64.330959 
1247.000000	64.334487 
1246.000000	64.338421 
1245.000000	64.343380 
1244.000000	64.349102 
1243.000000	64.354705 
1242.000000	64.359092 
1241.000000	64.360952 
1240.000000	64.359736 
1239.000000	64.355611 
1238.000000	64.349460 
1237.000000	64.342641 
1236.000000	64.336609 
1235.000000	64.332294 
1234.000000	64.329957 
1233.000000	64.329004 
1232.000000	64.328193 
1231.000000	64.326024 
1230.000000	64.321255 
1229.000000	64.313173 
1228.000000	64.301872 
1227.000000	64.288020 
1226.000000	64.272594 
1225.000000	64.256620 
1224.000000	64.240813 
1223.000000	64.225554 
1222.000000	64.210891 
1221.000000	64.196658 
1220.000000	64.182806 
1219.000000	64.169502 
1218.000000	64.157319 
1217.000000	64.146876 
1216.000000	64.138722 
1215.000000	64.133262 
1214.000000	64.130473 
1213.000000	64.130139 
1212.000000	64.131879 
1211.000000	64.135217 
1210.000000	64.140009 
1209.000000	64.146399 
1208.000000	64.154767 
1207.000000	64.165234 
1206.000000	64.177680 
1205.000000	64.191508 
1204.000000	64.205694 
1203.000000	64.219021 
1202.000000	64.230370 
1201.000000	64.239001 
1200.000000	64.244675 
1199.000000	64.247727 
1198.000000	64.248800 
1197.000000	64.248585 
1196.000000	64.247560 
1195.000000	64.245653 
1194.000000	64.242649 
1193.000000	64.237928 
1192.000000	64.230871 
1191.000000	64.221048 
1190.000000	64.208722 
1189.000000	64.195060 
1188.000000	64.181828 
1187.000000	64.171290 
1186.000000	64.165687 
1185.000000	64.166712 
1184.000000	64.175057 
1183.000000	64.190101 
1182.000000	64.209866 
1181.000000	64.231467 
1180.000000	64.251470 
1179.000000	64.266514 
1178.000000	64.273977 
1177.000000	64.272117 
1176.000000	64.260697 
1175.000000	64.240431 
1174.000000	64.213204 
1173.000000	64.181470 
1172.000000	64.148235 
1171.000000	64.116549 
1170.000000	64.089226 
1169.000000	64.069271 
1168.000000	64.059019 
1167.000000	64.060282 
1166.000000	64.073657 
1165.000000	64.098286 
1164.000000	64.131712 
1163.000000	64.170002 
1162.000000	64.208197 
1161.000000	64.241147 
1160.000000	64.264392 
1159.000000	64.274954 
1158.000000	64.271736 
1157.000000	64.255595 
1156.000000	64.229321 
1155.000000	64.196991 
1154.000000	64.163303 
1153.000000	64.132618 
1152.000000	64.108562 
1151.000000	64.093637 
1150.000000	64.088964 
1149.000000	64.094185 
1148.000000	64.107656 
1147.000000	64.126658 
1146.000000	64.147567 
1145.000000	64.166450 
1144.000000	64.179563 
1143.000000	64.184165 
1142.000000	64.179039 
1141.000000	64.164733 
1140.000000	64.143872 
1139.000000	64.119911 
1138.000000	64.096379 
1137.000000	64.075946 
1136.000000	64.059519 
1135.000000	64.046645 
1134.000000	64.035868 
1133.000000	64.025568 
1132.000000	64.014983 
1131.000000	64.004611 
1130.000000	63.996100 
1129.000000	63.992238 
1128.000000	63.995289 
1127.000000	64.007019 
1126.000000	64.027571 
1125.000000	64.055824 
1124.000000	64.089179 
1123.000000	64.124131 
1122.000000	64.156818 
1121.000000	64.184141 
1120.000000	64.204192 
1119.000000	64.216637 
1118.000000	64.222455 
1117.000000	64.223575 
1116.000000	64.222121 
1115.000000	64.219594 
1114.000000	64.216732 
1113.000000	64.213132 
1112.000000	64.207792 
1111.000000	64.200067 
1110.000000	64.189624 
1109.000000	64.177608 
1108.000000	64.165592 
1107.000000	64.155197 
1106.000000	64.147496 
1105.000000	64.142489 
1104.000000	64.139509 
1103.000000	64.137053 
1102.000000	64.133810 
1101.000000	64.129066 
1100.000000	64.123392 
1099.000000	64.118385 
1098.000000	64.116597 
1097.000000	64.120411 
1096.000000	64.131617 
1095.000000	64.150762 
1094.000000	64.176630 
1093.000000	64.206433 
1092.000000	64.236211 
1091.000000	64.261531 
1090.000000	64.278173 
1089.000000	64.283251 
1088.000000	64.275407 
1087.000000	64.255642 
1086.000000	64.226722 
1085.000000	64.193153 
1084.000000	64.160442 
1083.000000	64.134192 
1082.000000	64.119172 
1081.000000	64.118194 
1080.000000	64.131736 
1079.000000	64.157414 
1078.000000	64.190435 
1077.000000	64.224743 
1076.000000	64.254188 
1075.000000	64.273881 
1074.000000	64.281034 
1073.000000	64.275479 
1072.000000	64.259481 
1071.000000	64.237308 
1070.000000	64.213824 
1069.000000	64.193558 
1068.000000	64.179730 
1067.000000	64.173913 
1066.000000	64.175963 
1065.000000	64.184069 
1064.000000	64.195680 
1063.000000	64.208030 
1062.000000	64.218759 
1061.000000	64.226126 
1060.000000	64.229583 
1059.000000	64.228987 
1058.000000	64.225077 
1057.000000	64.219117 
1056.000000	64.212250 
1055.000000	64.205622 
1054.000000	64.199495 
1053.000000	64.192819 
1052.000000	64.183521 
1051.000000	64.168882 
1050.000000	64.146447 
1049.000000	64.114689 
1048.000000	64.074039 
1047.000000	64.027070 
1046.000000	63.978528 
1045.000000	63.934159 
1044.000000	63.899779 
1043.000000	63.879561 
1042.000000	63.875675 
1041.000000	63.887858 
1040.000000	63.913512 
1039.000000	63.948249 
1038.000000	63.987135 
1037.000000	64.025592 
1036.000000	64.059925 
1035.000000	64.087820 
1034.000000	64.108109 
1033.000000	64.120769 
1032.000000	64.126205 
1031.000000	64.125537 
1030.000000	64.120268 
1029.000000	64.112496 
1028.000000	64.105057 
1027.000000	64.101004 
1026.000000	64.103507 
1025.000000	64.114475 
1024.000000	64.135003 
1023.000000	64.163923 
1022.000000	64.198279 
1021.000000	64.233279 
1020.000000	64.263653 
1019.000000	64.284157 
1018.000000	64.290952 
1017.000000	64.281988 
1016.000000	64.257740 
1015.000000	64.220523 
1014.000000	64.174103 
1013.000000	64.122796 
1012.000000	64.070940 
1011.000000	64.022159 
1010.000000	63.979268 
1009.000000	63.944339 
1008.000000	63.918852 
1007.000000	63.903737 
1006.000000	63.899707 
1005.000000	63.906478 
1004.000000	63.923335 
1003.000000	63.948655 
1002.000000	63.980531 
1001.000000	64.016127 
1000.000000	64.052844 
999.000000	 64.087986 
998.000000	 64.119672 
997.000000	 64.146566 
996.000000	 64.168167 
995.000000	 64.184498 
994.000000	 64.195990 
993.000000	 64.203095 
992.000000	 64.206075 
991.000000	 64.205098 
990.000000	 64.200353 
989.000000	 64.192223 
988.000000	 64.181494 
987.000000	 64.169573 
986.000000	 64.158248 
985.000000	 64.149475 
984.000000	 64.144730 
983.000000	 64.144873 
982.000000	 64.149832 
981.000000	 64.158821 
980.000000	 64.170408 
979.000000	 64.182829 
978.000000	 64.194846 
977.000000	 64.205908 
976.000000	 64.216232 
975.000000	 64.226460 
974.000000	 64.237546 
973.000000	 64.249849 
972.000000	 64.263057 
971.000000	 64.276027 
970.000000	 64.286780 
969.000000	 64.293289 
968.000000	 64.294242 
967.000000	 64.289140 
966.000000	 64.278841 
965.000000	 64.265155 
964.000000	 64.250397 
963.000000	 64.236569 
962.000000	 64.224982 
961.000000	 64.216113 
960.000000	 64.209675 
959.000000	 64.205074 
958.000000	 64.201879 
957.000000	 64.200210 
956.000000	 64.200711 
955.000000	 64.204502 
954.000000	 64.212536 
953.000000	 64.225339 
952.000000	 64.242219 
951.000000	 64.261341 
950.000000	 64.279937 
949.000000	 64.294791 
948.000000	 64.303064 
947.000000	 64.302849 
946.000000	 64.293932 
945.000000	 64.277815 
944.000000	 64.257454 
943.000000	 64.236569 
942.000000	 64.218664 
941.000000	 64.206647 
940.000000	 64.201688 
939.000000	 64.203357 
938.000000	 64.209485 
937.000000	 64.216971 
936.000000	 64.222383 
935.000000	 64.222931 
934.000000	 64.217114 
933.000000	 64.204859 
932.000000	 64.187836 
931.000000	 64.168882 
930.000000	 64.151453 
929.000000	 64.138531 
928.000000	 64.132285 
927.000000	 64.133572 
926.000000	 64.141607 
925.000000	 64.154267 
924.000000	 64.168477 
923.000000	 64.180994 
922.000000	 64.189100 
921.000000	 64.190912 
920.000000	 64.185690 
919.000000	 64.173984 
918.000000	 64.157247 
917.000000	 64.137482 
916.000000	 64.116668 
915.000000	 64.096522 
914.000000	 64.078092 
913.000000	 64.062023 
912.000000	 64.048528 
911.000000	 64.037990 
910.000000	 64.031100 
909.000000	 64.028906 
908.000000	 64.032769 
907.000000	 64.043903 
906.000000	 64.063000 
905.000000	 64.089727 
904.000000	 64.122676 
903.000000	 64.159655 
902.000000	 64.197969 
901.000000	 64.234948 
900.000000	 64.268159 
899.000000	 64.295506 
898.000000	 64.315462 
897.000000	 64.326858 
896.000000	 64.329242 
895.000000	 64.322805 
894.000000	 64.308881 
893.000000	 64.289498 
892.000000	 64.267563 
891.000000	 64.246654 
890.000000	 64.230251 
889.000000	 64.221405 
888.000000	 64.221858 
887.000000	 64.231634 
886.000000	 64.249086 
885.000000	 64.271140 
884.000000	 64.294052 
883.000000	 64.314103 
882.000000	 64.328241 
881.000000	 64.334654 
880.000000	 64.333057 
879.000000	 64.324498 
878.000000	 64.310932 
877.000000	 64.294767 
876.000000	 64.278745 
875.000000	 64.265465 
874.000000	 64.257192 
873.000000	 64.255118 
872.000000	 64.259386 
871.000000	 64.268469 
870.000000	 64.279270 
869.000000	 64.287757 
868.000000	 64.289426 
867.000000	 64.280772 
866.000000	 64.259791 
865.000000	 64.227199 
864.000000	 64.186429 
863.000000	 64.143443 
862.000000	 64.105415 
861.000000	 64.079093 
860.000000	 64.069247 
859.000000	 64.077281 
858.000000	 64.100885 
857.000000	 64.134097 
856.000000	 64.168787 
855.000000	 64.196300 
854.000000	 64.209604 
853.000000	 64.204835 
852.000000	 64.182019 
851.000000	 64.144968 
850.000000	 64.100146 
849.000000	 64.055562 
848.000000	 64.018821 
847.000000	 63.995647 
846.000000	 63.988924 
845.000000	 63.998341 
844.000000	 64.020705 
843.000000	 64.051103 
842.000000	 64.083838 
841.000000	 64.113545 
840.000000	 64.136171 
839.000000	 64.149236 
838.000000	 64.152240 
837.000000	 64.146065 
836.000000	 64.132928 
835.000000	 64.115452 
834.000000	 64.096879 
833.000000	 64.080357 
832.000000	 64.068698 
831.000000	 64.064264 
830.000000	 64.067983 
829.000000	 64.079523 
828.000000	 64.096879 
827.000000	 64.116835 
826.000000	 64.135360 
825.000000	 64.148354 
824.000000	 64.152383 
823.000000	 64.145398 
822.000000	 64.127206 
821.000000	 64.099693 
820.000000	 64.066100 
819.000000	 64.030528 
818.000000	 63.997030 
817.000000	 63.968729 
816.000000	 63.947868 
815.000000	 63.935375 
814.000000	 63.931035 
813.000000	 63.933610 
812.000000	 63.941597 
811.000000	 63.953065 
810.000000	 63.965606 
809.000000	 63.976836 
808.000000	 63.984227 
807.000000	 63.985872 
806.000000	 63.980317 
805.000000	 63.967657 
804.000000	 63.949322 
803.000000	 63.928127 
802.000000	 63.907861 
801.000000	 63.892340 
800.000000	 63.884758 
799.000000	 63.886547 
798.000000	 63.897228 
797.000000	 63.914322 
796.000000	 63.933968 
795.000000	 63.952112 
794.000000	 63.965654 
793.000000	 63.972973 
792.000000	 63.974356 
791.000000	 63.971900 
790.000000	 63.969039 
789.000000	 63.969206 
788.000000	 63.975381 
787.000000	 63.989639 
786.000000	 64.012742 
785.000000	 64.044642 
784.000000	 64.083933 
783.000000	 64.128661 
782.000000	 64.175748 
781.000000	 64.222145 
780.000000	 64.264082 
779.000000	 64.297842 
778.000000	 64.319992 
777.000000	 64.328098 
776.000000	 64.320993 
775.000000	 64.299345 
774.000000	 64.265727 
773.000000	 64.224386 
772.000000	 64.180231 
771.000000	 64.138197 
770.000000	 64.102125 
769.000000	 64.074397 
768.000000	 64.055538 
767.000000	 64.044380 
766.000000	 64.038538 
765.000000	 64.034867 
764.000000	 64.030337 
763.000000	 64.022421 
762.000000	 64.009308 
761.000000	 63.990592 
760.000000	 63.967061 
759.000000	 63.941049 
758.000000	 63.915657 
757.000000	 63.894438 
756.000000	 63.880491 
755.000000	 63.875913 
754.000000	 63.881397 
753.000000	 63.895869 
752.000000	 63.916707 
751.000000	 63.940382 
750.000000	 63.962817 
749.000000	 63.980579 
748.000000	 63.991451 
747.000000	 63.994646 
746.000000	 63.990688 
745.000000	 63.981056 
744.000000	 63.967704 
743.000000	 63.952302 
742.000000	 63.935947 
741.000000	 63.919091 
740.000000	 63.901519 
739.000000	 63.883233 
738.000000	 63.864564 
737.000000	 63.846254 
736.000000	 63.829708 
735.000000	 63.816642 
734.000000	 63.809132 
733.000000	 63.808917 
732.000000	 63.817477 
731.000000	 63.835382 
730.000000	 63.862586 
729.000000	 63.898229 
728.000000	 63.941001 
727.000000	 63.989067 
726.000000	 64.040040 
725.000000	 64.090919 
724.000000	 64.138197 
723.000000	 64.178586 
722.000000	 64.208626 
721.000000	 64.224958 
720.000000	 64.225244 
719.000000	 64.208793 
718.000000	 64.176821 
717.000000	 64.132595 
716.000000	 64.081215 
715.000000	 64.028954 
714.000000	 63.982653 
713.000000	 63.948297 
712.000000	 63.930273 
711.000000	 63.930392 
710.000000	 63.947534 
709.000000	 63.977718 
708.000000	 64.014816 
707.000000	 64.051437 
706.000000	 64.080214 
705.000000	 64.095211 
704.000000	 64.092063 
703.000000	 64.070081 
702.000000	 64.031648 
701.000000	 63.983225 
700.000000	 63.932728 
699.000000	 63.890171 
698.000000	 63.865876 
697.000000	 63.868546 
696.000000	 63.903760 
695.000000	 63.972473 
694.000000	 64.070796 
693.000000	 64.189743 
692.000000	 64.316534 
691.000000	 64.436125 
690.000000	 64.534163 
689.000000	 64.599275 
688.000000	 64.625477 
687.000000	 64.612722 
686.000000	 64.566612 
685.000000	 64.498043 
684.000000	 64.420175 
683.000000	 64.346241 
682.000000	 64.285707 
681.000000	 64.244008 
680.000000	 64.220094 
679.000000	 64.208245 
678.000000	 64.198374 
677.000000	 64.179706 
676.000000	 64.143061 
675.000000	 64.082646 
674.000000	 63.998103 
673.000000	 63.893365 
672.000000	 63.777327 
671.000000	 63.661479 
670.000000	 63.557744 
669.000000	 63.475179 
668.000000	 63.419818 
667.000000	 63.393354 
666.000000	 63.394618 
665.000000	 63.420200 
664.000000	 63.466620 
663.000000	 63.530659 
662.000000	 63.610935 
661.000000	 63.707089 
660.000000	 63.817596 
659.000000	 63.938117 
658.000000	 64.060425 
657.000000	 64.172983 
656.000000	 64.262723 
655.000000	 64.318585 
654.000000	 64.334249 
653.000000	 64.310455 
652.000000	 64.256811 
651.000000	 64.188528 
650.000000	 64.124941 
649.000000	 64.081692 
648.000000	 64.068627 
647.000000	 64.084124 
646.000000	 64.116477 
645.000000	 64.145827 
644.000000	 64.149236 
643.000000	 64.109158 
642.000000	 64.018154 
641.000000	 63.884878 
640.000000	 63.731431 
639.000000	 63.592553 
638.000000	 63.506460 
637.000000	 63.507175 
636.000000	 63.614606 
635.000000	 63.830208 
634.000000	 64.134836 
633.000000	 64.491677 
632.000000	 64.853072 
631.000000	 65.169644 
630.000000	 65.399670 
629.000000	 65.517354 
628.000000	 65.515971 
627.000000	 65.406727 
626.000000	 65.213894 
625.000000	 64.969420 
624.000000	 64.704418 
623.000000	 64.444804 
622.000000	 64.206957 
621.000000	 63.999748 
620.000000	 63.825678 
619.000000	 63.685727 
618.000000	 63.581895 
617.000000	 63.518500 
616.000000	 63.502812 
615.000000	 63.540697 
614.000000	 63.636350 
613.000000	 63.786578 
612.000000	 63.982152 
611.000000	 64.206004 
610.000000	 64.438056 
609.000000	 64.657616 
608.000000	 64.847397 
607.000000	 64.995646 
606.000000	 65.095758 
605.000000	 65.145277 
604.000000	 65.144824 
603.000000	 65.096354 
602.000000	 65.003275 
601.000000	 64.869856 
600.000000	 64.702844 
599.000000	 64.511084 
598.000000	 64.308834 
597.000000	 64.112448 
596.000000	 63.938879 
595.000000	 63.802552 
594.000000	 63.712382 
593.000000	 63.671398 
592.000000	 63.675451 
591.000000	 63.716340 
590.000000	 63.782167 
589.000000	 63.862085 
588.000000	 63.947534 
587.000000	 64.033389 
586.000000	 64.116311 
585.000000	 64.194869 
584.000000	 64.266967 
583.000000	 64.330697 
582.000000	 64.383673 
581.000000	 64.424920 
580.000000	 64.454913 
579.000000	 64.477252 
578.000000	 64.497256 
577.000000	 64.519977 
576.000000	 64.547419 
575.000000	 64.577579 
574.000000	 64.603161 
573.000000	 64.612436 
572.000000	 64.592051 
571.000000	 64.531755 
570.000000	 64.427757 
569.000000	 64.285635 
568.000000	 64.119696 
567.000000	 63.949918 
566.000000	 63.798046 
565.000000	 63.682699 
564.000000	 63.615727 
563.000000	 63.598370 
562.000000	 63.624048 
561.000000	 63.680076 
560.000000	 63.752770 
559.000000	 63.830733 
558.000000	 63.907694 
557.000000	 63.982701 
556.000000	 64.057826 
555.000000	 64.135169 
554.000000	 64.213490 
553.000000	 64.285993 
552.000000	 64.342331 
551.000000	 64.369964 
550.000000	 64.358019 
549.000000	 64.299631 
548.000000	 64.193916 
547.000000	 64.046120 
546.000000	 63.866710 
545.000000	 63.670229 
544.000000	 63.472580 
543.000000	 63.289952 
542.000000	 63.136696 
541.000000	 63.024163 
540.000000	 62.959241 
539.000000	 62.944364 
538.000000	 62.976574 
537.000000	 63.049745 
536.000000	 63.153576 
535.000000	 63.277506 
534.000000	 63.410401 
533.000000	 63.543367 
532.000000	 63.668966 
531.000000	 63.782215 
530.000000	 63.879966 
529.000000	 63.959169 
528.000000	 64.016103 
527.000000	 64.045882 
526.000000	 64.043331 
525.000000	 64.005327 
524.000000	 63.932585 
523.000000	 63.831162 
522.000000	 63.712191 
521.000000	 63.590788 
520.000000	 63.483119 
519.000000	 63.402509 
518.000000	 63.357281 
517.000000	 63.349366 
516.000000	 63.374280 
515.000000	 63.423252 
514.000000	 63.484859 
513.000000	 63.546347 
512.000000	 63.597869 
511.000000	 63.633656 
510.000000	 63.653659 
509.000000	 63.661408 
508.000000	 63.664054 
507.000000	 63.669800 
506.000000	 63.685464 
505.000000	 63.714599 
504.000000	 63.756299 
503.000000	 63.805389 
502.000000	 63.854193 
501.000000	 63.894939 
500.000000	 63.920831 
499.000000	 63.927507 
498.000000	 63.913249 
497.000000	 63.878607 
496.000000	 63.824844 
495.000000	 63.753485 
494.000000	 63.664889 
493.000000	 63.559913 
492.000000	 63.440775 
491.000000	 63.313651 
490.000000	 63.187885 
489.000000	 63.077712 
488.000000	 63.000059 
487.000000	 62.972235 
486.000000	 63.007545 
485.000000	 63.111877 
484.000000	 63.279867 
483.000000	 63.495540 
482.000000	 63.734364 
481.000000	 63.966917 
480.000000	 64.163899 
479.000000	 64.302086 
478.000000	 64.368796 
477.000000	 64.363336 
476.000000	 64.296364 
475.000000	 64.186143 
474.000000	 64.053916 
473.000000	 63.919401 
472.000000	 63.797497 
471.000000	 63.697218 
470.000000	 63.622403 
469.000000	 63.573813 
468.000000	 63.552045 
467.000000	 63.559341 
466.000000	 63.599944 
465.000000	 63.679218 
464.000000	 63.800120 
463.000000	 63.958740 
462.000000	 64.142489 
461.000000	 64.331793 
460.000000	 64.500951 
459.000000	 64.622354 
458.000000	 64.672303 
457.000000	 64.636898 
456.000000	 64.515352 
455.000000	 64.321541 
454.000000	 64.081144 
453.000000	 63.826012 
452.000000	 63.589286 
451.000000	 63.400530 
450.000000	 63.278460 
449.000000	 63.228487 
448.000000	 63.243556 
447.000000	 63.308000 
446.000000	 63.399124 
445.000000	 63.493037 
444.000000	 63.568663 
443.000000	 63.613009 
442.000000	 63.620710 
441.000000	 63.597416 
440.000000	 63.558363 
439.000000	 63.527226 
438.000000	 63.531923 
437.000000	 63.598251 
436.000000	 63.743400 
435.000000	 63.969898 
434.000000	 64.266490 
433.000000	 64.604878 
432.000000	 64.948534 
431.000000	 65.253305 
430.000000	 65.477013 
429.000000	 65.584111 
428.000000	 65.554904 
427.000000	 65.385627 
426.000000	 65.091609 
425.000000	 64.700603 
424.000000	 64.246296 
423.000000	 63.768267 
422.000000	 63.311433 
421.000000	 62.909483 
420.000000	 62.579178 
419.000000	 62.330079 
418.000000	 62.168002 
417.000000	 62.076210 
416.000000	 62.024378 
415.000000	 61.981439 
414.000000	 61.927700 
413.000000	 61.863398 
412.000000	 61.810970 
411.000000	 61.806559 
410.000000	 61.886024 
409.000000	 62.082743 
408.000000	 62.400913 
407.000000	 62.794661 
406.000000	 63.181900 
405.000000	 63.473653 
404.000000	 63.589167 
403.000000	 63.460469 
402.000000	 63.077926 
401.000000	 62.497925 
400.000000	 61.842036 
399.000000	 61.250138 
398.000000	 60.890030 
397.000000	 60.909032 
396.000000	 61.431932 
395.000000	 62.520766 
394.000000	 64.207172 
393.000000	 66.481804 
392.000000	 69.295763 
391.000000	 72.549748 
390.000000	 76.097011 
389.000000	 79.733180 
388.000000	 83.201217 
387.000000	 86.198186 
386.000000	 88.427901 
385.000000	 89.618158 
384.000000	 89.594149 
383.000000	 88.271880 
382.000000	 85.726165 
381.000000	 82.121181 
380.000000	 77.732062 
379.000000	 72.846674 
378.000000	 67.752099 
377.000000	 62.680864 
376.000000	 57.828044 
375.000000	 53.338718 
374.000000	 49.329042 
373.000000	 45.900964 
372.000000	 43.164658 
371.000000	 41.195321 
370.000000	 39.993166 

