PE IR       SPECTRUM    SPECTRUM    ASCII       PEDS        1.60        
  -1
BZ60B5~1.ASC
17/04/07
21:18:20.00
17/04/07
21:18:20.00
tln
$BZ1503107-1_t0098$<tbV0>[-10.4,7.8,8.0,0.0,27,1,0]
370.000000
64









2002,4.07    
MIRTGS : RIGHTBACK : INTERNAL 2
MIR : ON : INTERNAL 2
OPTKBR

0.200000
8
8.000000
FILLER
RATIO
SPECTRUM
UNLOCKED 256

DOUBLE
64
COMBINED
1
0
0


1.000000
RATIO


1
0
TRUE
51149
0
LEFT NOT FITTED RIGHT NOT FITTED 0
NONE
NONE
15600
12.000000
4.427000
51148
TRUE
1 0 8 72 0 0 0 0 

15798.010000






#HDR
-1
-1
#GR
CM-1
%T
0.00002384185791015625
0.0
5000.000000
-1.000000
4631
8
74.046039
53.074955
#DATA
5000.000000	65.968680 
4999.000000	66.001820 
4998.000000	66.055583 
4997.000000	66.114640 
4996.000000	66.159772 
4995.000000	66.174387 
4994.000000	66.144204 
4993.000000	66.061019 
4992.000000	65.922045 
4991.000000	65.730166 
4990.000000	65.493154 
4989.000000	65.223717 
4988.000000	64.935708 
4987.000000	64.642548 
4986.000000	64.357614 
4985.000000	64.094471 
4984.000000	63.865780 
4983.000000	63.683462 
4982.000000	63.560318 
4981.000000	63.508605 
4980.000000	63.538384 
4979.000000	63.654160 
4978.000000	63.851284 
4977.000000	64.113903 
4976.000000	64.415764 
4975.000000	64.722371 
4974.000000	64.992952 
4973.000000	65.189814 
4972.000000	65.285205 
4971.000000	65.269041 
4970.000000	65.149021 
4969.000000	64.953255 
4968.000000	64.723706 
4967.000000	64.510107 
4966.000000	64.358472 
4965.000000	64.304900 
4964.000000	64.369201 
4963.000000	64.553451 
4962.000000	64.843034 
4961.000000	65.212893 
4960.000000	65.632796 
4959.000000	66.075038 
4958.000000	66.517829 
4957.000000	66.945958 
4956.000000	67.348170 
4955.000000	67.716765 
4954.000000	68.042421 
4953.000000	68.310689 
4952.000000	68.499970 
4951.000000	68.588948 
4950.000000	68.557262 
4949.000000	68.395185 
4948.000000	68.103456 
4947.000000	67.700695 
4946.000000	67.217016 
4945.000000	66.693401 
4944.000000	66.171407 
4943.000000	65.687990 
4942.000000	65.269184 
4941.000000	64.929461 
4940.000000	64.670610 
4939.000000	64.484405 
4938.000000	64.357399 
4937.000000	64.273238 
4936.000000	64.219760 
4935.000000	64.186358 
4934.000000	64.172291 
4933.000000	64.181709 
4932.000000	64.225149 
4931.000000	64.312219 
4930.000000	64.452314 
4929.000000	64.649128 
4928.000000	64.897608 
4927.000000	65.182042 
4926.000000	65.479803 
4925.000000	65.762948 
4924.000000	66.002202 
4923.000000	66.171193 
4922.000000	66.251635 
4921.000000	66.236615 
4920.000000	66.131258 
4919.000000	65.953373 
4918.000000	65.730834 
4917.000000	65.497255 
4916.000000	65.289258 
4915.000000	65.137362 
4914.000000	65.062332 
4913.000000	65.070199 
4912.000000	65.156030 
4911.000000	65.300178 
4910.000000	65.472555 
4909.000000	65.639019 
4908.000000	65.768003 
4907.000000	65.836501 
4906.000000	65.833139 
4905.000000	65.761137 
4904.000000	65.635871 
4903.000000	65.481638 
4902.000000	65.325403 
4901.000000	65.191841 
4900.000000	65.097737 
4899.000000	65.050125 
4898.000000	65.044951 
4897.000000	65.069580 
4896.000000	65.105915 
4895.000000	65.134644 
4894.000000	65.140390 
4893.000000	65.111804 
4892.000000	65.047550 
4891.000000	64.955019 
4890.000000	64.850735 
4889.000000	64.754581 
4888.000000	64.687132 
4887.000000	64.664292 
4886.000000	64.693760 
4885.000000	64.773654 
4884.000000	64.891719 
4883.000000	65.028071 
4882.000000	65.159749 
4881.000000	65.265750 
4880.000000	65.331983 
4879.000000	65.353441 
4878.000000	65.335702 
4877.000000	65.292406 
4876.000000	65.242886 
4875.000000	65.207052 
4874.000000	65.201258 
4873.000000	65.234279 
4872.000000	65.306425 
4871.000000	65.408897 
4870.000000	65.527629 
4869.000000	65.645432 
4868.000000	65.745210 
4867.000000	65.813064 
4866.000000	65.840554 
4865.000000	65.825772 
4864.000000	65.772271 
4863.000000	65.688347 
4862.000000	65.585088 
4861.000000	65.474390 
4860.000000	65.367388 
4859.000000	65.272927 
4858.000000	65.197730 
4857.000000	65.145492 
4856.000000	65.117311 
4855.000000	65.112113 
4854.000000	65.127325 
4853.000000	65.159702 
4852.000000	65.205645 
4851.000000	65.260910 
4850.000000	65.320324 
4849.000000	65.378236 
4848.000000	65.428805 
4847.000000	65.466022 
4846.000000	65.484642 
4845.000000	65.481543 
4844.000000	65.456819 
4843.000000	65.414071 
4842.000000	65.360260 
4841.000000	65.304684 
4840.000000	65.257143 
4839.000000	65.225887 
4838.000000	65.216016 
4837.000000	65.228843 
4836.000000	65.261673 
4835.000000	65.308570 
4834.000000	65.362215 
4833.000000	65.415525 
4832.000000	65.463209 
4831.000000	65.502882 
4830.000000	65.534400 
4829.000000	65.558409 
4828.000000	65.575885 
4827.000000	65.587329 
4826.000000	65.592336 
4825.000000	65.589666 
4824.000000	65.578293 
4823.000000	65.558052 
4822.000000	65.529894 
4821.000000	65.496206 
4820.000000	65.459704 
4819.000000	65.423083 
4818.000000	65.388226 
4817.000000	65.356063 
4816.000000	65.325999 
4815.000000	65.296983 
4814.000000	65.267896 
4813.000000	65.238809 
4812.000000	65.210843 
4811.000000	65.186882 
4810.000000	65.170264 
4809.000000	65.164971 
4808.000000	65.173816 
4807.000000	65.198683 
4806.000000	65.239357 
4805.000000	65.293860 
4804.000000	65.358352 
4803.000000	65.427374 
4802.000000	65.495061 
4801.000000	65.555071 
4800.000000	65.601563 
4799.000000	65.629863 
4798.000000	65.637350 
4797.000000	65.623855 
4796.000000	65.591788 
4795.000000	65.545463 
4794.000000	65.490221 
4793.000000	65.431904 
4792.000000	65.375971 
4791.000000	65.326476 
4790.000000	65.285730 
4789.000000	65.254545 
4788.000000	65.232634 
4787.000000	65.219426 
4786.000000	65.214371 
4785.000000	65.217137 
4784.000000	65.227556 
4783.000000	65.245079 
4782.000000	65.268492 
4781.000000	65.295195 
4780.000000	65.321254 
4779.000000	65.342068 
4778.000000	65.353155 
4777.000000	65.351009 
4776.000000	65.334248 
4775.000000	65.303874 
4774.000000	65.263819 
4773.000000	65.219879 
4772.000000	65.179371 
4771.000000	65.149736 
4770.000000	65.137314 
4769.000000	65.145897 
4768.000000	65.176701 
4767.000000	65.227937 
4766.000000	65.294790 
4765.000000	65.370035 
4764.000000	65.444517 
4763.000000	65.508460 
4762.000000	65.552806 
4761.000000	65.570640 
4760.000000	65.558242 
4759.000000	65.515780 
4758.000000	65.447878 
4757.000000	65.362453 
4756.000000	65.269684 
4755.000000	65.179991 
4754.000000	65.102577 
4753.000000	65.044188 
4752.000000	65.008473 
4751.000000	64.995980 
4750.000000	65.004539 
4749.000000	65.030264 
4748.000000	65.068578 
4747.000000	65.114688 
4746.000000	65.163874 
4745.000000	65.211629 
4744.000000	65.253496 
4743.000000	65.285420 
4742.000000	65.303826 
4741.000000	65.306520 
4740.000000	65.292882 
4739.000000	65.265011 
4738.000000	65.227317 
4737.000000	65.185761 
4736.000000	65.146684 
4735.000000	65.115737 
4734.000000	65.096592 
4733.000000	65.090632 
4732.000000	65.096902 
4731.000000	65.112495 
4730.000000	65.133285 
4729.000000	65.154719 
4728.000000	65.172815 
4727.000000	65.184545 
4726.000000	65.188527 
4725.000000	65.184521 
4724.000000	65.173697 
4723.000000	65.158057 
4722.000000	65.140247 
4721.000000	65.122652 
4720.000000	65.107488 
4719.000000	65.096521 
4718.000000	65.090990 
4717.000000	65.091609 
4716.000000	65.098690 
4715.000000	65.112018 
4714.000000	65.130949 
4713.000000	65.154314 
4712.000000	65.180492 
4711.000000	65.207481 
4710.000000	65.232658 
4709.000000	65.253257 
4708.000000	65.266704 
4707.000000	65.271496 
4706.000000	65.267682 
4705.000000	65.257263 
4704.000000	65.243840 
4703.000000	65.231633 
4702.000000	65.224742 
4701.000000	65.225505 
4700.000000	65.234184 
4699.000000	65.248155 
4698.000000	65.263295 
4697.000000	65.274238 
4696.000000	65.276384 
4695.000000	65.266585 
4694.000000	65.244007 
4693.000000	65.210676 
4692.000000	65.170764 
4691.000000	65.130734 
4690.000000	65.097665 
4689.000000	65.078854 
4688.000000	65.080094 
4687.000000	65.105557 
4686.000000	65.156698 
4685.000000	65.232038 
4684.000000	65.326738 
4683.000000	65.433192 
4682.000000	65.541100 
4681.000000	65.639042 
4680.000000	65.715718 
4679.000000	65.761566 
4678.000000	65.770483 
4677.000000	65.740990 
4676.000000	65.676856 
4675.000000	65.586543 
4674.000000	65.482115 
4673.000000	65.377616 
4672.000000	65.286564 
4671.000000	65.220475 
4670.000000	65.186476 
4669.000000	65.187096 
4668.000000	65.219235 
4667.000000	65.275764 
4666.000000	65.346050 
4665.000000	65.418195 
4664.000000	65.481042 
4663.000000	65.525841 
4662.000000	65.547871 
4661.000000	65.546274 
4660.000000	65.524458 
4659.000000	65.488934 
4658.000000	65.448069 
4657.000000	65.410351 
4656.000000	65.383028 
4655.000000	65.370845 
4654.000000	65.375757 
4653.000000	65.396547 
4652.000000	65.430021 
4651.000000	65.471267 
4650.000000	65.514755 
4649.000000	65.554928 
4648.000000	65.587735 
4647.000000	65.610313 
4646.000000	65.620851 
4645.000000	65.618586 
4644.000000	65.603804 
4643.000000	65.577578 
4642.000000	65.542006 
4641.000000	65.499711 
4640.000000	65.454053 
4639.000000	65.408778 
4638.000000	65.368175 
4637.000000	65.335965 
4636.000000	65.315055 
4635.000000	65.306520 
4634.000000	65.309786 
4633.000000	65.322756 
4632.000000	65.342378 
4631.000000	65.365290 
4630.000000	65.388655 
4629.000000	65.410828 
4628.000000	65.431332 
4627.000000	65.450906 
4626.000000	65.470480 
4625.000000	65.490055 
4624.000000	65.507626 
4623.000000	65.519857 
4622.000000	65.521645 
4621.000000	65.507888 
4620.000000	65.474605 
4619.000000	65.420126 
4618.000000	65.346169 
4617.000000	65.258407 
4616.000000	65.165328 
4615.000000	65.076518 
4614.000000	65.001368 
4613.000000	64.947342 
4612.000000	64.918565 
4611.000000	64.915251 
4610.000000	64.934015 
4609.000000	64.968824 
4608.000000	65.012621 
4607.000000	65.058660 
4606.000000	65.102005 
4605.000000	65.139889 
4604.000000	65.172266 
4603.000000	65.200972 
4602.000000	65.228772 
4601.000000	65.258169 
4600.000000	65.290880 
4599.000000	65.326905 
4598.000000	65.364599 
4597.000000	65.400195 
4596.000000	65.429377 
4595.000000	65.446972 
4594.000000	65.449070 
4593.000000	65.432429 
4592.000000	65.395951 
4591.000000	65.339922 
4590.000000	65.266680 
4589.000000	65.179944 
4588.000000	65.084671 
4587.000000	64.986681 
4586.000000	64.892411 
4585.000000	64.807987 
4584.000000	64.738941 
4583.000000	64.689016 
4582.000000	64.659333 
4581.000000	64.648866 
4580.000000	64.654612 
4579.000000	64.672970 
4578.000000	64.700531 
4577.000000	64.735174 
4576.000000	64.776039 
4575.000000	64.823246 
4574.000000	64.876818 
4573.000000	64.935469 
4572.000000	64.995574 
4571.000000	65.051198 
4570.000000	65.094399 
4569.000000	65.117216 
4568.000000	65.113019 
4567.000000	65.078735 
4566.000000	65.015220 
4565.000000	64.928340 
4564.000000	64.827036 
4563.000000	64.721941 
4562.000000	64.623355 
4561.000000	64.539313 
4560.000000	64.474892 
4559.000000	64.431500 
4558.000000	64.408183 
4557.000000	64.402747 
4556.000000	64.412498 
4555.000000	64.434719 
4554.000000	64.467525 
4553.000000	64.509415 
4552.000000	64.559197 
4551.000000	64.615154 
4550.000000	64.675283 
4549.000000	64.736843 
4548.000000	64.796876 
4547.000000	64.852380 
4546.000000	64.900922 
4545.000000	64.941048 
4544.000000	64.972710 
4543.000000	64.996933 
4542.000000	65.015578 
4541.000000	65.030479 
4540.000000	65.043520 
4539.000000	65.055632 
4538.000000	65.066766 
4537.000000	65.076136 
4536.000000	65.082907 
4535.000000	65.086412 
4534.000000	65.086841 
4533.000000	65.085101 
4532.000000	65.082526 
4531.000000	65.081048 
4530.000000	65.082359 
4529.000000	65.087890 
4528.000000	65.098285 
4527.000000	65.113520 
4526.000000	65.132808 
4525.000000	65.154838 
4524.000000	65.178108 
4523.000000	65.200638 
4522.000000	65.220499 
4521.000000	65.236759 
4520.000000	65.249180 
4519.000000	65.258049 
4518.000000	65.263557 
4517.000000	65.265321 
4516.000000	65.261960 
4515.000000	65.250802 
4514.000000	65.228962 
4513.000000	65.194916 
4512.000000	65.148973 
4511.000000	65.093898 
4510.000000	65.034365 
4509.000000	64.976310 
4508.000000	64.925408 
4507.000000	64.885544 
4506.000000	64.858269 
4505.000000	64.842891 
4504.000000	64.836549 
4503.000000	64.835214 
4502.000000	64.834213 
4501.000000	64.829206 
4500.000000	64.816927 
4499.000000	64.795732 
4498.000000	64.764928 
4497.000000	64.724755 
4496.000000	64.676427 
4495.000000	64.622092 
4494.000000	64.565992 
4493.000000	64.513540 
4492.000000	64.471244 
4491.000000	64.444065 
4490.000000	64.433908 
4489.000000	64.438557 
4488.000000	64.450001 
4487.000000	64.458012 
4486.000000	64.454221 
4485.000000	64.433360 
4484.000000	64.397144 
4483.000000	64.350342 
4482.000000	64.297342 
4481.000000	64.242076 
4480.000000	64.184308 
4479.000000	64.124584 
4478.000000	64.064526 
4477.000000	64.010000 
4476.000000	63.973617 
4475.000000	63.966822 
4474.000000	63.994216 
4473.000000	64.056992 
4472.000000	64.152598 
4471.000000	64.270615 
4470.000000	64.394426 
4469.000000	64.506936 
4468.000000	64.592981 
4467.000000	64.646553 
4466.000000	64.668297 
4465.000000	64.661312 
4464.000000	64.627647 
4463.000000	64.560914 
4462.000000	64.453053 
4461.000000	64.293384 
4460.000000	64.082312 
4459.000000	63.843870 
4458.000000	63.617300 
4457.000000	63.459038 
4456.000000	63.415074 
4455.000000	63.499116 
4454.000000	63.695764 
4453.000000	63.942432 
4452.000000	64.181327 
4451.000000	64.368963 
4450.000000	64.518165 
4449.000000	64.696812 
4448.000000	65.019607 
4447.000000	65.614748 
4446.000000	66.571044 
4445.000000	67.900323 
4444.000000	69.503140 
4443.000000	71.178674 
4442.000000	72.660684 
4441.000000	73.680567 
4440.000000	74.046039 
4439.000000	73.689126 
4438.000000	72.696876 
4437.000000	71.282148 
4436.000000	69.720816 
4435.000000	68.285560 
4434.000000	67.171573 
4433.000000	66.470360 
4432.000000	66.179895 
4431.000000	66.214990 
4430.000000	66.477203 
4429.000000	66.857051 
4428.000000	67.267036 
4427.000000	67.645621 
4426.000000	67.935490 
4425.000000	68.109750 
4424.000000	68.151021 
4423.000000	68.067121 
4422.000000	67.882204 
4421.000000	67.631912 
4420.000000	67.356705 
4419.000000	67.088890 
4418.000000	66.847085 
4417.000000	66.638565 
4416.000000	66.462731 
4415.000000	66.313242 
4414.000000	66.183328 
4413.000000	66.068220 
4412.000000	65.968084 
4411.000000	65.882158 
4410.000000	65.811157 
4409.000000	65.759682 
4408.000000	65.732979 
4407.000000	65.733003 
4406.000000	65.756940 
4405.000000	65.793371 
4404.000000	65.826177 
4403.000000	65.841865 
4402.000000	65.828585 
4401.000000	65.775775 
4400.000000	65.679407 
4399.000000	65.543556 
4398.000000	65.379214 
4397.000000	65.202188 
4396.000000	65.030193 
4395.000000	64.878630 
4394.000000	64.759397 
4393.000000	64.679551 
4392.000000	64.640140 
4391.000000	64.637064 
4390.000000	64.661169 
4389.000000	64.700579 
4388.000000	64.743137 
4387.000000	64.778900 
4386.000000	64.800763 
4385.000000	64.805889 
4384.000000	64.796280 
4383.000000	64.778017 
4382.000000	64.758753 
4381.000000	64.745974 
4380.000000	64.745545 
4379.000000	64.759993 
4378.000000	64.787936 
4377.000000	64.824342 
4376.000000	64.862537 
4375.000000	64.895892 
4374.000000	64.919495 
4373.000000	64.931583 
4372.000000	64.933633 
4371.000000	64.930129 
4370.000000	64.926719 
4369.000000	64.928984 
4368.000000	64.940834 
4367.000000	64.963436 
4366.000000	64.994788 
4365.000000	65.031003 
4364.000000	65.067481 
4363.000000	65.099263 
4362.000000	65.122127 
4361.000000	65.133595 
4360.000000	65.133547 
4359.000000	65.123605 
4358.000000	65.107011 
4357.000000	65.087962 
4356.000000	65.070700 
4355.000000	65.059423 
4354.000000	65.056777 
4353.000000	65.064120 
4352.000000	65.080261 
4351.000000	65.101885 
4350.000000	65.123629 
4349.000000	65.139317 
4348.000000	65.142869 
4347.000000	65.129923 
4346.000000	65.098881 
4345.000000	65.051221 
4344.000000	64.991569 
4343.000000	64.926719 
4342.000000	64.864397 
4341.000000	64.811301 
4340.000000	64.772677 
4339.000000	64.751553 
4338.000000	64.748644 
4337.000000	64.762663 
4336.000000	64.790797 
4335.000000	64.829587 
4334.000000	64.875078 
4333.000000	64.923238 
4332.000000	64.970588 
4331.000000	65.014314 
4330.000000	65.051984 
4329.000000	65.082025 
4328.000000	65.103793 
4327.000000	65.117430 
4326.000000	65.124225 
4325.000000	65.126013 
4324.000000	65.125012 
4323.000000	65.122818 
4322.000000	65.120959 
4321.000000	65.119791 
4320.000000	65.118765 
4319.000000	65.116429 
4318.000000	65.111136 
4317.000000	65.101552 
4316.000000	65.087294 
4315.000000	65.069079 
4314.000000	65.048837 
4313.000000	65.029096 
4312.000000	65.012311 
4311.000000	65.000510 
4310.000000	64.994573 
4309.000000	64.994025 
4308.000000	64.997053 
4307.000000	65.000915 
4306.000000	65.002942 
4305.000000	65.000820 
4304.000000	64.993572 
4303.000000	64.981484 
4302.000000	64.966464 
4301.000000	64.951920 
4300.000000	64.942193 
4299.000000	64.941310 
4298.000000	64.952301 
4297.000000	64.977049 
4296.000000	65.015101 
4295.000000	65.063929 
4294.000000	65.118789 
4293.000000	65.173840 
4292.000000	65.222740 
4291.000000	65.260028 
4290.000000	65.281939 
4289.000000	65.287160 
4288.000000	65.276908 
4287.000000	65.254783 
4286.000000	65.225481 
4285.000000	65.193748 
4284.000000	65.163493 
4283.000000	65.137434 
4282.000000	65.117096 
4281.000000	65.103006 
4280.000000	65.095329 
4279.000000	65.094041 
4278.000000	65.098714 
4277.000000	65.108346 
4276.000000	65.120816 
4275.000000	65.132880 
4274.000000	65.140342 
4273.000000	65.138769 
4272.000000	65.124416 
4271.000000	65.095233 
4270.000000	65.051531 
4269.000000	64.996528 
4268.000000	64.935684 
4267.000000	64.876031 
4266.000000	64.824748 
4265.000000	64.788126 
4264.000000	64.769816 
4263.000000	64.771080 
4262.000000	64.790463 
4261.000000	64.824390 
4260.000000	64.867901 
4259.000000	64.915466 
4258.000000	64.961767 
4257.000000	65.002059 
4256.000000	65.032577 
4255.000000	65.051031 
4254.000000	65.056443 
4253.000000	65.049600 
4252.000000	65.032601 
4251.000000	65.008640 
4250.000000	64.981579 
4249.000000	64.955639 
4248.000000	64.934873 
4247.000000	64.922690 
4246.000000	64.921140 
4245.000000	64.931249 
4244.000000	64.951825 
4243.000000	64.980077 
4242.000000	65.011572 
4241.000000	65.041136 
4240.000000	65.063834 
4239.000000	65.075731 
4238.000000	65.075278 
4237.000000	65.063714 
4236.000000	65.044927 
4235.000000	65.024423 
4234.000000	65.008258 
4233.000000	65.001797 
4232.000000	65.007877 
4231.000000	65.026259 
4230.000000	65.053224 
4229.000000	65.082669 
4228.000000	65.107822 
4227.000000	65.123057 
4226.000000	65.125179 
4225.000000	65.114235 
4224.000000	65.093994 
4223.000000	65.070796 
4222.000000	65.051507 
4221.000000	65.042042 
4220.000000	65.045690 
4219.000000	65.062737 
4218.000000	65.090274 
4217.000000	65.123319 
4216.000000	65.156245 
4215.000000	65.184593 
4214.000000	65.206074 
4213.000000	65.221142 
4212.000000	65.232181 
4211.000000	65.242886 
4210.000000	65.256762 
4209.000000	65.276074 
4208.000000	65.300703 
4207.000000	65.328216 
4206.000000	65.354728 
4205.000000	65.375494 
4204.000000	65.386295 
4203.000000	65.384364 
4202.000000	65.369081 
4201.000000	65.341591 
4200.000000	65.304303 
4199.000000	65.260148 
4198.000000	65.211796 
4197.000000	65.161156 
4196.000000	65.109419 
4195.000000	65.057158 
4194.000000	65.004968 
4193.000000	64.953875 
4192.000000	64.906191 
4191.000000	64.864945 
4190.000000	64.834284 
4189.000000	64.818120 
4188.000000	64.820432 
4187.000000	64.843058 
4186.000000	64.886355 
4185.000000	64.948129 
4184.000000	65.024352 
4183.000000	65.109014 
4182.000000	65.195703 
4181.000000	65.278315 
4180.000000	65.352249 
4179.000000	65.414309 
4178.000000	65.463590 
4177.000000	65.500855 
4176.000000	65.527915 
4175.000000	65.546798 
4174.000000	65.559244 
4173.000000	65.566468 
4172.000000	65.568757 
4171.000000	65.565967 
4170.000000	65.557861 
4169.000000	65.544581 
4168.000000	65.527272 
4167.000000	65.507912 
4166.000000	65.488791 
4165.000000	65.472173 
4164.000000	65.459942 
4163.000000	65.453171 
4162.000000	65.451669 
4161.000000	65.454268 
4160.000000	65.459394 
4159.000000	65.465450 
4158.000000	65.471076 
4157.000000	65.475440 
4156.000000	65.478372 
4155.000000	65.479469 
4154.000000	65.478372 
4153.000000	65.473604 
4152.000000	65.462923 
4151.000000	65.443587 
4150.000000	65.413355 
4149.000000	65.370655 
4148.000000	65.315365 
4147.000000	65.249276 
4146.000000	65.176248 
4145.000000	65.101432 
4144.000000	65.030932 
4143.000000	64.970707 
4142.000000	64.926052 
4141.000000	64.900732 
4140.000000	64.896655 
4139.000000	64.913368 
4138.000000	64.948487 
4137.000000	64.997625 
4136.000000	65.055608 
4135.000000	65.116763 
4134.000000	65.176248 
4133.000000	65.230107 
4132.000000	65.275907 
4131.000000	65.312266 
4130.000000	65.338969 
4129.000000	65.356707 
4128.000000	65.366435 
4127.000000	65.369272 
4126.000000	65.365982 
4125.000000	65.357470 
4124.000000	65.344238 
4123.000000	65.326952 
4122.000000	65.306425 
4121.000000	65.284085 
4120.000000	65.262079 
4119.000000	65.243101 
4118.000000	65.230250 
4117.000000	65.226411 
4116.000000	65.233612 
4115.000000	65.252208 
4114.000000	65.280699 
4113.000000	65.315794 
4112.000000	65.352392 
4111.000000	65.384864 
4110.000000	65.408110 
4109.000000	65.419030 
4108.000000	65.416884 
4107.000000	65.403938 
4106.000000	65.384650 
4105.000000	65.364861 
4104.000000	65.350508 
4103.000000	65.345931 
4102.000000	65.352821 
4101.000000	65.369653 
4100.000000	65.392732 
4099.000000	65.416526 
4098.000000	65.435338 
4097.000000	65.444660 
4096.000000	65.442252 
4095.000000	65.428566 
4094.000000	65.406227 
4093.000000	65.379285 
4092.000000	65.351963 
4091.000000	65.327811 
4090.000000	65.308904 
4089.000000	65.296077 
4088.000000	65.289020 
4087.000000	65.287137 
4086.000000	65.289926 
4085.000000	65.297245 
4084.000000	65.309476 
4083.000000	65.326762 
4082.000000	65.348958 
4081.000000	65.374875 
4080.000000	65.402436 
4079.000000	65.428590 
4078.000000	65.449953 
4077.000000	65.463709 
4076.000000	65.468096 
4075.000000	65.462875 
4074.000000	65.449213 
4073.000000	65.429496 
4072.000000	65.406680 
4071.000000	65.383934 
4070.000000	65.363883 
4069.000000	65.348219 
4068.000000	65.337491 
4067.000000	65.331459 
4066.000000	65.328860 
4065.000000	65.327954 
4064.000000	65.326666 
4063.000000	65.323114 
4062.000000	65.315866 
4061.000000	65.304398 
4060.000000	65.289258 
4059.000000	65.272021 
4058.000000	65.255069 
4057.000000	65.240859 
4056.000000	65.231633 
4055.000000	65.228438 
4054.000000	65.231013 
4053.000000	65.237641 
4052.000000	65.245318 
4051.000000	65.251016 
4050.000000	65.252208 
4049.000000	65.248274 
4048.000000	65.240144 
4047.000000	65.230774 
4046.000000	65.224242 
4045.000000	65.224766 
4044.000000	65.235233 
4043.000000	65.256643 
4042.000000	65.287518 
4041.000000	65.324068 
4040.000000	65.361309 
4039.000000	65.394043 
4038.000000	65.418171 
4037.000000	65.431571 
4036.000000	65.434384 
4035.000000	65.428686 
4034.000000	65.417885 
4033.000000	65.405750 
4032.000000	65.395212 
4031.000000	65.387916 
4030.000000	65.383553 
4029.000000	65.380907 
4028.000000	65.377497 
4027.000000	65.370798 
4026.000000	65.358686 
4025.000000	65.340089 
4024.000000	65.315270 
4023.000000	65.285706 
4022.000000	65.254402 
4021.000000	65.224623 
4020.000000	65.200042 
4019.000000	65.183758 
4018.000000	65.177655 
4017.000000	65.181994 
4016.000000	65.194797 
4015.000000	65.212440 
4014.000000	65.229749 
4013.000000	65.241146 
4012.000000	65.242075 
4011.000000	65.230202 
4010.000000	65.205907 
4009.000000	65.172600 
4008.000000	65.136384 
4007.000000	65.104818 
4006.000000	65.085172 
4005.000000	65.082883 
4004.000000	65.100169 
4003.000000	65.135550 
4002.000000	65.184545 
4001.000000	65.240311 
4000.000000	65.295124 
3999.000000	65.341830 
3998.000000	65.375351 
3997.000000	65.393066 
3996.000000	65.394806 
3995.000000	65.382361 
3994.000000	65.358853 
3993.000000	65.327763 
3992.000000	65.292572 
3991.000000	65.256190 
3990.000000	65.221405 
3989.000000	65.190052 
3988.000000	65.163660 
3987.000000	65.142869 
3986.000000	65.127944 
3985.000000	65.118002 
3984.000000	65.111494 
3983.000000	65.106463 
3982.000000	65.101337 
3981.000000	65.095615 
3980.000000	65.090298 
3979.000000	65.087771 
3978.000000	65.091300 
3977.000000	65.104627 
3976.000000	65.130567 
3975.000000	65.169668 
3974.000000	65.219855 
3973.000000	65.276503 
3972.000000	65.333199 
3971.000000	65.383124 
3970.000000	65.420413 
3969.000000	65.441918 
3968.000000	65.446996 
3967.000000	65.437841 
3966.000000	65.418195 
3965.000000	65.392351 
3964.000000	65.364336 
3963.000000	65.336847 
3962.000000	65.312147 
3961.000000	65.292024 
3960.000000	65.278840 
3959.000000	65.275788 
3958.000000	65.286421 
3957.000000	65.313410 
3956.000000	65.357208 
3955.000000	65.414857 
3954.000000	65.479063 
3953.000000	65.539097 
3952.000000	65.582394 
3951.000000	65.597558 
3950.000000	65.577244 
3949.000000	65.520548 
3948.000000	65.433621 
3947.000000	65.328598 
3946.000000	65.220975 
3945.000000	65.126323 
3944.000000	65.056777 
3943.000000	65.018534 
3942.000000	65.011596 
3941.000000	65.030288 
3940.000000	65.065598 
3939.000000	65.107679 
3938.000000	65.148282 
3937.000000	65.182232 
3936.000000	65.207600 
3935.000000	65.225434 
3934.000000	65.237927 
3933.000000	65.247726 
3932.000000	65.256166 
3931.000000	65.263605 
3930.000000	65.269160 
3929.000000	65.271925 
3928.000000	65.271353 
3927.000000	65.267491 
3926.000000	65.260863 
3925.000000	65.252065 
3924.000000	65.241575 
3923.000000	65.229415 
3922.000000	65.215325 
3921.000000	65.198588 
3920.000000	65.179109 
3919.000000	65.157842 
3918.000000	65.136981 
3917.000000	65.119457 
3916.000000	65.108823 
3915.000000	65.108036 
3914.000000	65.119123 
3913.000000	65.142560 
3912.000000	65.176892 
3911.000000	65.218615 
3910.000000	65.262818 
3909.000000	65.304446 
3908.000000	65.338516 
3907.000000	65.361332 
3906.000000	65.370678 
3905.000000	65.366148 
3904.000000	65.349459 
3903.000000	65.324068 
3902.000000	65.294671 
3901.000000	65.266346 
3900.000000	65.243911 
3899.000000	65.230226 
3898.000000	65.226292 
3897.000000	65.230131 
3896.000000	65.237164 
3895.000000	65.240883 
3894.000000	65.233922 
3893.000000	65.210270 
3892.000000	65.166139 
3891.000000	65.102267 
3890.000000	65.023207 
3889.000000	64.937853 
3888.000000	64.857125 
3887.000000	64.792537 
3886.000000	64.753675 
3885.000000	64.746308 
3884.000000	64.771080 
3883.000000	64.823651 
3882.000000	64.895677 
3881.000000	64.976429 
3880.000000	65.054893 
3879.000000	65.121865 
3878.000000	65.171241 
3877.000000	65.200805 
3876.000000	65.212130 
3875.000000	65.209507 
3874.000000	65.198469 
3873.000000	65.184497 
3872.000000	65.171480 
3871.000000	65.161967 
3870.000000	65.156316 
3869.000000	65.153384 
3868.000000	65.150690 
3867.000000	65.146088 
3866.000000	65.138006 
3865.000000	65.126013 
3864.000000	65.111041 
3863.000000	65.094804 
3862.000000	65.079951 
3861.000000	65.069317 
3860.000000	65.065574 
3859.000000	65.070462 
3858.000000	65.084767 
3857.000000	65.108275 
3856.000000	65.139675 
3855.000000	65.176987 
3854.000000	65.217614 
3853.000000	65.258479 
3852.000000	65.296530 
3851.000000	65.329027 
3850.000000	65.354347 
3849.000000	65.372109 
3848.000000	65.383028 
3847.000000	65.388894 
3846.000000	65.392565 
3845.000000	65.397167 
3844.000000	65.405631 
3843.000000	65.419697 
3842.000000	65.439820 
3841.000000	65.464615 
3840.000000	65.491414 
3839.000000	65.516304 
3838.000000	65.534973 
3837.000000	65.543198 
3836.000000	65.537858 
3835.000000	65.517306 
3834.000000	65.481925 
3833.000000	65.434217 
3832.000000	65.378475 
3831.000000	65.320587 
3830.000000	65.267157 
3829.000000	65.224504 
3828.000000	65.197682 
3827.000000	65.189075 
3826.000000	65.198063 
3825.000000	65.220665 
3824.000000	65.250420 
3823.000000	65.279698 
3822.000000	65.301299 
3821.000000	65.310096 
3820.000000	65.304040 
3819.000000	65.284729 
3818.000000	65.256690 
3817.000000	65.226411 
3816.000000	65.200233 
3815.000000	65.182971 
3814.000000	65.176701 
3813.000000	65.180516 
3812.000000	65.190815 
3811.000000	65.202784 
3810.000000	65.211725 
3809.000000	65.214157 
3808.000000	65.208697 
3807.000000	65.195822 
3806.000000	65.177941 
3805.000000	65.157842 
3804.000000	65.138554 
3803.000000	65.122103 
3802.000000	65.109920 
3801.000000	65.102648 
3800.000000	65.100288 
3799.000000	65.102458 
3798.000000	65.108633 
3797.000000	65.118432 
3796.000000	65.131402 
3795.000000	65.147018 
3794.000000	65.164494 
3793.000000	65.182828 
3792.000000	65.200972 
3791.000000	65.218019 
3790.000000	65.233302 
3789.000000	65.246224 
3788.000000	65.256333 
3787.000000	65.263128 
3786.000000	65.266156 
3785.000000	65.264797 
3784.000000	65.258431 
3783.000000	65.246915 
3782.000000	65.230774 
3781.000000	65.211486 
3780.000000	65.191340 
3779.000000	65.173244 
3778.000000	65.160107 
3777.000000	65.154528 
3776.000000	65.158224 
3775.000000	65.171384 
3774.000000	65.192627 
3773.000000	65.218901 
3772.000000	65.245866 
3771.000000	65.268683 
3770.000000	65.283036 
3769.000000	65.285968 
3768.000000	65.276718 
3767.000000	65.256905 
3766.000000	65.230250 
3765.000000	65.201926 
3764.000000	65.177273 
3763.000000	65.160965 
3762.000000	65.155935 
3761.000000	65.163040 
3760.000000	65.180969 
3759.000000	65.206766 
3758.000000	65.236544 
3757.000000	65.266323 
3756.000000	65.292739 
3755.000000	65.313434 
3754.000000	65.327167 
3753.000000	65.333557 
3752.000000	65.332961 
3751.000000	65.326023 
3750.000000	65.313529 
3749.000000	65.296244 
3748.000000	65.274953 
3747.000000	65.250825 
3746.000000	65.225124 
3745.000000	65.199255 
3744.000000	65.174651 
3743.000000	65.152859 
3742.000000	65.135049 
3741.000000	65.122270 
3740.000000	65.115046 
3739.000000	65.113425 
3738.000000	65.117144 
3737.000000	65.125608 
3736.000000	65.137982 
3735.000000	65.153360 
3734.000000	65.170788 
3733.000000	65.189552 
3732.000000	65.209174 
3731.000000	65.229320 
3730.000000	65.249848 
3729.000000	65.270590 
3728.000000	65.291285 
3727.000000	65.311527 
3726.000000	65.330696 
3725.000000	65.347933 
3724.000000	65.362310 
3723.000000	65.373015 
3722.000000	65.379810 
3721.000000	65.383076 
3720.000000	65.383863 
3719.000000	65.383553 
3718.000000	65.383744 
3717.000000	65.385746 
3716.000000	65.390467 
3715.000000	65.397953 
3714.000000	65.407538 
3713.000000	65.417838 
3712.000000	65.427088 
3711.000000	65.433430 
3710.000000	65.435338 
3709.000000	65.431857 
3708.000000	65.422940 
3707.000000	65.409445 
3706.000000	65.393018 
3705.000000	65.375947 
3704.000000	65.360546 
3703.000000	65.348935 
3702.000000	65.342330 
3701.000000	65.341067 
3700.000000	65.344142 
3699.000000	65.349745 
3698.000000	65.355467 
3697.000000	65.358829 
3696.000000	65.357995 
3695.000000	65.352344 
3694.000000	65.342545 
3693.000000	65.330147 
3692.000000	65.317034 
3691.000000	65.305042 
3690.000000	65.295076 
3689.000000	65.286874 
3688.000000	65.279221 
3687.000000	65.270543 
3686.000000	65.259456 
3685.000000	65.245389 
3684.000000	65.228962 
3683.000000	65.212178 
3682.000000	65.197682 
3681.000000	65.188431 
3680.000000	65.186762 
3679.000000	65.194129 
3678.000000	65.210461 
3677.000000	65.234541 
3676.000000	65.264415 
3675.000000	65.297627 
3674.000000	65.331935 
3673.000000	65.365290 
3672.000000	65.395903 
3671.000000	65.422010 
3670.000000	65.442037 
3669.000000	65.454339 
3668.000000	65.457463 
3667.000000	65.450429 
3666.000000	65.433478 
3665.000000	65.407657 
3664.000000	65.375256 
3663.000000	65.339231 
3662.000000	65.302968 
3661.000000	65.269494 
3660.000000	65.241003 
3659.000000	65.218615 
3658.000000	65.202403 
3657.000000	65.191793 
3656.000000	65.185928 
3655.000000	65.183997 
3654.000000	65.185475 
3653.000000	65.189933 
3652.000000	65.196990 
3651.000000	65.205764 
3650.000000	65.215086 
3649.000000	65.223240 
3648.000000	65.228629 
3647.000000	65.230083 
3646.000000	65.227413 
3645.000000	65.221428 
3644.000000	65.213990 
3643.000000	65.207719 
3642.000000	65.205192 
3641.000000	65.208458 
3640.000000	65.218305 
3639.000000	65.234184 
3638.000000	65.253925 
3637.000000	65.274524 
3636.000000	65.292525 
3635.000000	65.304970 
3634.000000	65.309453 
3633.000000	65.304780 
3632.000000	65.290808 
3631.000000	65.268540 
3630.000000	65.239763 
3629.000000	65.206670 
3628.000000	65.171837 
3627.000000	65.137958 
3626.000000	65.107536 
3625.000000	65.082764 
3624.000000	65.065336 
3623.000000	65.056514 
3622.000000	65.056610 
3621.000000	65.065383 
3620.000000	65.081429 
3619.000000	65.103101 
3618.000000	65.128207 
3617.000000	65.154933 
3616.000000	65.181541 
3615.000000	65.206933 
3614.000000	65.230512 
3613.000000	65.252089 
3612.000000	65.271878 
3611.000000	65.289902 
3610.000000	65.306115 
3609.000000	65.319943 
3608.000000	65.330624 
3607.000000	65.337133 
3606.000000	65.338611 
3605.000000	65.334510 
3604.000000	65.325045 
3603.000000	65.311288 
3602.000000	65.295076 
3601.000000	65.278840 
3600.000000	65.265274 
3599.000000	65.256571 
3598.000000	65.253877 
3597.000000	65.257310 
3596.000000	65.265512 
3595.000000	65.275669 
3594.000000	65.284419 
3593.000000	65.288305 
3592.000000	65.285062 
3591.000000	65.273976 
3590.000000	65.256381 
3589.000000	65.235137 
3588.000000	65.213990 
3587.000000	65.196776 
3586.000000	65.186047 
3585.000000	65.182471 
3584.000000	65.184569 
3583.000000	65.189528 
3582.000000	65.193724 
3581.000000	65.193939 
3580.000000	65.188312 
3579.000000	65.177154 
3578.000000	65.162634 
3577.000000	65.148234 
3576.000000	65.137815 
3575.000000	65.134739 
3574.000000	65.140748 
3573.000000	65.155768 
3572.000000	65.178227 
3571.000000	65.205025 
3570.000000	65.233111 
3569.000000	65.259361 
3568.000000	65.281295 
3567.000000	65.297245 
3566.000000	65.306210 
3565.000000	65.307879 
3564.000000	65.302324 
3563.000000	65.289902 
3562.000000	65.271306 
3561.000000	65.247559 
3560.000000	65.220117 
3559.000000	65.190482 
3558.000000	65.160441 
3557.000000	65.131497 
3556.000000	65.104937 
3555.000000	65.081381 
3554.000000	65.060925 
3553.000000	65.043330 
3552.000000	65.028190 
3551.000000	65.015101 
3550.000000	65.004038 
3549.000000	64.995241 
3548.000000	64.989638 
3547.000000	64.988255 
3546.000000	64.992260 
3545.000000	65.002465 
3544.000000	65.019440 
3543.000000	65.043044 
3542.000000	65.072584 
3541.000000	65.106749 
3540.000000	65.143728 
3539.000000	65.181279 
3538.000000	65.216922 
3537.000000	65.248370 
3536.000000	65.273499 
3535.000000	65.291070 
3534.000000	65.300321 
3533.000000	65.301513 
3532.000000	65.295481 
3531.000000	65.283989 
3530.000000	65.268588 
3529.000000	65.250611 
3528.000000	65.230751 
3527.000000	65.209484 
3526.000000	65.186738 
3525.000000	65.162444 
3524.000000	65.136885 
3523.000000	65.111255 
3522.000000	65.087389 
3521.000000	65.067648 
3520.000000	65.054249 
3519.000000	65.048837 
3518.000000	65.051746 
3517.000000	65.061998 
3516.000000	65.076923 
3515.000000	65.093135 
3514.000000	65.107178 
3513.000000	65.116548 
3512.000000	65.119910 
3511.000000	65.118098 
3510.000000	65.113353 
3509.000000	65.109276 
3508.000000	65.109300 
3507.000000	65.116453 
3506.000000	65.132212 
3505.000000	65.156292 
3504.000000	65.186882 
3503.000000	65.220880 
3502.000000	65.254878 
3501.000000	65.285682 
3500.000000	65.311169 
3499.000000	65.330505 
3498.000000	65.343999 
3497.000000	65.352892 
3496.000000	65.358686 
3495.000000	65.362620 
3494.000000	65.365195 
3493.000000	65.366029 
3492.000000	65.364050 
3491.000000	65.357780 
3490.000000	65.345811 
3489.000000	65.327477 
3488.000000	65.303158 
3487.000000	65.274381 
3486.000000	65.243816 
3485.000000	65.214514 
3484.000000	65.189862 
3483.000000	65.172839 
3482.000000	65.165519 
3481.000000	65.168428 
3480.000000	65.180802 
3479.000000	65.200853 
3478.000000	65.225815 
3477.000000	65.252399 
3476.000000	65.277314 
3475.000000	65.297722 
3474.000000	65.311455 
3473.000000	65.317058 
3472.000000	65.313982 
3471.000000	65.302538 
3470.000000	65.283656 
3469.000000	65.258836 
3468.000000	65.229916 
3467.000000	65.199065 
3466.000000	65.168666 
3465.000000	65.141081 
3464.000000	65.118622 
3463.000000	65.103316 
3462.000000	65.096569 
3461.000000	65.098881 
3460.000000	65.109515 
3459.000000	65.126276 
3458.000000	65.145897 
3457.000000	65.164113 
3456.000000	65.176153 
3455.000000	65.177655 
3454.000000	65.165376 
3453.000000	65.138292 
3452.000000	65.097379 
3451.000000	65.046119 
3450.000000	64.989900 
3449.000000	64.935231 
3448.000000	64.888668 
3447.000000	64.855575 
3446.000000	64.839291 
3445.000000	64.840769 
3444.000000	64.858555 
3443.000000	64.888978 
3442.000000	64.927077 
3441.000000	64.967107 
3440.000000	65.003657 
3439.000000	65.032219 
3438.000000	65.049910 
3437.000000	65.055704 
3436.000000	65.050578 
3435.000000	65.037083 
3434.000000	65.019011 
3433.000000	65.000653 
3432.000000	64.985799 
3431.000000	64.977693 
3430.000000	64.977955 
3429.000000	64.986824 
3428.000000	65.002965 
3427.000000	65.024089 
3426.000000	65.047311 
3425.000000	65.069627 
3424.000000	65.088629 
3423.000000	65.102577 
3422.000000	65.110516 
3421.000000	65.112137 
3420.000000	65.107822 
3419.000000	65.098428 
3418.000000	65.085244 
3417.000000	65.069651 
3416.000000	65.053391 
3415.000000	65.038537 
3414.000000	65.026879 
3413.000000	65.019822 
3412.000000	65.017890 
3411.000000	65.020751 
3410.000000	65.027236 
3409.000000	65.035510 
3408.000000	65.043210 
3407.000000	65.048265 
3406.000000	65.049099 
3405.000000	65.045142 
3404.000000	65.036916 
3403.000000	65.025901 
3402.000000	65.014052 
3401.000000	65.003585 
3400.000000	64.996433 
3399.000000	64.993739 
3398.000000	64.996051 
3397.000000	65.003061 
3396.000000	65.013599 
3395.000000	65.026402 
3394.000000	65.040111 
3393.000000	65.053677 
3392.000000	65.066146 
3391.000000	65.077257 
3390.000000	65.087080 
3389.000000	65.095806 
3388.000000	65.103626 
3387.000000	65.110373 
3386.000000	65.115618 
3385.000000	65.118765 
3384.000000	65.119361 
3383.000000	65.117311 
3382.000000	65.113282 
3381.000000	65.108728 
3380.000000	65.105819 
3379.000000	65.107226 
3378.000000	65.114974 
3377.000000	65.130186 
3376.000000	65.152096 
3375.000000	65.178275 
3374.000000	65.204524 
3373.000000	65.225768 
3372.000000	65.237140 
3371.000000	65.235257 
3370.000000	65.218925 
3369.000000	65.189623 
3368.000000	65.150928 
3367.000000	65.107917 
3366.000000	65.065860 
3365.000000	65.029001 
3364.000000	65.000152 
3363.000000	64.980411 
3362.000000	64.969468 
3361.000000	64.966297 
3360.000000	64.970111 
3359.000000	64.980721 
3358.000000	64.998459 
3357.000000	65.023636 
3356.000000	65.055823 
3355.000000	65.093445 
3354.000000	65.133166 
3353.000000	65.170192 
3352.000000	65.199470 
3351.000000	65.216445 
3350.000000	65.218877 
3349.000000	65.206623 
3348.000000	65.182280 
3347.000000	65.150046 
3346.000000	65.115070 
3345.000000	65.082025 
3344.000000	65.054106 
3343.000000	65.032505 
3342.000000	65.016603 
3341.000000	65.004587 
3340.000000	64.994430 
3339.000000	64.984726 
3338.000000	64.975237 
3337.000000	64.966893 
3336.000000	64.961409 
3335.000000	64.960527 
3334.000000	64.965343 
3333.000000	64.975690 
3332.000000	64.990091 
3331.000000	65.006113 
3330.000000	65.021085 
3329.000000	65.032625 
3328.000000	65.039658 
3327.000000	65.042352 
3326.000000	65.042448 
3325.000000	65.042901 
3324.000000	65.046930 
3323.000000	65.057301 
3322.000000	65.075278 
3321.000000	65.100240 
3320.000000	65.129709 
3319.000000	65.159654 
3318.000000	65.185451 
3317.000000	65.203237 
3316.000000	65.210437 
3315.000000	65.206789 
3314.000000	65.193819 
3313.000000	65.174627 
3312.000000	65.152907 
3311.000000	65.132427 
3310.000000	65.115976 
3309.000000	65.105104 
3308.000000	65.100240 
3307.000000	65.100836 
3306.000000	65.105843 
3305.000000	65.114021 
3304.000000	65.124320 
3303.000000	65.135788 
3302.000000	65.147638 
3301.000000	65.159130 
3300.000000	65.169334 
3299.000000	65.177106 
3298.000000	65.181422 
3297.000000	65.181279 
3296.000000	65.176177 
3295.000000	65.165972 
3294.000000	65.151262 
3293.000000	65.132999 
3292.000000	65.112590 
3291.000000	65.091538 
3290.000000	65.071439 
3289.000000	65.053749 
3288.000000	65.039801 
3287.000000	65.030527 
3286.000000	65.026736 
3285.000000	65.028762 
3284.000000	65.036439 
3283.000000	65.049099 
3282.000000	65.065526 
3281.000000	65.083909 
3280.000000	65.102171 
3279.000000	65.117907 
3278.000000	65.128850 
3277.000000	65.133309 
3276.000000	65.130352 
3275.000000	65.120053 
3274.000000	65.103626 
3273.000000	65.083169 
3272.000000	65.061235 
3271.000000	65.040731 
3270.000000	65.024065 
3269.000000	65.013027 
3268.000000	65.008449 
3267.000000	65.010285 
3266.000000	65.017724 
3265.000000	65.029478 
3264.000000	65.044331 
3263.000000	65.061211 
3262.000000	65.079498 
3261.000000	65.098953 
3260.000000	65.119314 
3259.000000	65.140056 
3258.000000	65.160131 
3257.000000	65.178084 
3256.000000	65.192127 
3255.000000	65.200614 
3254.000000	65.202379 
3253.000000	65.197134 
3252.000000	65.185570 
3251.000000	65.169191 
3250.000000	65.149903 
3249.000000	65.129637 
3248.000000	65.109968 
3247.000000	65.091991 
3246.000000	65.076041 
3245.000000	65.062046 
3244.000000	65.049600 
3243.000000	65.038466 
3242.000000	65.028595 
3241.000000	65.020394 
3240.000000	65.014338 
3239.000000	65.011096 
3238.000000	65.011000 
3237.000000	65.014147 
3236.000000	65.020060 
3235.000000	65.027952 
3234.000000	65.036702 
3233.000000	65.045142 
3232.000000	65.052032 
3231.000000	65.056347 
3230.000000	65.057516 
3229.000000	65.055155 
3228.000000	65.049481 
3227.000000	65.040946 
3226.000000	65.030336 
3225.000000	65.018367 
3224.000000	65.005612 
3223.000000	64.992427 
3222.000000	64.979052 
3221.000000	64.965677 
3220.000000	64.952635 
3219.000000	64.940404 
3218.000000	64.929890 
3217.000000	64.921951 
3216.000000	64.917516 
3215.000000	64.917254 
3214.000000	64.921569 
3213.000000	64.930129 
3212.000000	64.942216 
3211.000000	64.956617 
3210.000000	64.972114 
3209.000000	64.987587 
3208.000000	65.002131 
3207.000000	65.015244 
3206.000000	65.026879 
3205.000000	65.037107 
3204.000000	65.046215 
3203.000000	65.054512 
3202.000000	65.062308 
3201.000000	65.069913 
3200.000000	65.077757 
3199.000000	65.086174 
3198.000000	65.095305 
3197.000000	65.104722 
3196.000000	65.113615 
3195.000000	65.120935 
3194.000000	65.125441 
3193.000000	65.126252 
3192.000000	65.123081 
3191.000000	65.116620 
3190.000000	65.108370 
3189.000000	65.100431 
3188.000000	65.095043 
3187.000000	65.093994 
3186.000000	65.097975 
3185.000000	65.106415 
3184.000000	65.117549 
3183.000000	65.128564 
3182.000000	65.136456 
3181.000000	65.138602 
3180.000000	65.133500 
3179.000000	65.121173 
3178.000000	65.103077 
3177.000000	65.082073 
3176.000000	65.061521 
3175.000000	65.045213 
3174.000000	65.036249 
3173.000000	65.036821 
3172.000000	65.047597 
3171.000000	65.067362 
3170.000000	65.093302 
3169.000000	65.121412 
3168.000000	65.147185 
3167.000000	65.166497 
3166.000000	65.176391 
3165.000000	65.175652 
3164.000000	65.164899 
3163.000000	65.146374 
3162.000000	65.123152 
3161.000000	65.098738 
3160.000000	65.076017 
3159.000000	65.056943 
3158.000000	65.042304 
3157.000000	65.031838 
3156.000000	65.024399 
3155.000000	65.018630 
3154.000000	65.013408 
3153.000000	65.007877 
3152.000000	65.001821 
3151.000000	64.995574 
3150.000000	64.989876 
3149.000000	64.985418 
3148.000000	64.983010 
3147.000000	64.983177 
3146.000000	64.986371 
3145.000000	64.992880 
3144.000000	65.002655 
3143.000000	65.015244 
3142.000000	65.029907 
3141.000000	65.045523 
3140.000000	65.060734 
3139.000000	65.073990 
3138.000000	65.083789 
3137.000000	65.088987 
3136.000000	65.088915 
3135.000000	65.083479 
3134.000000	65.073394 
3133.000000	65.059781 
3132.000000	65.044140 
3131.000000	65.028047 
3130.000000	65.013051 
3129.000000	65.000414 
3128.000000	64.990687 
3127.000000	64.984083 
3126.000000	64.980363 
3125.000000	64.979505 
3124.000000	64.981508 
3123.000000	64.986801 
3122.000000	64.996004 
3121.000000	65.009760 
3120.000000	65.028548 
3119.000000	65.052127 
3118.000000	65.079355 
3117.000000	65.108299 
3116.000000	65.136480 
3115.000000	65.160918 
3114.000000	65.178775 
3113.000000	65.187835 
3112.000000	65.186977 
3111.000000	65.176367 
3110.000000	65.157580 
3109.000000	65.133285 
3108.000000	65.107011 
3107.000000	65.082669 
3106.000000	65.063905 
3105.000000	65.053462 
3104.000000	65.052819 
3103.000000	65.062141 
3102.000000	65.079832 
3101.000000	65.103125 
3100.000000	65.128493 
3099.000000	65.152311 
3098.000000	65.171575 
3097.000000	65.184354 
3096.000000	65.189933 
3095.000000	65.188741 
3094.000000	65.181803 
3093.000000	65.170168 
3092.000000	65.154504 
3091.000000	65.134882 
3090.000000	65.110969 
3089.000000	65.082669 
3088.000000	65.050363 
3087.000000	65.015411 
3086.000000	64.980244 
3085.000000	64.948081 
3084.000000	64.922118 
3083.000000	64.905166 
3082.000000	64.898800 
3081.000000	64.903545 
3080.000000	64.918160 
3079.000000	64.940571 
3078.000000	64.968156 
3077.000000	64.998364 
3076.000000	65.029001 
3075.000000	65.058612 
3074.000000	65.086150 
3073.000000	65.110707 
3072.000000	65.131258 
3071.000000	65.146780 
3070.000000	65.156245 
3069.000000	65.158724 
3068.000000	65.153908 
3067.000000	65.142226 
3066.000000	65.125036 
3065.000000	65.104341 
3064.000000	65.082406 
3063.000000	65.061354 
3062.000000	65.042781 
3061.000000	65.027570 
3060.000000	65.015649 
3059.000000	65.006279 
3058.000000	64.998507 
3057.000000	64.991402 
3056.000000	64.984726 
3055.000000	64.978742 
3054.000000	64.974522 
3053.000000	64.973449 
3052.000000	64.976859 
3051.000000	64.985370 
3050.000000	64.998841 
3049.000000	65.016031 
3048.000000	65.034794 
3047.000000	65.052556 
3046.000000	65.066599 
3045.000000	65.074753 
3044.000000	65.075612 
3043.000000	65.068793 
3042.000000	65.054798 
3041.000000	65.034842 
3040.000000	65.010619 
3039.000000	64.984059 
3038.000000	64.956974 
3037.000000	64.930963 
3036.000000	64.907383 
3035.000000	64.887332 
3034.000000	64.871716 
3033.000000	64.861202 
3032.000000	64.856004 
3031.000000	64.855980 
3030.000000	64.860486 
3029.000000	64.868688 
3028.000000	64.879226 
3027.000000	64.890837 
3026.000000	64.902138 
3025.000000	64.912056 
3024.000000	64.920115 
3023.000000	64.926314 
3022.000000	64.931082 
3021.000000	64.935302 
3020.000000	64.940309 
3019.000000	64.947175 
3018.000000	64.956760 
3017.000000	64.969158 
3016.000000	64.983916 
3015.000000	64.999580 
3014.000000	65.014123 
3013.000000	65.025281 
3012.000000	65.030908 
3011.000000	65.029525 
3010.000000	65.020847 
3009.000000	65.005755 
3008.000000	64.986228 
3007.000000	64.965105 
3006.000000	64.945530 
3005.000000	64.930415 
3004.000000	64.921593 
3003.000000	64.919757 
3002.000000	64.924001 
3001.000000	64.932513 
3000.000000	64.942550 
2999.000000	64.951300 
2998.000000	64.956212 
2997.000000	64.955949 
2996.000000	64.950013 
2995.000000	64.938902 
2994.000000	64.923381 
2993.000000	64.904737 
2992.000000	64.883995 
2991.000000	64.861679 
2990.000000	64.838266 
2989.000000	64.814281 
2988.000000	64.790725 
2987.000000	64.769101 
2986.000000	64.751267 
2985.000000	64.739203 
2984.000000	64.734387 
2983.000000	64.737272 
2982.000000	64.746952 
2981.000000	64.760923 
2980.000000	64.775609 
2979.000000	64.786911 
2978.000000	64.791059 
2977.000000	64.785313 
2976.000000	64.768934 
2975.000000	64.742708 
2974.000000	64.708852 
2973.000000	64.670062 
2972.000000	64.629292 
2971.000000	64.588832 
2970.000000	64.550137 
2969.000000	64.513707 
2968.000000	64.479422 
2967.000000	64.446854 
2966.000000	64.415621 
2965.000000	64.385771 
2964.000000	64.357709 
2963.000000	64.332413 
2962.000000	64.311265 
2961.000000	64.295959 
2960.000000	64.287900 
2959.000000	64.288115 
2958.000000	64.296770 
2957.000000	64.313364 
2956.000000	64.336514 
2955.000000	64.364218 
2954.000000	64.394116 
2953.000000	64.423966 
2952.000000	64.452004 
2951.000000	64.477205 
2950.000000	64.499282 
2949.000000	64.518809 
2948.000000	64.536643 
2947.000000	64.553689 
2946.000000	64.570069 
2945.000000	64.585471 
2944.000000	64.598679 
2943.000000	64.608263 
2942.000000	64.612698 
2941.000000	64.611244 
2940.000000	64.603757 
2939.000000	64.591002 
2938.000000	64.574384 
2937.000000	64.555954 
2936.000000	64.538121 
2935.000000	64.523005 
2934.000000	64.512467 
2933.000000	64.507961 
2932.000000	64.510130 
2931.000000	64.519071 
2930.000000	64.534044 
2929.000000	64.553689 
2928.000000	64.576411 
2927.000000	64.600515 
2926.000000	64.624238 
2925.000000	64.646148 
2924.000000	64.665246 
2923.000000	64.680981 
2922.000000	64.693212 
2921.000000	64.701843 
2920.000000	64.706969 
2919.000000	64.708471 
2918.000000	64.706206 
2917.000000	64.699864 
2916.000000	64.689111 
2915.000000	64.674091 
2914.000000	64.655423 
2913.000000	64.634442 
2912.000000	64.613175 
2911.000000	64.593863 
2910.000000	64.578890 
2909.000000	64.570045 
2908.000000	64.568185 
2907.000000	64.572978 
2906.000000	64.583063 
2905.000000	64.596033 
2904.000000	64.609098 
2903.000000	64.619565 
2902.000000	64.625501 
2901.000000	64.625883 
2900.000000	64.620876 
2899.000000	64.611530 
2898.000000	64.599680 
2897.000000	64.587759 
2896.000000	64.578294 
2895.000000	64.573478 
2894.000000	64.574861 
2893.000000	64.583349 
2892.000000	64.598774 
2891.000000	64.619994 
2890.000000	64.645123 
2889.000000	64.671707 
2888.000000	64.697194 
2887.000000	64.719176 
2886.000000	64.735889 
2885.000000	64.746308 
2884.000000	64.750576 
2883.000000	64.749836 
2882.000000	64.746022 
2881.000000	64.741587 
2880.000000	64.739084 
2879.000000	64.740633 
2878.000000	64.747357 
2877.000000	64.759111 
2876.000000	64.774513 
2875.000000	64.791250 
2874.000000	64.806461 
2873.000000	64.817619 
2872.000000	64.822649 
2871.000000	64.820814 
2870.000000	64.812684 
2869.000000	64.800095 
2868.000000	64.785504 
2867.000000	64.771533 
2866.000000	64.760231 
2865.000000	64.752697 
2864.000000	64.749145 
2863.000000	64.748454 
2862.000000	64.749503 
2861.000000	64.750790 
2860.000000	64.751338 
2859.000000	64.750671 
2858.000000	64.748907 
2857.000000	64.746665 
2856.000000	64.744400 
2855.000000	64.742779 
2854.000000	64.742231 
2853.000000	64.743065 
2852.000000	64.745426 
2851.000000	64.749383 
2850.000000	64.754939 
2849.000000	64.761972 
2848.000000	64.770126 
2847.000000	64.778900 
2846.000000	64.787578 
2845.000000	64.795279 
2844.000000	64.801073 
2843.000000	64.804291 
2842.000000	64.804697 
2841.000000	64.802551 
2840.000000	64.798593 
2839.000000	64.793920 
2838.000000	64.789843 
2837.000000	64.787578 
2836.000000	64.788031 
2835.000000	64.791512 
2834.000000	64.797806 
2833.000000	64.806294 
2832.000000	64.816093 
2831.000000	64.826130 
2830.000000	64.835572 
2829.000000	64.843750 
2828.000000	64.850354 
2827.000000	64.855408 
2826.000000	64.859056 
2825.000000	64.861536 
2824.000000	64.862847 
2823.000000	64.862847 
2822.000000	64.861059 
2821.000000	64.856910 
2820.000000	64.850115 
2819.000000	64.840674 
2818.000000	64.829111 
2817.000000	64.816522 
2816.000000	64.804124 
2815.000000	64.793539 
2814.000000	64.786052 
2813.000000	64.782691 
2812.000000	64.783930 
2811.000000	64.789772 
2810.000000	64.799880 
2809.000000	64.813446 
2808.000000	64.829349 
2807.000000	64.846205 
2806.000000	64.862489 
2805.000000	64.876866 
2804.000000	64.888143 
2803.000000	64.895582 
2802.000000	64.898967 
2801.000000	64.898538 
2800.000000	64.895081 
2799.000000	64.889550 
2798.000000	64.882874 
2797.000000	64.875578 
2796.000000	64.867949 
2795.000000	64.859676 
2794.000000	64.850401 
2793.000000	64.839839 
2792.000000	64.828157 
2791.000000	64.816117 
2790.000000	64.805173 
2789.000000	64.797210 
2788.000000	64.794254 
2787.000000	64.797711 
2786.000000	64.808440 
2785.000000	64.825987 
2784.000000	64.849185 
2783.000000	64.875841 
2782.000000	64.903378 
2781.000000	64.929342 
2780.000000	64.951515 
2779.000000	64.968347 
2778.000000	64.978933 
2777.000000	64.983153 
2776.000000	64.981174 
2775.000000	64.973664 
2774.000000	64.961671 
2773.000000	64.946651 
2772.000000	64.930391 
2771.000000	64.914941 
2770.000000	64.902210 
2769.000000	64.893889 
2768.000000	64.890789 
2767.000000	64.892888 
2766.000000	64.899063 
2765.000000	64.907336 
2764.000000	64.915227 
2763.000000	64.920186 
2762.000000	64.919996 
2761.000000	64.913487 
2760.000000	64.900541 
2759.000000	64.882373 
2758.000000	64.861154 
2757.000000	64.839792 
2756.000000	64.821124 
2755.000000	64.807724 
2754.000000	64.801049 
2753.000000	64.801383 
2752.000000	64.807677 
2751.000000	64.817905 
2750.000000	64.829730 
2749.000000	64.840841 
2748.000000	64.849328 
2747.000000	64.854240 
2746.000000	64.855742 
2745.000000	64.854741 
2744.000000	64.852643 
2743.000000	64.850807 
2742.000000	64.850234 
2741.000000	64.851188 
2740.000000	64.853429 
2739.000000	64.856147 
2738.000000	64.858484 
2737.000000	64.859771 
2736.000000	64.859914 
2735.000000	64.859151 
2734.000000	64.858388 
2733.000000	64.858365 
2732.000000	64.859914 
2731.000000	64.863562 
2730.000000	64.869236 
2729.000000	64.876508 
2728.000000	64.884305 
2727.000000	64.891386 
2726.000000	64.896202 
2725.000000	64.897489 
2724.000000	64.894127 
2723.000000	64.885401 
2722.000000	64.871215 
2721.000000	64.852213 
2720.000000	64.829635 
2719.000000	64.805412 
2718.000000	64.781880 
2717.000000	64.761471 
2716.000000	64.746475 
2715.000000	64.738535 
2714.000000	64.738345 
2713.000000	64.745616 
2712.000000	64.759016 
2711.000000	64.776611 
2710.000000	64.795923 
2709.000000	64.814305 
2708.000000	64.829349 
2707.000000	64.839029 
2706.000000	64.841914 
2705.000000	64.837360 
2704.000000	64.825701 
2703.000000	64.807987 
2702.000000	64.786195 
2701.000000	64.762592 
2700.000000	64.739727 
2699.000000	64.719605 
2698.000000	64.703917 
2697.000000	64.693188 
2696.000000	64.687252 
2695.000000	64.685130 
2694.000000	64.685368 
2693.000000	64.686417 
2692.000000	64.687061 
2691.000000	64.686584 
2690.000000	64.684867 
2689.000000	64.682316 
2688.000000	64.679503 
2687.000000	64.676976 
2686.000000	64.675235 
2685.000000	64.674353 
2684.000000	64.674353 
2683.000000	64.675211 
2682.000000	64.677047 
2681.000000	64.680171 
2680.000000	64.685010 
2679.000000	64.692115 
2678.000000	64.701890 
2677.000000	64.714789 
2676.000000	64.730668 
2675.000000	64.749169 
2674.000000	64.769291 
2673.000000	64.789628 
2672.000000	64.808392 
2671.000000	64.823794 
2670.000000	64.834284 
2669.000000	64.838671 
2668.000000	64.836597 
2667.000000	64.828610 
2666.000000	64.815950 
2665.000000	64.800453 
2664.000000	64.784216 
2663.000000	64.769387 
2662.000000	64.757609 
2661.000000	64.749956 
2660.000000	64.746785 
2659.000000	64.747905 
2658.000000	64.752936 
2657.000000	64.761376 
2656.000000	64.772748 
2655.000000	64.786601 
2654.000000	64.802432 
2653.000000	64.819407 
2652.000000	64.836311 
2651.000000	64.851522 
2650.000000	64.863228 
2649.000000	64.869666 
2648.000000	64.869737 
2647.000000	64.862966 
2646.000000	64.849805 
2645.000000	64.831495 
2644.000000	64.810061 
2643.000000	64.787840 
2642.000000	64.767050 
2641.000000	64.749836 
2640.000000	64.737701 
2639.000000	64.731621 
2638.000000	64.732098 
2637.000000	64.738988 
2636.000000	64.751553 
2635.000000	64.768433 
2634.000000	64.787578 
2633.000000	64.806509 
2632.000000	64.822435 
2631.000000	64.832663 
2630.000000	64.835214 
2629.000000	64.829134 
2628.000000	64.814901 
2627.000000	64.794135 
2626.000000	64.769673 
2625.000000	64.744734 
2624.000000	64.722704 
2623.000000	64.706563 
2622.000000	64.698338 
2621.000000	64.698910 
2620.000000	64.707946 
2619.000000	64.724040 
2618.000000	64.744973 
2617.000000	64.768052 
2616.000000	64.790749 
2615.000000	64.810776 
2614.000000	64.826512 
2613.000000	64.837241 
2612.000000	64.842629 
2611.000000	64.842915 
2610.000000	64.838457 
2609.000000	64.829897 
2608.000000	64.817619 
2607.000000	64.802241 
2606.000000	64.784383 
2605.000000	64.765048 
2604.000000	64.745473 
2603.000000	64.727306 
2602.000000	64.712381 
2601.000000	64.702200 
2600.000000	64.697718 
2599.000000	64.699006 
2598.000000	64.705038 
2597.000000	64.714145 
2596.000000	64.723968 
2595.000000	64.732503 
2594.000000	64.738082 
2593.000000	64.740300 
2592.000000	64.739632 
2591.000000	64.737653 
2590.000000	64.736318 
2589.000000	64.737606 
2588.000000	64.742875 
2587.000000	64.752531 
2586.000000	64.765763 
2585.000000	64.780640 
2584.000000	64.794850 
2583.000000	64.805841 
2582.000000	64.811515 
2581.000000	64.810681 
2580.000000	64.803266 
2579.000000	64.790487 
2578.000000	64.774465 
2577.000000	64.757966 
2576.000000	64.743804 
2575.000000	64.734578 
2574.000000	64.732050 
2573.000000	64.736914 
2572.000000	64.748811 
2571.000000	64.766335 
2570.000000	64.787316 
2569.000000	64.808964 
2568.000000	64.828705 
2567.000000	64.844155 
2566.000000	64.853668 
2565.000000	64.856266 
2564.000000	64.851927 
2563.000000	64.841246 
2562.000000	64.825248 
2561.000000	64.805483 
2560.000000	64.783573 
2559.000000	64.761066 
2558.000000	64.739418 
2557.000000	64.719891 
2556.000000	64.703512 
2555.000000	64.690899 
2554.000000	64.682602 
2553.000000	64.678740 
2552.000000	64.679145 
2551.000000	64.683151 
2550.000000	64.689588 
2549.000000	64.696955 
2548.000000	64.703583 
2547.000000	64.708018 
2546.000000	64.709162 
2545.000000	64.706826 
2544.000000	64.701557 
2543.000000	64.694762 
2542.000000	64.688134 
2541.000000	64.683294 
2540.000000	64.681410 
2539.000000	64.682817 
2538.000000	64.687108 
2537.000000	64.693212 
2536.000000	64.699721 
2535.000000	64.705181 
2534.000000	64.708328 
2533.000000	64.708447 
2532.000000	64.705395 
2531.000000	64.699625 
2530.000000	64.691781 
2529.000000	64.682888 
2528.000000	64.674115 
2527.000000	64.666652 
2526.000000	64.661502 
2525.000000	64.659619 
2524.000000	64.661645 
2523.000000	64.667963 
2522.000000	64.678168 
2521.000000	64.691400 
2520.000000	64.706301 
2519.000000	64.721107 
2518.000000	64.733886 
2517.000000	64.742851 
2516.000000	64.746832 
2515.000000	64.745283 
2514.000000	64.738512 
2513.000000	64.727330 
2512.000000	64.713335 
2511.000000	64.698171 
2510.000000	64.683747 
2509.000000	64.671611 
2508.000000	64.663124 
2507.000000	64.659094 
2506.000000	64.659810 
2505.000000	64.665222 
2504.000000	64.674544 
2503.000000	64.686560 
2502.000000	64.699602 
2501.000000	64.711689 
2500.000000	64.721155 
2499.000000	64.726853 
2498.000000	64.728355 
2497.000000	64.726305 
2496.000000	64.722180 
2495.000000	64.717960 
2494.000000	64.715719 
2493.000000	64.716887 
2492.000000	64.721870 
2491.000000	64.729785 
2490.000000	64.738678 
2489.000000	64.745879 
2488.000000	64.748716 
2487.000000	64.745402 
2486.000000	64.735364 
2485.000000	64.719939 
2484.000000	64.701652 
2483.000000	64.684271 
2482.000000	64.671540 
2481.000000	64.666700 
2480.000000	64.671468 
2479.000000	64.685845 
2478.000000	64.707875 
2477.000000	64.734077 
2476.000000	64.760208 
2475.000000	64.781761 
2474.000000	64.795184 
2473.000000	64.798426 
2472.000000	64.791417 
2471.000000	64.775824 
2470.000000	64.754748 
2469.000000	64.732074 
2468.000000	64.711785 
2467.000000	64.696955 
2466.000000	64.689397 
2465.000000	64.689564 
2464.000000	64.696574 
2463.000000	64.708566 
2462.000000	64.723134 
2461.000000	64.737987 
2460.000000	64.751172 
2459.000000	64.761376 
2458.000000	64.767956 
2457.000000	64.770674 
2456.000000	64.769673 
2455.000000	64.765334 
2454.000000	64.758133 
2453.000000	64.748549 
2452.000000	64.737081 
2451.000000	64.724588 
2450.000000	64.711761 
2449.000000	64.699316 
2448.000000	64.687752 
2447.000000	64.677381 
2446.000000	64.668321 
2445.000000	64.660453 
2444.000000	64.653420 
2443.000000	64.646601 
2442.000000	64.639139 
2441.000000	64.630293 
2440.000000	64.619278 
2439.000000	64.605784 
2438.000000	64.589881 
2437.000000	64.572691 
2436.000000	64.555883 
2435.000000	64.542102 
2434.000000	64.534020 
2433.000000	64.534306 
2432.000000	64.544701 
2431.000000	64.565610 
2430.000000	64.595937 
2429.000000	64.633083 
2428.000000	64.673233 
2427.000000	64.712142 
2426.000000	64.745998 
2425.000000	64.771914 
2424.000000	64.788603 
2423.000000	64.795875 
2422.000000	64.794731 
2421.000000	64.786481 
2420.000000	64.772653 
2419.000000	64.754486 
2418.000000	64.732909 
2417.000000	64.708805 
2416.000000	64.683151 
2415.000000	64.657235 
2414.000000	64.632701 
2413.000000	64.611339 
2412.000000	64.594864 
2411.000000	64.584517 
2410.000000	64.580726 
2409.000000	64.582920 
2408.000000	64.589715 
2407.000000	64.599037 
2406.000000	64.608716 
2405.000000	64.616823 
2404.000000	64.622116 
2403.000000	64.624190 
2402.000000	64.623570 
2401.000000	64.621210 
2400.000000	64.618301 
2399.000000	64.615893 
2398.000000	64.614439 
2397.000000	64.613819 
2396.000000	64.613389 
2395.000000	64.612197 
2394.000000	64.609360 
2393.000000	64.604139 
2392.000000	64.596509 
2391.000000	64.587140 
2390.000000	64.577317 
2389.000000	64.568567 
2388.000000	64.562368 
2387.000000	64.559698 
2386.000000	64.561033 
2385.000000	64.566087 
2384.000000	64.573931 
2383.000000	64.583230 
2382.000000	64.592552 
2381.000000	64.600753 
2380.000000	64.606833 
2379.000000	64.610576 
2378.000000	64.612030 
2377.000000	64.611864 
2376.000000	64.610934 
2375.000000	64.610147 
2374.000000	64.610457 
2373.000000	64.612698 
2372.000000	64.617347 
2371.000000	64.624309 
2370.000000	64.633369 
2369.000000	64.643406 
2368.000000	64.652967 
2367.000000	64.660382 
2366.000000	64.664125 
2365.000000	64.663171 
2364.000000	64.657425 
2363.000000	64.647817 
2362.000000	64.636254 
2361.000000	64.625215 
2360.000000	64.617037 
2359.000000	64.613437 
2358.000000	64.614915 
2357.000000	64.620542 
2356.000000	64.628171 
2355.000000	64.634895 
2354.000000	64.637899 
2353.000000	64.635109 
2352.000000	64.625859 
2351.000000	64.610981 
2350.000000	64.592742 
2349.000000	64.574193 
2348.000000	64.558410 
2347.000000	64.547705 
2346.000000	64.543223 
2345.000000	64.544892 
2344.000000	64.551305 
2343.000000	64.560437 
2342.000000	64.569950 
2341.000000	64.578008 
2340.000000	64.583420 
2339.000000	64.585638 
2338.000000	64.584875 
2337.000000	64.581775 
2336.000000	64.577126 
2335.000000	64.571666 
2334.000000	64.566326 
2333.000000	64.562153 
2332.000000	64.560198 
2331.000000	64.561533 
2330.000000	64.567089 
2329.000000	64.577150 
2328.000000	64.591383 
2327.000000	64.608502 
2326.000000	64.626336 
2325.000000	64.642214 
2324.000000	64.653611 
2323.000000	64.658498 
2322.000000	64.656019 
2321.000000	64.646577 
2320.000000	64.631962 
2319.000000	64.614677 
2318.000000	64.597415 
2317.000000	64.582443 
2316.000000	64.571166 
2315.000000	64.563822 
2314.000000	64.559555 
2313.000000	64.556694 
2312.000000	64.553570 
2311.000000	64.548540 
2310.000000	64.540553 
2309.000000	64.529085 
2308.000000	64.514374 
2307.000000	64.497232 
2306.000000	64.478945 
2305.000000	64.461088 
2304.000000	64.445376 
2303.000000	64.433503 
2302.000000	64.426875 
2301.000000	64.426422 
2300.000000	64.432525 
2299.000000	64.444661 
2298.000000	64.461517 
2297.000000	64.481019 
2296.000000	64.500761 
2295.000000	64.518260 
2294.000000	64.531564 
2293.000000	64.539289 
2292.000000	64.541077 
2291.000000	64.537382 
2290.000000	64.529418 
2289.000000	64.518785 
2288.000000	64.507174 
2287.000000	64.495992 
2286.000000	64.486408 
2285.000000	64.479231 
2284.000000	64.474749 
2283.000000	64.472794 
2282.000000	64.472985 
2281.000000	64.474749 
2280.000000	64.477682 
2279.000000	64.481401 
2278.000000	64.485716 
2277.000000	64.490628 
2276.000000	64.496374 
2275.000000	64.503145 
2274.000000	64.511275 
2273.000000	64.520573 
2272.000000	64.530634 
2271.000000	64.540648 
2270.000000	64.549469 
2269.000000	64.555978 
2268.000000	64.559173 
2267.000000	64.558601 
2266.000000	64.554429 
2265.000000	64.547681 
2264.000000	64.539933 
2263.000000	64.533185 
2262.000000	64.529371 
2261.000000	64.530038 
2260.000000	64.535903 
2259.000000	64.546608 
2258.000000	64.561104 
2257.000000	64.577460 
2256.000000	64.593482 
2255.000000	64.606857 
2254.000000	64.615702 
2253.000000	64.618730 
2252.000000	64.615249 
2251.000000	64.605188 
2250.000000	64.589285 
2249.000000	64.568734 
2248.000000	64.545178 
2247.000000	64.520692 
2246.000000	64.497303 
2245.000000	64.477133 
2244.000000	64.461779 
2243.000000	64.452362 
2242.000000	64.449310 
2241.000000	64.452266 
2240.000000	64.460420 
2239.000000	64.472174 
2238.000000	64.486122 
2237.000000	64.500975 
2236.000000	64.516186 
2235.000000	64.531326 
2234.000000	64.546346 
2233.000000	64.561176 
2232.000000	64.575505 
2231.000000	64.588546 
2230.000000	64.599013 
2229.000000	64.605426 
2228.000000	64.606666 
2227.000000	64.602160 
2226.000000	64.592242 
2225.000000	64.578294 
2224.000000	64.562344 
2223.000000	64.546871 
2222.000000	64.534211 
2221.000000	64.526009 
2220.000000	64.523053 
2219.000000	64.524960 
2218.000000	64.530491 
2217.000000	64.537668 
2216.000000	64.544391 
2215.000000	64.548730 
2214.000000	64.549160 
2213.000000	64.544630 
2212.000000	64.534759 
2211.000000	64.519643 
2210.000000	64.499759 
2209.000000	64.476060 
2208.000000	64.449667 
2207.000000	64.422202 
2206.000000	64.395546 
2205.000000	64.371681 
2204.000000	64.352607 
2203.000000	64.339852 
2202.000000	64.334464 
2201.000000	64.336585 
2200.000000	64.345312 
2199.000000	64.358758 
2198.000000	64.374494 
2197.000000	64.389777 
2196.000000	64.402222 
2195.000000	64.410042 
2194.000000	64.412569 
2193.000000	64.410352 
2192.000000	64.404702 
2191.000000	64.397573 
2190.000000	64.390540 
2189.000000	64.385151 
2188.000000	64.382100 
2187.000000	64.381265 
2186.000000	64.382004 
2185.000000	64.383292 
2184.000000	64.384198 
2183.000000	64.384102 
2182.000000	64.382910 
2181.000000	64.381146 
2180.000000	64.379644 
2179.000000	64.379358 
2178.000000	64.381098 
2177.000000	64.385342 
2176.000000	64.391899 
2175.000000	64.399838 
2174.000000	64.407896 
2173.000000	64.414691 
2172.000000	64.418768 
2171.000000	64.419150 
2170.000000	64.415526 
2169.000000	64.408445 
2168.000000	64.399290 
2167.000000	64.389944 
2166.000000	64.382433 
2165.000000	64.378356 
2164.000000	64.378643 
2163.000000	64.383029 
2162.000000	64.390206 
2161.000000	64.398121 
2160.000000	64.404416 
2159.000000	64.407181 
2158.000000	64.405369 
2157.000000	64.399170 
2156.000000	64.389944 
2155.000000	64.379858 
2154.000000	64.371275 
2153.000000	64.366269 
2152.000000	64.365696 
2151.000000	64.369463 
2150.000000	64.376378 
2149.000000	64.384698 
2148.000000	64.392781 
2147.000000	64.399528 
2146.000000	64.404654 
2145.000000	64.408659 
2144.000000	64.412617 
2143.000000	64.417481 
2142.000000	64.423775 
2141.000000	64.431524 
2140.000000	64.440059 
2139.000000	64.448285 
2138.000000	64.455056 
2137.000000	64.459466 
2136.000000	64.461112 
2135.000000	64.460206 
2134.000000	64.457488 
2133.000000	64.453864 
2132.000000	64.450192 
2131.000000	64.447069 
2130.000000	64.444708 
2129.000000	64.443111 
2128.000000	64.442038 
2127.000000	64.441394 
2126.000000	64.441061 
2125.000000	64.441227 
2124.000000	64.442062 
2123.000000	64.443802 
2122.000000	64.446568 
2121.000000	64.450120 
2120.000000	64.453959 
2119.000000	64.457225 
2118.000000	64.459037 
2117.000000	64.458513 
2116.000000	64.455032 
2115.000000	64.448428 
2114.000000	64.439296 
2113.000000	64.428853 
2112.000000	64.418840 
2111.000000	64.410829 
2110.000000	64.406228 
2109.000000	64.405441 
2108.000000	64.408135 
2107.000000	64.412927 
2106.000000	64.417767 
2105.000000	64.420413 
2104.000000	64.419126 
2103.000000	64.413046 
2102.000000	64.402627 
2101.000000	64.389419 
2100.000000	64.375829 
2099.000000	64.364480 
2098.000000	64.357519 
2097.000000	64.356064 
2096.000000	64.359951 
2095.000000	64.367699 
2094.000000	64.376974 
2093.000000	64.385294 
2092.000000	64.390492 
2091.000000	64.391255 
2090.000000	64.387297 
2089.000000	64.379286 
2088.000000	64.368700 
2087.000000	64.357376 
2086.000000	64.347028 
2085.000000	64.339041 
2084.000000	64.334201 
2083.000000	64.332747 
2082.000000	64.334082 
2081.000000	64.337444 
2080.000000	64.341735 
2079.000000	64.346146 
2078.000000	64.350104 
2077.000000	64.353227 
2076.000000	64.355397 
2075.000000	64.356660 
2074.000000	64.357089 
2073.000000	64.356899 
2072.000000	64.356279 
2071.000000	64.355850 
2070.000000	64.356279 
2069.000000	64.358401 
2068.000000	64.362883 
2067.000000	64.370059 
2066.000000	64.379811 
2065.000000	64.391398 
2064.000000	64.403986 
2063.000000	64.416718 
2062.000000	64.429044 
2061.000000	64.440751 
2060.000000	64.452099 
2059.000000	64.463257 
2058.000000	64.474368 
2057.000000	64.484834 
2056.000000	64.493465 
2055.000000	64.498329 
2054.000000	64.497494 
2053.000000	64.489126 
2052.000000	64.472460 
2051.000000	64.447832 
2050.000000	64.417123 
2049.000000	64.383459 
2048.000000	64.350438 
2047.000000	64.321660 
2046.000000	64.299845 
2045.000000	64.286303 
2044.000000	64.280867 
2043.000000	64.281916 
2042.000000	64.286851 
2041.000000	64.292669 
2040.000000	64.296674 
2039.000000	64.296960 
2038.000000	64.292645 
2037.000000	64.284038 
2036.000000	64.272379 
2035.000000	64.259433 
2034.000000	64.247179 
2033.000000	64.237260 
2032.000000	64.230608 
2031.000000	64.227509 
2030.000000	64.227604 
2029.000000	64.229822 
2028.000000	64.233183 
2027.000000	64.236545 
2026.000000	64.239287 
2025.000000	64.241194 
2024.000000	64.242601 
2023.000000	64.244008 
2022.000000	64.245986 
2021.000000	64.248776 
2020.000000	64.252352 
2019.000000	64.256167 
2018.000000	64.259481 
2017.000000	64.261341 
2016.000000	64.261221 
2015.000000	64.259004 
2014.000000	64.255094 
2013.000000	64.250159 
2012.000000	64.245176 
2011.000000	64.241147 
2010.000000	64.238762 
2009.000000	64.238476 
2008.000000	64.240455 
2007.000000	64.244580 
2006.000000	64.250636 
2005.000000	64.258265 
2004.000000	64.267230 
2003.000000	64.277219 
2002.000000	64.287614 
2001.000000	64.297509 
2000.000000	64.305973 
1999.000000	64.311909 
1998.000000	64.314484 
1997.000000	64.313077 
1996.000000	64.307832 
1995.000000	64.299321 
1994.000000	64.288496 
1993.000000	64.276456 
1992.000000	64.264297 
1991.000000	64.252662 
1990.000000	64.241790 
1989.000000	64.231491 
1988.000000	64.221477 
1987.000000	64.211249 
1986.000000	64.200663 
1985.000000	64.189863 
1984.000000	64.179372 
1983.000000	64.170122 
1982.000000	64.163374 
1981.000000	64.160180 
1980.000000	64.161372 
1979.000000	64.167380 
1978.000000	64.178109 
1977.000000	64.192771 
1976.000000	64.210081 
1975.000000	64.228367 
1974.000000	64.245820 
1973.000000	64.260697 
1972.000000	64.271664 
1971.000000	64.278173 
1970.000000	64.280319 
1969.000000	64.279103 
1968.000000	64.276123 
1967.000000	64.273166 
1966.000000	64.272069 
1965.000000	64.274215 
1964.000000	64.280343 
1963.000000	64.290571 
1962.000000	64.304208 
1961.000000	64.320111 
1960.000000	64.336657 
1959.000000	64.351844 
1958.000000	64.363718 
1957.000000	64.370584 
1956.000000	64.371085 
1955.000000	64.364361 
1954.000000	64.350247 
1953.000000	64.329385 
1952.000000	64.302873 
1951.000000	64.272284 
1950.000000	64.239597 
1949.000000	64.207077 
1948.000000	64.177107 
1947.000000	64.151954 
1946.000000	64.133548 
1945.000000	64.123153 
1944.000000	64.121222 
1943.000000	64.127111 
1942.000000	64.139008 
1941.000000	64.154362 
1940.000000	64.170193 
1939.000000	64.183855 
1938.000000	64.193058 
1937.000000	64.197015 
1936.000000	64.195919 
1935.000000	64.191412 
1934.000000	64.185690 
1933.000000	64.181113 
1932.000000	64.179372 
1931.000000	64.181137 
1930.000000	64.185929 
1929.000000	64.192271 
1928.000000	64.198040 
1927.000000	64.201259 
1926.000000	64.200448 
1925.000000	64.194965 
1924.000000	64.185094 
1923.000000	64.171862 
1922.000000	64.156937 
1921.000000	64.142131 
1920.000000	64.129185 
1919.000000	64.119625 
1918.000000	64.114332 
1917.000000	64.113378 
1916.000000	64.116239 
1915.000000	64.121651 
1914.000000	64.128375 
1913.000000	64.134931 
1912.000000	64.140343 
1911.000000	64.144086 
1910.000000	64.146399 
1909.000000	64.147925 
1908.000000	64.149665 
1907.000000	64.152646 
1906.000000	64.157533 
1905.000000	64.164614 
1904.000000	64.173650 
1903.000000	64.183950 
1902.000000	64.194464 
1901.000000	64.204049 
1900.000000	64.211678 
1899.000000	64.216709 
1898.000000	64.218807 
1897.000000	64.218211 
1896.000000	64.215373 
1895.000000	64.210963 
1894.000000	64.205813 
1893.000000	64.200615 
1892.000000	64.195823 
1891.000000	64.191794 
1890.000000	64.188361 
1889.000000	64.185118 
1888.000000	64.181494 
1887.000000	64.177179 
1886.000000	64.171910 
1885.000000	64.165854 
1884.000000	64.159512 
1883.000000	64.153623 
1882.000000	64.149069 
1881.000000	64.146661 
1880.000000	64.146733 
1879.000000	64.149332 
1878.000000	64.154100 
1877.000000	64.160323 
1876.000000	64.167022 
1875.000000	64.173126 
1874.000000	64.177656 
1873.000000	64.179849 
1872.000000	64.179253 
1871.000000	64.175987 
1870.000000	64.170575 
1869.000000	64.163994 
1868.000000	64.157462 
1867.000000	64.152526 
1866.000000	64.150333 
1865.000000	64.151906 
1864.000000	64.157485 
1863.000000	64.166617 
1862.000000	64.178085 
1861.000000	64.190030 
1860.000000	64.200282 
1859.000000	64.206361 
1858.000000	64.206314 
1857.000000	64.198875 
1856.000000	64.183855 
1855.000000	64.162135 
1854.000000	64.135599 
1853.000000	64.106941 
1852.000000	64.078998 
1851.000000	64.054489 
1850.000000	64.035534 
1849.000000	64.023303 
1848.000000	64.018082 
1847.000000	64.019370 
1846.000000	64.026021 
1845.000000	64.036655 
1844.000000	64.049983 
1843.000000	64.064836 
1842.000000	64.080309 
1841.000000	64.095544 
1840.000000	64.109516 
1839.000000	64.121222 
1838.000000	64.129424 
1837.000000	64.133262 
1836.000000	64.132261 
1835.000000	64.126849 
1834.000000	64.118313 
1833.000000	64.108538 
1832.000000	64.099907 
1831.000000	64.094328 
1830.000000	64.093065 
1829.000000	64.096140 
1828.000000	64.102530 
1827.000000	64.110255 
1826.000000	64.116954 
1825.000000	64.120435 
1824.000000	64.119434 
1823.000000	64.113783 
1822.000000	64.104580 
1821.000000	64.093828 
1820.000000	64.083981 
1819.000000	64.077377 
1818.000000	64.075613 
1817.000000	64.079618 
1816.000000	64.089202 
1815.000000	64.103364 
1814.000000	64.120364 
1813.000000	64.138221 
1812.000000	64.155006 
1811.000000	64.168834 
1810.000000	64.178442 
1809.000000	64.183139 
1808.000000	64.183044 
1807.000000	64.178872 
1806.000000	64.171695 
1805.000000	64.162683 
1804.000000	64.152812 
1803.000000	64.142870 
1802.000000	64.133119 
1801.000000	64.123487 
1800.000000	64.113759 
1799.000000	64.103722 
1798.000000	64.093160 
1797.000000	64.081954 
1796.000000	64.070010 
1795.000000	64.057230 
1794.000000	64.043235 
1793.000000	64.027667 
1792.000000	64.009928 
1791.000000	63.989543 
1790.000000	63.966536 
1789.000000	63.941669 
1788.000000	63.916254 
1787.000000	63.892126 
1786.000000	63.871359 
1785.000000	63.855719 
1784.000000	63.846158 
1783.000000	63.842511 
1782.000000	63.843965 
1781.000000	63.849020 
1780.000000	63.855719 
1779.000000	63.862252 
1778.000000	63.867521 
1777.000000	63.871073 
1776.000000	63.872981 
1775.000000	63.874101 
1774.000000	63.875436 
1773.000000	63.877892 
1772.000000	63.881683 
1771.000000	63.886713 
1770.000000	63.892340 
1769.000000	63.897395 
1768.000000	63.900446 
1767.000000	63.900279 
1766.000000	63.895821 
1765.000000	63.886499 
1764.000000	63.872075 
1763.000000	63.852858 
1762.000000	63.829326 
1761.000000	63.802504 
1760.000000	63.773345 
1759.000000	63.742661 
1758.000000	63.710832 
1757.000000	63.678431 
1756.000000	63.645792 
1755.000000	63.612890 
1754.000000	63.579511 
1753.000000	63.545989 
1752.000000	63.512086 
1751.000000	63.477349 
1750.000000	63.440632 
1749.000000	63.400983 
1748.000000	63.356733 
1747.000000	63.306236 
1746.000000	63.248157 
1745.000000	63.182020 
1744.000000	63.108325 
1743.000000	63.028836 
1742.000000	62.946462 
1741.000000	62.865066 
1740.000000	62.788677 
1739.000000	62.721252 
1738.000000	62.665891 
1737.000000	62.624907 
1736.000000	62.599372 
1735.000000	62.589836 
1734.000000	62.595701 
1733.000000	62.616395 
1732.000000	62.650299 
1731.000000	62.696003 
1730.000000	62.751221 
1729.000000	62.813997 
1728.000000	62.881731 
1727.000000	62.952232 
1726.000000	63.023543 
1725.000000	63.094115 
1724.000000	63.162636 
1723.000000	63.228249 
1722.000000	63.290429 
1721.000000	63.348674 
1720.000000	63.402318 
1719.000000	63.450527 
1718.000000	63.492822 
1717.000000	63.528919 
1716.000000	63.558840 
1715.000000	63.583326 
1714.000000	63.603949 
1713.000000	63.622331 
1712.000000	63.639855 
1711.000000	63.657689 
1710.000000	63.676428 
1709.000000	63.696026 
1708.000000	63.715648 
1707.000000	63.734698 
1706.000000	63.752460 
1705.000000	63.768410 
1704.000000	63.782167 
1703.000000	63.793683 
1702.000000	63.802981 
1701.000000	63.810396 
1700.000000	63.816213 
1699.000000	63.820719 
1698.000000	63.823962 
1697.000000	63.826179 
1696.000000	63.827323 
1695.000000	63.827061 
1694.000000	63.824892 
1693.000000	63.820528 
1692.000000	63.813662 
1691.000000	63.803958 
1690.000000	63.791704 
1689.000000	63.777804 
1688.000000	63.763570 
1687.000000	63.750362 
1686.000000	63.739776 
1685.000000	63.732981 
1684.000000	63.730406 
1683.000000	63.731622 
1682.000000	63.735651 
1681.000000	63.741302 
1680.000000	63.747310 
1679.000000	63.752746 
1678.000000	63.757109 
1677.000000	63.760566 
1676.000000	63.763475 
1675.000000	63.766622 
1674.000000	63.770794 
1673.000000	63.776636 
1672.000000	63.784503 
1671.000000	63.794422 
1670.000000	63.805937 
1669.000000	63.818430 
1668.000000	63.831114 
1667.000000	63.843083 
1666.000000	63.853573 
1665.000000	63.862061 
1664.000000	63.868260 
1663.000000	63.872170 
1662.000000	63.873982 
1661.000000	63.873910 
1660.000000	63.872313 
1659.000000	63.869452 
1658.000000	63.865375 
1657.000000	63.860201 
1656.000000	63.854002 
1655.000000	63.847255 
1654.000000	63.840675 
1653.000000	63.835430 
1652.000000	63.832688 
1651.000000	63.833498 
1650.000000	63.838458 
1649.000000	63.847208 
1648.000000	63.858842 
1647.000000	63.871669 
1646.000000	63.884091 
1645.000000	63.894462 
1644.000000	63.901925 
1643.000000	63.906431 
1642.000000	63.908767 
1641.000000	63.910341 
1640.000000	63.912677 
1639.000000	63.917088 
1638.000000	63.924217 
1637.000000	63.933730 
1636.000000	63.944339 
1635.000000	63.954234 
1634.000000	63.961315 
1633.000000	63.963627 
1632.000000	63.959717 
1631.000000	63.949060 
1630.000000	63.931918 
1629.000000	63.909482 
1628.000000	63.883829 
1627.000000	63.857245 
1626.000000	63.832306 
1625.000000	63.811135 
1624.000000	63.795137 
1623.000000	63.784790 
1622.000000	63.779711 
1621.000000	63.778829 
1620.000000	63.780570 
1619.000000	63.783526 
1618.000000	63.786673 
1617.000000	63.789582 
1616.000000	63.792252 
1615.000000	63.795161 
1614.000000	63.798761 
1613.000000	63.803386 
1612.000000	63.808965 
1611.000000	63.815093 
1610.000000	63.821005 
1609.000000	63.826060 
1608.000000	63.829803 
1607.000000	63.832235 
1606.000000	63.833665 
1605.000000	63.834333 
1604.000000	63.834285 
1603.000000	63.833141 
1602.000000	63.830351 
1601.000000	63.825178 
1600.000000	63.817214 
1599.000000	63.806891 
1598.000000	63.795351 
1597.000000	63.784193 
1596.000000	63.775396 
1595.000000	63.770771 
1594.000000	63.771605 
1593.000000	63.778257 
1592.000000	63.790273 
1591.000000	63.806462 
1590.000000	63.824820 
1589.000000	63.843131 
1588.000000	63.858795 
1587.000000	63.869404 
1586.000000	63.872814 
1585.000000	63.867592 
1584.000000	63.853120 
1583.000000	63.829874 
1582.000000	63.799762 
1581.000000	63.766074 
1580.000000	63.733124 
1579.000000	63.705611 
1578.000000	63.687849 
1577.000000	63.682723 
1576.000000	63.691043 
1575.000000	63.711404 
1574.000000	63.740229 
1573.000000	63.772511 
1572.000000	63.802909 
1571.000000	63.826918 
1570.000000	63.841438 
1569.000000	63.845467 
1568.000000	63.839983 
1567.000000	63.827419 
1566.000000	63.810944 
1565.000000	63.793396 
1564.000000	63.777184 
1563.000000	63.763213 
1562.000000	63.751626 
1561.000000	63.741350 
1560.000000	63.731241 
1559.000000	63.720107 
1558.000000	63.707137 
1557.000000	63.692069 
1556.000000	63.675117 
1555.000000	63.656949 
1554.000000	63.638687 
1553.000000	63.621687 
1552.000000	63.607454 
1551.000000	63.597416 
1550.000000	63.592815 
1549.000000	63.594579 
1548.000000	63.603258 
1547.000000	63.618540 
1546.000000	63.639473 
1545.000000	63.664364 
1544.000000	63.690853 
1543.000000	63.716316 
1542.000000	63.738036 
1541.000000	63.753676 
1540.000000	63.761544 
1539.000000	63.760972 
1538.000000	63.752222 
1537.000000	63.736534 
1536.000000	63.715648 
1535.000000	63.691878 
1534.000000	63.667368 
1533.000000	63.644075 
1532.000000	63.623356 
1531.000000	63.605976 
1530.000000	63.592028 
1529.000000	63.581275 
1528.000000	63.573408 
1527.000000	63.568305 
1526.000000	63.566255 
1525.000000	63.567876 
1524.000000	63.573861 
1523.000000	63.584756 
1522.000000	63.600730 
1521.000000	63.621282 
1520.000000	63.645219 
1519.000000	63.670635 
1518.000000	63.695335 
1517.000000	63.717126 
1516.000000	63.734292 
1515.000000	63.745570 
1514.000000	63.750481 
1513.000000	63.749098 
1512.000000	63.742399 
1511.000000	63.731336 
1510.000000	63.717126 
1509.000000	63.700723 
1508.000000	63.683009 
1507.000000	63.664698 
1506.000000	63.646459 
1505.000000	63.628911 
1504.000000	63.612842 
1503.000000	63.599205 
1502.000000	63.589072 
1501.000000	63.583707 
1500.000000	63.584113 
1499.000000	63.591074 
1498.000000	63.604950 
1497.000000	63.625383 
1496.000000	63.651418 
1495.000000	63.681221 
1494.000000	63.712358 
1493.000000	63.742160 
1492.000000	63.767957 
1491.000000	63.787508 
1490.000000	63.798904 
1489.000000	63.801360 
1488.000000	63.794851 
1487.000000	63.780212 
1486.000000	63.758993 
1485.000000	63.733720 
1484.000000	63.707065 
1483.000000	63.681864 
1482.000000	63.660311 
1481.000000	63.643836 
1480.000000	63.632822 
1479.000000	63.626742 
1478.000000	63.624382 
1477.000000	63.624143 
1476.000000	63.624572 
1475.000000	63.624548 
1474.000000	63.623213 
1473.000000	63.619995 
1472.000000	63.614082 
1471.000000	63.604736 
1470.000000	63.591122 
1469.000000	63.572454 
1468.000000	63.548493 
1467.000000	63.519835 
1466.000000	63.487982 
1465.000000	63.455343 
1464.000000	63.424873 
1463.000000	63.399291 
1462.000000	63.380575 
1461.000000	63.369607 
1460.000000	63.365530 
1459.000000	63.366460 
1458.000000	63.369989 
1457.000000	63.373923 
1456.000000	63.376879 
1455.000000	63.378667 
1454.000000	63.380026 
1453.000000	63.382315 
1452.000000	63.386964 
1451.000000	63.394927 
1450.000000	63.405990 
1449.000000	63.419008 
1448.000000	63.432097 
1447.000000	63.442969 
1446.000000	63.449430 
1445.000000	63.450121 
1444.000000	63.444685 
1443.000000	63.434171 
1442.000000	63.420605 
1441.000000	63.406801 
1440.000000	63.395524 
1439.000000	63.389039 
1438.000000	63.388395 
1437.000000	63.393521 
1436.000000	63.402938 
1435.000000	63.414216 
1434.000000	63.424491 
1433.000000	63.431215 
1432.000000	63.432884 
1431.000000	63.429450 
1430.000000	63.422584 
1429.000000	63.414978 
1428.000000	63.410139 
1427.000000	63.411402 
1426.000000	63.421034 
1425.000000	63.439512 
1424.000000	63.465523 
1423.000000	63.496279 
1422.000000	63.527989 
1421.000000	63.556861 
1420.000000	63.579344 
1419.000000	63.593268 
1418.000000	63.597702 
1417.000000	63.593268 
1416.000000	63.581776 
1415.000000	63.565731 
1414.000000	63.547921 
1413.000000	63.530874 
1412.000000	63.516378 
1411.000000	63.505244 
1410.000000	63.497638 
1409.000000	63.492846 
1408.000000	63.489890 
1407.000000	63.487434 
1406.000000	63.484358 
1405.000000	63.479638 
1404.000000	63.472366 
1403.000000	63.461899 
1402.000000	63.447570 
1401.000000	63.429045 
1400.000000	63.406419 
1399.000000	63.380360 
1398.000000	63.352155 
1397.000000	63.323807 
1396.000000	63.297891 
1395.000000	63.277173 
1394.000000	63.264083 
1393.000000	63.260149 
1392.000000	63.265728 
1391.000000	63.279867 
1390.000000	63.300299 
1389.000000	63.324236 
1388.000000	63.348817 
1387.000000	63.371658 
1386.000000	63.391304 
1385.000000	63.407182 
1384.000000	63.419342 
1383.000000	63.428258 
1382.000000	63.434410 
1381.000000	63.437747 
1380.000000	63.437724 
1379.000000	63.433742 
1378.000000	63.425159 
1377.000000	63.412022 
1376.000000	63.394808 
1375.000000	63.374948 
1374.000000	63.354325 
1373.000000	63.334774 
1372.000000	63.318061 
1371.000000	63.305163 
1370.000000	63.296461 
1369.000000	63.291740 
1368.000000	63.290762 
1367.000000	63.293123 
1366.000000	63.298749 
1365.000000	63.307595 
1364.000000	63.319611 
1363.000000	63.334584 
1362.000000	63.351702 
1361.000000	63.369727 
1360.000000	63.387155 
1359.000000	63.402462 
1358.000000	63.414621 
1357.000000	63.423323 
1356.000000	63.428950 
1355.000000	63.432431 
1354.000000	63.435006 
1353.000000	63.437628 
1352.000000	63.440704 
1351.000000	63.443708 
1350.000000	63.445734 
1349.000000	63.445210 
1348.000000	63.441109 
1347.000000	63.432693 
1346.000000	63.419818 
1345.000000	63.403129 
1344.000000	63.383817 
1343.000000	63.363385 
1342.000000	63.343310 
1341.000000	63.325095 
1340.000000	63.309907 
1339.000000	63.298845 
1338.000000	63.292908 
1337.000000	63.292860 
1336.000000	63.299083 
1335.000000	63.311338 
1334.000000	63.328528 
1333.000000	63.348555 
1332.000000	63.368463 
1331.000000	63.384938 
1330.000000	63.395118 
1329.000000	63.396739 
1328.000000	63.389253 
1327.000000	63.373708 
1326.000000	63.352823 
1325.000000	63.330364 
1324.000000	63.310337 
1323.000000	63.296389 
1322.000000	63.291001 
1321.000000	63.295173 
1320.000000	63.308167 
1319.000000	63.327956 
1318.000000	63.351440 
1317.000000	63.375234 
1316.000000	63.396096 
1315.000000	63.411498 
1314.000000	63.419890 
1313.000000	63.420629 
1312.000000	63.414120 
1311.000000	63.401484 
1310.000000	63.384532 
1309.000000	63.365459 
1308.000000	63.346457 
1307.000000	63.329458 
1306.000000	63.315987 
1305.000000	63.306593 
1304.000000	63.300943 
1303.000000	63.297748 
1302.000000	63.294935 
1301.000000	63.290357 
1300.000000	63.282299 
1299.000000	63.270211 
1298.000000	63.254451 
1297.000000	63.236570 
1296.000000	63.218879 
1295.000000	63.203787 
1294.000000	63.193011 
1293.000000	63.187217 
1292.000000	63.185715 
1291.000000	63.186669 
1290.000000	63.187599 
1289.000000	63.186192 
1288.000000	63.181066 
1287.000000	63.171839 
1286.000000	63.159418 
1285.000000	63.145589 
1284.000000	63.132452 
1283.000000	63.121843 
1282.000000	63.114809 
1281.000000	63.111495 
1280.000000	63.111162 
1279.000000	63.112640 
1278.000000	63.114428 
1277.000000	63.114929 
1276.000000	63.112425 
1275.000000	63.105607 
1274.000000	63.093400 
1273.000000	63.074970 
1272.000000	63.050365 
1271.000000	63.020348 
1270.000000	62.986826 
1269.000000	62.952661 
1268.000000	62.921142 
1267.000000	62.895607 
1266.000000	62.878346 
1265.000000	62.870144 
1264.000000	62.869811 
1263.000000	62.874412 
1262.000000	62.880182 
1261.000000	62.883162 
1260.000000	62.880611 
1259.000000	62.871742 
1258.000000	62.857699 
1257.000000	62.841248 
1256.000000	62.825775 
1255.000000	62.814497 
1254.000000	62.809348 
1253.000000	62.810468 
1252.000000	62.816500 
1251.000000	62.824964 
1250.000000	62.833046 
1249.000000	62.838268 
1248.000000	62.839460 
1247.000000	62.836694 
1246.000000	62.831139 
1245.000000	62.824463 
1244.000000	62.818145 
1243.000000	62.813115 
1242.000000	62.809205 
1241.000000	62.805438 
1240.000000	62.800669 
1239.000000	62.793827 
1238.000000	62.784385 
1237.000000	62.772941 
1236.000000	62.760972 
1235.000000	62.750911 
1234.000000	62.745237 
1233.000000	62.746047 
1232.000000	62.754583 
1231.000000	62.770771 
1230.000000	62.793588 
1229.000000	62.820839 
1228.000000	62.849903 
1227.000000	62.878322 
1226.000000	62.904167 
1225.000000	62.926459 
1224.000000	62.944984 
1223.000000	62.960147 
1222.000000	62.972545 
1221.000000	62.982630 
1220.000000	62.990641 
1219.000000	62.996554 
1218.000000	63.000130 
1217.000000	63.001036 
1216.000000	62.999415 
1215.000000	62.995958 
1214.000000	62.991905 
1213.000000	62.988924 
1212.000000	62.988615 
1211.000000	62.992358 
1210.000000	63.000655 
1209.000000	63.013243 
1208.000000	63.028740 
1207.000000	63.045048 
1206.000000	63.059639 
1205.000000	63.070082 
1204.000000	63.074350 
1203.000000	63.071274 
1202.000000	63.060760 
1201.000000	63.043665 
1200.000000	63.021826 
1199.000000	62.997746 
1198.000000	62.974071 
1197.000000	62.952899 
1196.000000	62.935733 
1195.000000	62.922906 
1194.000000	62.913703 
1193.000000	62.906360 
1192.000000	62.898778 
1191.000000	62.889027 
1190.000000	62.875628 
1189.000000	62.857937 
1188.000000	62.836432 
1187.000000	62.812495 
1186.000000	62.787961 
1185.000000	62.764883 
1184.000000	62.744951 
1183.000000	62.729167 
1182.000000	62.717723 
1181.000000	62.709999 
1180.000000	62.704586 
1179.000000	62.699818 
1178.000000	62.694144 
1177.000000	62.686061 
1176.000000	62.674379 
1175.000000	62.658429 
1174.000000	62.638139 
1173.000000	62.613892 
1172.000000	62.586498 
1171.000000	62.557339 
1170.000000	62.527894 
1169.000000	62.499666 
1168.000000	62.473893 
1167.000000	62.451577 
1166.000000	62.433552 
1165.000000	62.420105 
1164.000000	62.411403 
1163.000000	62.407541 
1162.000000	62.408590 
1161.000000	62.414479 
1160.000000	62.425184 
1159.000000	62.440395 
1158.000000	62.459897 
1157.000000	62.483048 
1156.000000	62.509441 
1155.000000	62.538456 
1154.000000	62.569761 
1153.000000	62.602806 
1152.000000	62.637186 
1151.000000	62.672424 
1150.000000	62.707901 
1149.000000	62.742757 
1148.000000	62.776017 
1147.000000	62.806773 
1146.000000	62.834095 
1145.000000	62.857341 
1144.000000	62.876367 
1143.000000	62.891483 
1142.000000	62.903547 
1141.000000	62.913346 
1140.000000	62.921977 
1139.000000	62.930178 
1138.000000	62.937903 
1137.000000	62.944388 
1136.000000	62.948513 
1135.000000	62.949132 
1134.000000	62.945866 
1133.000000	62.939095 
1132.000000	62.930417 
1131.000000	62.922072 
1130.000000	62.916517 
1129.000000	62.915873 
1128.000000	62.920951 
1127.000000	62.931776 
1126.000000	62.947201 
1125.000000	62.965512 
1124.000000	62.984609 
1123.000000	63.002395 
1122.000000	63.017201 
1121.000000	63.027477 
1120.000000	63.032078 
1119.000000	63.030838 
1118.000000	63.024616 
1117.000000	63.015174 
1116.000000	63.004755 
1115.000000	62.996101 
1114.000000	62.991499 
1113.000000	62.992334 
1112.000000	62.998628 
1111.000000	63.009309 
1110.000000	63.022065 
1109.000000	63.033986 
1108.000000	63.041949 
1107.000000	63.043403 
1106.000000	63.037014 
1105.000000	63.022589 
1104.000000	63.001871 
1103.000000	62.978100 
1102.000000	62.955451 
1101.000000	62.938165 
1100.000000	62.929487 
1099.000000	62.930631 
1098.000000	62.940359 
1097.000000	62.955260 
1096.000000	62.970304 
1095.000000	62.980055 
1094.000000	62.979936 
1093.000000	62.967419 
1092.000000	62.942528 
1091.000000	62.907791 
1090.000000	62.867617 
1089.000000	62.827110 
1088.000000	62.791180 
1087.000000	62.763261 
1086.000000	62.744903 
1085.000000	62.735247 
1084.000000	62.731671 
1083.000000	62.730360 
1082.000000	62.727260 
1081.000000	62.719392 
1080.000000	62.705039 
1079.000000	62.684726 
1078.000000	62.660431 
1077.000000	62.635779 
1076.000000	62.614703 
1075.000000	62.600994 
1074.000000	62.597370 
1073.000000	62.605142 
1072.000000	62.623906 
1071.000000	62.651777 
1070.000000	62.685871 
1069.000000	62.722754 
1068.000000	62.759041 
1067.000000	62.791609 
1066.000000	62.818145 
1065.000000	62.837147 
1064.000000	62.847828 
1063.000000	62.850236 
1062.000000	62.845134 
1061.000000	62.833952 
1060.000000	62.818670 
1059.000000	62.802028 
1058.000000	62.787103 
1057.000000	62.776875 
1056.000000	62.773680 
1055.000000	62.779235 
1054.000000	62.793827 
1053.000000	62.816309 
1052.000000	62.844419 
1051.000000	62.874627 
1050.000000	62.903356 
1049.000000	62.927341 
1048.000000	62.944531 
1047.000000	62.954092 
1046.000000	62.956452 
1045.000000	62.953019 
1044.000000	62.945652 
1043.000000	62.936210 
1042.000000	62.926006 
1041.000000	62.916064 
1040.000000	62.906813 
1039.000000	62.898516 
1038.000000	62.891459 
1037.000000	62.886381 
1036.000000	62.884068 
1035.000000	62.885499 
1034.000000	62.891626 
1033.000000	62.902927 
1032.000000	62.919259 
1031.000000	62.939453 
1030.000000	62.961411 
1029.000000	62.982058 
1028.000000	62.998127 
1027.000000	63.006496 
1026.000000	63.004755 
1025.000000	62.991786 
1024.000000	62.968111 
1023.000000	62.935805 
1022.000000	62.898111 
1021.000000	62.858915 
1020.000000	62.822246 
1019.000000	62.791275 
1018.000000	62.768077 
1017.000000	62.753272 
1016.000000	62.746047 
1015.000000	62.744474 
1014.000000	62.745881 
1013.000000	62.747597 
1012.000000	62.747573 
1011.000000	62.744712 
1010.000000	62.739133 
1009.000000	62.731909 
1008.000000	62.725090 
1007.000000	62.721037 
1006.000000	62.721896 
1005.000000	62.729024 
1004.000000	62.742662 
1003.000000	62.762093 
1002.000000	62.785577 
1001.000000	62.810778 
1000.000000	62.835264 
999.000000	 62.856984 
998.000000	 62.874627 
997.000000	 62.887835 
996.000000	 62.897205 
995.000000	 62.904047 
994.000000	 62.910127 
993.000000	 62.917375 
992.000000	 62.927269 
991.000000	 62.940835 
990.000000	 62.958407 
989.000000	 62.979865 
988.000000	 63.004422 
987.000000	 63.030982 
986.000000	 63.058090 
985.000000	 63.084149 
984.000000	 63.107347 
983.000000	 63.125658 
982.000000	 63.136911 
981.000000	 63.139176 
980.000000	 63.131117 
979.000000	 63.112211 
978.000000	 63.083052 
977.000000	 63.045430 
976.000000	 63.002514 
975.000000	 62.957978 
974.000000	 62.916040 
973.000000	 62.880277 
972.000000	 62.853384 
971.000000	 62.836766 
970.000000	 62.830233 
969.000000	 62.832331 
968.000000	 62.840819 
967.000000	 62.853193 
966.000000	 62.866902 
965.000000	 62.880063 
964.000000	 62.891602 
963.000000	 62.901139 
962.000000	 62.908816 
961.000000	 62.915039 
960.000000	 62.920188 
959.000000	 62.924599 
958.000000	 62.928295 
957.000000	 62.931036 
956.000000	 62.932276 
955.000000	 62.931394 
954.000000	 62.927770 
953.000000	 62.921071 
952.000000	 62.911319 
951.000000	 62.898898 
950.000000	 62.884736 
949.000000	 62.870049 
948.000000	 62.856531 
947.000000	 62.845683 
946.000000	 62.838983 
945.000000	 62.837386 
944.000000	 62.841081 
943.000000	 62.849760 
942.000000	 62.862181 
941.000000	 62.876343 
940.000000	 62.890028 
939.000000	 62.901091 
938.000000	 62.908267 
937.000000	 62.911057 
936.000000	 62.910389 
935.000000	 62.907910 
934.000000	 62.906098 
933.000000	 62.907695 
932.000000	 62.914943 
931.000000	 62.928867 
930.000000	 62.949323 
929.000000	 62.974572 
928.000000	 63.001918 
927.000000	 63.028001 
926.000000	 63.049554 
925.000000	 63.063788 
924.000000	 63.068938 
923.000000	 63.064432 
922.000000	 63.050460 
921.000000	 63.028287 
920.000000	 62.999677 
919.000000	 62.967228 
918.000000	 62.933993 
917.000000	 62.903094 
916.000000	 62.878060 
915.000000	 62.861442 
914.000000	 62.855076 
913.000000	 62.858915 
912.000000	 62.870883 
911.000000	 62.887310 
910.000000	 62.903308 
909.000000	 62.913870 
908.000000	 62.914872 
907.000000	 62.904214 
906.000000	 62.882399 
905.000000	 62.852621 
904.000000	 62.819719 
903.000000	 62.789416 
902.000000	 62.766814 
901.000000	 62.755370 
900.000000	 62.756180 
899.000000	 62.768244 
898.000000	 62.788891 
897.000000	 62.814569 
896.000000	 62.841844 
895.000000	 62.867832 
894.000000	 62.890458 
893.000000	 62.908434 
892.000000	 62.920999 
891.000000	 62.927556 
890.000000	 62.927627 
889.000000	 62.920880 
888.000000	 62.907052 
887.000000	 62.886333 
886.000000	 62.859535 
885.000000	 62.828302 
884.000000	 62.795138 
883.000000	 62.762999 
882.000000	 62.734889 
881.000000	 62.713313 
880.000000	 62.700033 
879.000000	 62.695741 
878.000000	 62.700033 
877.000000	 62.711453 
876.000000	 62.728023 
875.000000	 62.747669 
874.000000	 62.768459 
873.000000	 62.789130 
872.000000	 62.809133 
871.000000	 62.828826 
870.000000	 62.848949 
869.000000	 62.870073 
868.000000	 62.892436 
867.000000	 62.915158 
866.000000	 62.936711 
865.000000	 62.954735 
864.000000	 62.966775 
863.000000	 62.970757 
862.000000	 62.965750 
861.000000	 62.951731 
860.000000	 62.930178 
859.000000	 62.903189 
858.000000	 62.873411 
857.000000	 62.843155 
856.000000	 62.814140 
855.000000	 62.787461 
854.000000	 62.763738 
853.000000	 62.743234 
852.000000	 62.726259 
851.000000	 62.713336 
850.000000	 62.705254 
849.000000	 62.702298 
848.000000	 62.703943 
847.000000	 62.708377 
846.000000	 62.712979 
845.000000	 62.714624 
844.000000	 62.710690 
843.000000	 62.699723 
842.000000	 62.682390 
841.000000	 62.661242 
840.000000	 62.640523 
839.000000	 62.624907 
838.000000	 62.618374 
837.000000	 62.623405 
836.000000	 62.639975 
835.000000	 62.665295 
834.000000	 62.694573 
833.000000	 62.721848 
832.000000	 62.741780 
831.000000	 62.750554 
830.000000	 62.747502 
829.000000	 62.735152 
828.000000	 62.718844 
827.000000	 62.705397 
826.000000	 62.701034 
825.000000	 62.709760 
824.000000	 62.732100 
823.000000	 62.765312 
822.000000	 62.803912 
821.000000	 62.841224 
820.000000	 62.871313 
819.000000	 62.890315 
818.000000	 62.896966 
817.000000	 62.892532 
816.000000	 62.879967 
815.000000	 62.862944 
814.000000	 62.844848 
813.000000	 62.827944 
812.000000	 62.813210 
811.000000	 62.799859 
810.000000	 62.786412 
809.000000	 62.770962 
808.000000	 62.751913 
807.000000	 62.728667 
806.000000	 62.701845 
805.000000	 62.673497 
804.000000	 62.646150 
803.000000	 62.623023 
802.000000	 62.606835 
801.000000	 62.599587 
800.000000	 62.601780 
799.000000	 62.612819 
798.000000	 62.631058 
797.000000	 62.654256 
796.000000	 62.679910 
795.000000	 62.705659 
794.000000	 62.729597 
793.000000	 62.750363 
792.000000	 62.767052 
791.000000	 62.779235 
790.000000	 62.786531 
789.000000	 62.788820 
788.000000	 62.785720 
787.000000	 62.777185 
786.000000	 62.762784 
785.000000	 62.742900 
784.000000	 62.717890 
783.000000	 62.688589 
782.000000	 62.655925 
781.000000	 62.621283 
780.000000	 62.585997 
779.000000	 62.551331 
778.000000	 62.518548 
777.000000	 62.488651 
776.000000	 62.462687 
775.000000	 62.441563 
774.000000	 62.426328 
773.000000	 62.417721 
772.000000	 62.416291 
771.000000	 62.422013 
770.000000	 62.434267 
769.000000	 62.451720 
768.000000	 62.472677 
767.000000	 62.495398 
766.000000	 62.518262 
765.000000	 62.540078 
764.000000	 62.560343 
763.000000	 62.579441 
762.000000	 62.598133 
761.000000	 62.617540 
760.000000	 62.638711 
759.000000	 62.662172 
758.000000	 62.687873 
757.000000	 62.714958 
756.000000	 62.741899 
755.000000	 62.766671 
754.000000	 62.787342 
753.000000	 62.802195 
752.000000	 62.810134 
751.000000	 62.810635 
750.000000	 62.804388 
749.000000	 62.792539 
748.000000	 62.776446 
747.000000	 62.757396 
746.000000	 62.736630 
745.000000	 62.714719 
744.000000	 62.691736 
743.000000	 62.667393 
742.000000	 62.641477 
741.000000	 62.614250 
740.000000	 62.586736 
739.000000	 62.560820 
738.000000	 62.538766 
737.000000	 62.522983 
736.000000	 62.515282 
735.000000	 62.516283 
734.000000	 62.524962 
733.000000	 62.538981 
732.000000	 62.555003 
731.000000	 62.569117 
730.000000	 62.578058 
729.000000	 62.579870 
728.000000	 62.574481 
727.000000	 62.563419 
726.000000	 62.549877 
725.000000	 62.537837 
724.000000	 62.531113 
723.000000	 62.532639 
722.000000	 62.543296 
721.000000	 62.562179 
720.000000	 62.586212 
719.000000	 62.611222 
718.000000	 62.632513 
717.000000	 62.645864 
716.000000	 62.648296 
715.000000	 62.638831 
714.000000	 62.618637 
713.000000	 62.590718 
712.000000	 62.559366 
711.000000	 62.529134 
710.000000	 62.504172 
709.000000	 62.487149 
708.000000	 62.479162 
707.000000	 62.479352 
706.000000	 62.485313 
705.000000	 62.493586 
704.000000	 62.500834 
703.000000	 62.504410 
702.000000	 62.502574 
701.000000	 62.495231 
700.000000	 62.483477 
699.000000	 62.469696 
698.000000	 62.456822 
697.000000	 62.447929 
696.000000	 62.445116 
695.000000	 62.449526 
694.000000	 62.461304 
693.000000	 62.479186 
692.000000	 62.501025 
691.000000	 62.523770 
690.000000	 62.544226 
689.000000	 62.559080 
688.000000	 62.565541 
687.000000	 62.561345 
686.000000	 62.545275 
685.000000	 62.517189 
684.000000	 62.478446 
683.000000	 62.431740 
682.000000	 62.381505 
681.000000	 62.333488 
680.000000	 62.294054 
679.000000	 62.269449 
678.000000	 62.264418 
677.000000	 62.281632 
676.000000	 62.320327 
675.000000	 62.376260 
674.000000	 62.441349 
673.000000	 62.505507 
672.000000	 62.558031 
671.000000	 62.589597 
670.000000	 62.594151 
669.000000	 62.569952 
668.000000	 62.520146 
667.000000	 62.451934 
666.000000	 62.375187 
665.000000	 62.300539 
664.000000	 62.237024 
663.000000	 62.190699 
662.000000	 62.163949 
661.000000	 62.155652 
660.000000	 62.161993 
659.000000	 62.178206 
658.000000	 62.199544 
657.000000	 62.222814 
656.000000	 62.246704 
655.000000	 62.271904 
654.000000	 62.299776 
653.000000	 62.332081 
652.000000	 62.369966 
651.000000	 62.413430 
650.000000	 62.461018 
649.000000	 62.509727 
648.000000	 62.555766 
647.000000	 62.594747 
646.000000	 62.622928 
645.000000	 62.637233 
644.000000	 62.636399 
643.000000	 62.620711 
642.000000	 62.592196 
641.000000	 62.554311 
640.000000	 62.511444 
639.000000	 62.468600 
638.000000	 62.430930 
637.000000	 62.403106 
636.000000	 62.388849 
635.000000	 62.390518 
634.000000	 62.408638 
633.000000	 62.442135 
632.000000	 62.487959 
631.000000	 62.541151 
630.000000	 62.595057 
629.000000	 62.642264 
628.000000	 62.675547 
627.000000	 62.688636 
626.000000	 62.677621 
625.000000	 62.642312 
624.000000	 62.585687 
623.000000	 62.513899 
622.000000	 62.434387 
621.000000	 62.354826 
620.000000	 62.281656 
619.000000	 62.218785 
618.000000	 62.168598 
617.000000	 62.131977 
616.000000	 62.109994 
615.000000	 62.103915 
614.000000	 62.116146 
613.000000	 62.149763 
612.000000	 62.206244 
611.000000	 62.284040 
610.000000	 62.376284 
609.000000	 62.470722 
608.000000	 62.551116 
607.000000	 62.600493 
606.000000	 62.604856 
605.000000	 62.556672 
604.000000	 62.458372 
603.000000	 62.321877 
602.000000	 62.164878 
601.000000	 62.007164 
600.000000	 61.866569 
599.000000	 61.755537 
598.000000	 61.679363 
597.000000	 61.636447 
596.000000	 61.620974 
595.000000	 61.624670 
594.000000	 61.640143 
593.000000	 61.661648 
592.000000	 61.685037 
591.000000	 61.708021 
590.000000	 61.727976 
589.000000	 61.742448 
588.000000	 61.747336 
587.000000	 61.738777 
586.000000	 61.713767 
585.000000	 61.672210 
584.000000	 61.617517 
583.000000	 61.557221 
582.000000	 61.501741 
581.000000	 61.463165 
580.000000	 61.453247 
579.000000	 61.481809 
578.000000	 61.555099 
577.000000	 61.674976 
576.000000	 61.838293 
575.000000	 62.037873 
574.000000	 62.262201 
573.000000	 62.496542 
572.000000	 62.723684 
571.000000	 62.926006 
570.000000	 63.087010 
569.000000	 63.194155 
568.000000	 63.239908 
567.000000	 63.223934 
566.000000	 63.151621 
565.000000	 63.035678 
564.000000	 62.891459 
563.000000	 62.736296 
562.000000	 62.585163 
561.000000	 62.450027 
560.000000	 62.338280 
559.000000	 62.253332 
558.000000	 62.195992 
557.000000	 62.166023 
556.000000	 62.163734 
555.000000	 62.189793 
554.000000	 62.244796 
553.000000	 62.327384 
552.000000	 62.431836 
551.000000	 62.547564 
550.000000	 62.658786 
549.000000	 62.747406 
548.000000	 62.797975 
547.000000	 62.800359 
546.000000	 62.752342 
545.000000	 62.659096 
544.000000	 62.532901 
543.000000	 62.388992 
542.000000	 62.242031 
541.000000	 62.102985 
540.000000	 61.978077 
539.000000	 61.868953 
538.000000	 61.775231 
537.000000	 61.696290 
536.000000	 61.633253 
535.000000	 61.589479 
534.000000	 61.569476 
533.000000	 61.577749 
532.000000	 61.615157 
531.000000	 61.680316 
530.000000	 61.767530 
529.000000	 61.870503 
528.000000	 61.982226 
527.000000	 62.097620 
526.000000	 62.212610 
525.000000	 62.320232 
524.000000	 62.409543 
523.000000	 62.463951 
522.000000	 62.464761 
521.000000	 62.394976 
520.000000	 62.246704 
519.000000	 62.025213 
518.000000	 61.752676 
517.000000	 61.467099 
516.000000	 61.215853 
515.000000	 61.045789 
514.000000	 60.992860 
513.000000	 61.074042 
512.000000	 61.282205 
511.000000	 61.587667 
510.000000	 61.943459 
509.000000	 62.294816 
508.000000	 62.591695 
507.000000	 62.798404 
506.000000	 62.900161 
505.000000	 62.902069 
504.000000	 62.827610 
503.000000	 62.709379 
502.000000	 62.583279 
501.000000	 62.479782 
500.000000	 62.419390 
499.000000	 62.409758 
498.000000	 62.446808 
497.000000	 62.517285 
496.000000	 62.602567 
495.000000	 62.682580 
494.000000	 62.738847 
493.000000	 62.757492 
492.000000	 62.728762 
491.000000	 62.649512 
490.000000	 62.523055 
489.000000	 62.359476 
488.000000	 62.172627 
487.000000	 61.980152 
486.000000	 61.800980 
485.000000	 61.654067 
484.000000	 61.554312 
483.000000	 61.512708 
482.000000	 61.535453 
481.000000	 61.621403 
480.000000	 61.762857 
479.000000	 61.943101 
478.000000	 62.138724 
477.000000	 62.320613 
476.000000	 62.457656 
475.000000	 62.524247 
474.000000	 62.504982 
473.000000	 62.399911 
472.000000	 62.225031 
471.000000	 62.008547 
470.000000	 61.784100 
469.000000	 61.585855 
468.000000	 61.438989 
467.000000	 61.354637 
466.000000	 61.325526 
465.000000	 61.331534 
464.000000	 61.341547 
463.000000	 61.321783 
462.000000	 61.242985 
461.000000	 61.086416 
460.000000	 60.849261 
459.000000	 60.543227 
458.000000	 60.194373 
457.000000	 59.834504 
456.000000	 59.498834 
455.000000	 59.217405 
454.000000	 59.013223 
453.000000	 58.898520 
452.000000	 58.875012 
451.000000	 58.932638 
450.000000	 59.056472 
449.000000	 59.228825 
448.000000	 59.434318 
447.000000	 59.660506 
446.000000	 59.899473 
445.000000	 60.145640 
444.000000	 60.396599 
443.000000	 60.650420 
442.000000	 60.903215 
441.000000	 61.148142 
440.000000	 61.377286 
439.000000	 61.581063 
438.000000	 61.754846 
437.000000	 61.894464 
436.000000	 61.997127 
435.000000	 62.057161 
434.000000	 62.072300 
433.000000	 62.037968 
432.000000	 61.946511 
431.000000	 61.793899 
430.000000	 61.580801 
429.000000	 61.322736 
428.000000	 61.050009 
427.000000	 60.808730 
426.000000	 60.651421 
425.000000	 60.628700 
424.000000	 60.778689 
423.000000	 61.110854 
422.000000	 61.600732 
421.000000	 62.187957 
420.000000	 62.787532 
419.000000	 63.300609 
418.000000	 63.635492 
417.000000	 63.731503 
416.000000	 63.574361 
415.000000	 63.195443 
414.000000	 62.668371 
413.000000	 62.094283 
412.000000	 61.583471 
411.000000	 61.229395 
410.000000	 61.095476 
409.000000	 61.214947 
408.000000	 61.579442 
407.000000	 62.153244 
406.000000	 62.866806 
405.000000	 63.632917 
404.000000	 64.351415 
403.000000	 64.924740 
402.000000	 65.269637 
401.000000	 65.326452 
400.000000	 65.072870 
399.000000	 64.531850 
398.000000	 63.760471 
397.000000	 62.841844 
396.000000	 61.866283 
395.000000	 60.922908 
394.000000	 60.069584 
393.000000	 59.328055 
392.000000	 58.689546 
391.000000	 58.127856 
390.000000	 57.604646 
389.000000	 57.085204 
388.000000	 56.552624 
387.000000	 56.012940 
386.000000	 55.478453 
385.000000	 54.969143 
384.000000	 54.505133 
383.000000	 54.106068 
382.000000	 53.772425 
381.000000	 53.507351 
380.000000	 53.292918 
379.000000	 53.131699 
378.000000	 53.074955 
377.000000	 53.192067 
376.000000	 53.536272 
375.000000	 54.135012 
374.000000	 54.958677 
373.000000	 55.938601 
372.000000	 56.958079 
371.000000	 57.916688 
370.000000	 58.747100 

